# Date of analysis: 2023-10-05 17;22
# 
# Loop index	Read Volt (V)	Write Volt (V)	Amplitude (a.u)	Phase (°)	
1		0.00		0.00		2.191e-02		-60.461
1		0.00		0.40		1.975e-02		-60.021
1		0.00		0.80		1.851e-02		-58.450
1		0.00		1.20		1.821e-02		-54.199
1		0.00		1.60		1.687e-02		-51.012
1		0.00		2.00		1.683e-02		-51.918
1		0.00		2.40		1.753e-02		-45.582
1		0.00		2.80		1.784e-02		-42.933
1		0.00		3.20		1.828e-02		-34.278
1		0.00		3.60		1.976e-02		-39.611
1		0.00		4.00		2.010e-02		-42.327
1		0.00		4.40		2.008e-02		-53.746
1		0.00		4.80		1.887e-02		-60.353
1		0.00		5.20		1.964e-02		-58.613
1		0.00		5.60		2.084e-02		-54.465
1		0.00		6.00		2.117e-02		-53.709
1		0.00		6.40		2.147e-02		-53.103
1		0.00		6.80		2.233e-02		-50.697
1		0.00		7.20		2.480e-02		-50.946
1		0.00		7.60		2.601e-02		-46.642
1		0.00		8.00		2.564e-02		-44.462
1		0.00		8.40		2.341e-02		-42.122
1		0.00		8.80		2.429e-02		-41.733
1		0.00		9.20		2.471e-02		-36.220
1		0.00		9.60		2.442e-02		-44.270
1		0.00		10.00		2.674e-02		-50.003
1		0.00		9.60		2.524e-02		-54.403
1		0.00		9.20		2.391e-02		-55.922
1		0.00		8.80		2.494e-02		-57.683
1		0.00		8.40		2.689e-02		-55.903
1		0.00		8.00		2.865e-02		-53.264
1		0.00		7.60		2.666e-02		-53.543
1		0.00		7.20		2.974e-02		-50.326
1		0.00		6.80		2.818e-02		-48.795
1		0.00		6.40		2.839e-02		-48.788
1		0.00		6.00		3.114e-02		-46.866
1		0.00		5.60		2.837e-02		-46.274
1		0.00		5.20		2.829e-02		-45.585
1		0.00		4.80		2.745e-02		-42.416
1		0.00		4.40		2.674e-02		-41.351
1		0.00		4.00		2.523e-02		-46.875
1		0.00		3.60		2.498e-02		-49.647
1		0.00		3.20		2.420e-02		-53.950
1		0.00		2.80		2.340e-02		-57.105
1		0.00		2.40		2.295e-02		-58.451
1		0.00		2.00		2.215e-02		-56.934
1		0.00		1.60		2.177e-02		-56.492
1		0.00		1.20		2.091e-02		-54.039
1		0.00		0.80		2.055e-02		-52.465
1		0.00		0.40		1.992e-02		-53.508
1		0.00		0.00		1.856e-02		-51.662
1		0.00		-0.40		1.679e-02		-52.738
1		0.00		-0.80		1.414e-02		-50.630
1		0.00		-1.20		1.050e-02		-50.005
1		0.00		-1.60		7.109e-03		-41.621
1		0.00		-2.00		5.881e-03		25.185
1		0.00		-2.40		6.361e-03		55.001
1		0.00		-2.80		7.771e-03		84.030
1		0.00		-3.20		1.015e-02		95.159
1		0.00		-3.60		1.185e-02		106.407
1		0.00		-4.00		1.475e-02		110.915
1		0.00		-4.40		1.836e-02		115.357
1		0.00		-4.80		2.034e-02		117.090
1		0.00		-5.20		2.189e-02		119.575
1		0.00		-5.60		2.355e-02		121.177
1		0.00		-6.00		2.541e-02		119.900
1		0.00		-6.40		2.266e-02		120.306
1		0.00		-6.80		2.566e-02		115.929
1		0.00		-7.20		3.000e-02		115.699
1		0.00		-7.60		2.908e-02		115.672
1		0.00		-8.00		3.119e-02		121.091
1		0.00		-8.40		3.294e-02		120.463
1		0.00		-8.80		3.544e-02		123.220
1		0.00		-9.20		3.383e-02		124.005
1		0.00		-9.60		3.468e-02		126.749
1		0.00		-10.00		3.639e-02		122.030
1		0.00		-9.60		3.609e-02		123.266
1		0.00		-9.20		3.469e-02		130.383
1		0.00		-8.80		3.522e-02		130.816
1		0.00		-8.40		3.592e-02		130.449
1		0.00		-8.00		3.422e-02		124.019
1		0.00		-7.60		3.482e-02		126.821
1		0.00		-7.20		3.518e-02		118.689
1		0.00		-6.80		3.469e-02		112.684
1		0.00		-6.40		3.396e-02		117.893
1		0.00		-6.00		3.208e-02		119.750
1		0.00		-5.60		3.171e-02		126.125
1		0.00		-5.20		3.085e-02		128.554
1		0.00		-4.80		2.955e-02		126.449
1		0.00		-4.40		2.805e-02		128.813
1		0.00		-4.00		2.698e-02		126.766
1		0.00		-3.60		2.485e-02		128.027
1		0.00		-3.20		2.326e-02		130.636
1		0.00		-2.80		2.071e-02		126.626
1		0.00		-2.40		1.879e-02		122.420
1		0.00		-2.00		1.668e-02		125.455
1		0.00		-1.60		1.511e-02		125.940
1		0.00		-1.20		1.334e-02		114.064
1		0.00		-0.80		1.233e-02		117.278
1		0.00		-0.40		1.089e-02		111.300
2		0.00		0.00		9.664e-03		115.209
2		0.00		0.40		8.550e-03		112.844
2		0.00		0.80		6.785e-03		107.079
2		0.00		1.20		5.471e-03		96.672
2		0.00		1.60		4.265e-03		78.010
2		0.00		2.00		3.345e-03		20.633
2		0.00		2.40		2.981e-03		-56.255
2		0.00		2.80		4.353e-03		-59.984
2		0.00		3.20		6.890e-03		-62.962
2		0.00		3.60		8.985e-03		-57.757
2		0.00		4.00		1.288e-02		-57.601
2		0.00		4.40		1.465e-02		-50.136
2		0.00		4.80		1.761e-02		-49.457
2		0.00		5.20		2.071e-02		-48.571
2		0.00		5.60		2.325e-02		-46.756
2		0.00		6.00		2.513e-02		-44.822
2		0.00		6.40		2.738e-02		-46.686
2		0.00		6.80		2.862e-02		-53.051
2		0.00		7.20		2.863e-02		-56.058
2		0.00		7.60		2.932e-02		-52.050
2		0.00		8.00		3.192e-02		-53.455
2		0.00		8.40		3.102e-02		-54.388
2		0.00		8.80		3.238e-02		-52.643
2		0.00		9.20		3.272e-02		-52.149
2		0.00		9.60		3.168e-02		-51.956
2		0.00		10.00		3.262e-02		-48.917
2		0.00		9.60		3.242e-02		-50.491
2		0.00		9.20		3.175e-02		-48.885
2		0.00		8.80		3.248e-02		-47.932
2		0.00		8.40		3.139e-02		-43.504
2		0.00		8.00		3.125e-02		-43.711
2		0.00		7.60		3.009e-02		-45.283
2		0.00		7.20		2.912e-02		-54.498
2		0.00		6.80		2.884e-02		-53.989
2		0.00		6.40		2.880e-02		-57.404
2		0.00		6.00		2.810e-02		-55.452
2		0.00		5.60		2.831e-02		-55.603
2		0.00		5.20		2.716e-02		-54.263
2		0.00		4.80		2.662e-02		-53.704
2		0.00		4.40		2.656e-02		-51.385
2		0.00		4.00		2.526e-02		-51.986
2		0.00		3.60		2.494e-02		-49.747
2		0.00		3.20		2.515e-02		-50.219
2		0.00		2.80		2.473e-02		-55.093
2		0.00		2.40		2.443e-02		-55.459
2		0.00		2.00		2.492e-02		-55.518
2		0.00		1.60		2.419e-02		-56.417
2		0.00		1.20		2.376e-02		-56.544
2		0.00		0.80		2.355e-02		-53.825
2		0.00		0.40		2.183e-02		-54.561
2		0.00		0.00		2.017e-02		-52.766
2		0.00		-0.40		1.742e-02		-51.938
2		0.00		-0.80		1.216e-02		-53.175
2		0.00		-1.20		8.784e-03		-57.937
2		0.00		-1.60		6.146e-03		-34.531
2		0.00		-2.00		5.534e-03		28.383
2		0.00		-2.40		6.594e-03		70.600
2		0.00		-2.80		8.041e-03		89.968
2		0.00		-3.20		1.009e-02		99.030
2		0.00		-3.60		1.324e-02		111.894
2		0.00		-4.00		1.578e-02		114.257
2		0.00		-4.40		1.951e-02		122.271
2		0.00		-4.80		2.336e-02		124.445
2		0.00		-5.20		2.817e-02		124.401
2		0.00		-5.60		2.982e-02		124.591
2		0.00		-6.00		3.338e-02		126.962
2		0.00		-6.40		3.580e-02		121.110
2		0.00		-6.80		3.714e-02		122.123
2		0.00		-7.20		3.849e-02		119.512
2		0.00		-7.60		3.864e-02		119.925
2		0.00		-8.00		4.058e-02		121.817
2		0.00		-8.40		4.018e-02		124.568
2		0.00		-8.80		4.008e-02		127.300
2		0.00		-9.20		4.205e-02		126.056
2		0.00		-9.60		3.844e-02		129.556
2		0.00		-10.00		3.973e-02		129.614
2		0.00		-9.60		4.039e-02		128.119
2		0.00		-9.20		4.386e-02		127.739
2		0.00		-8.80		4.327e-02		129.206
2		0.00		-8.40		4.298e-02		126.889
2		0.00		-8.00		4.194e-02		123.590
2		0.00		-7.60		4.568e-02		124.185
2		0.00		-7.20		4.229e-02		127.006
2		0.00		-6.80		4.193e-02		129.424
2		0.00		-6.40		4.064e-02		129.618
2		0.00		-6.00		3.966e-02		129.178
2		0.00		-5.60		3.883e-02		128.731
2		0.00		-5.20		3.701e-02		128.797
2		0.00		-4.80		3.396e-02		127.025
2		0.00		-4.40		3.210e-02		123.258
2		0.00		-4.00		3.001e-02		122.634
2		0.00		-3.60		2.817e-02		125.618
2		0.00		-3.20		2.522e-02		128.349
2		0.00		-2.80		2.336e-02		127.886
2		0.00		-2.40		2.123e-02		130.257
2		0.00		-2.00		1.934e-02		128.822
2		0.00		-1.60		1.668e-02		129.547
2		0.00		-1.20		1.448e-02		128.211
2		0.00		-0.80		1.338e-02		126.571
2		0.00		-0.40		1.127e-02		128.986
3		0.00		0.00		9.273e-03		128.707
3		0.00		0.40		7.522e-03		125.532
3		0.00		0.80		6.236e-03		117.685
3		0.00		1.20		4.042e-03		89.481
3		0.00		1.60		2.777e-03		18.395
3		0.00		2.00		2.533e-03		-33.618
3		0.00		2.40		3.009e-03		-55.228
3		0.00		2.80		4.166e-03		-62.161
3		0.00		3.20		6.330e-03		-63.824
3		0.00		3.60		8.910e-03		-61.101
3		0.00		4.00		1.199e-02		-60.031
3		0.00		4.40		1.562e-02		-58.030
3		0.00		4.80		1.920e-02		-54.554
3		0.00		5.20		2.366e-02		-54.870
3		0.00		5.60		2.659e-02		-52.834
3		0.00		6.00		2.820e-02		-52.208
3		0.00		6.40		2.941e-02		-50.835
3		0.00		6.80		3.227e-02		-56.122
3		0.00		7.20		3.219e-02		-53.698
3		0.00		7.60		3.345e-02		-51.286
3		0.00		8.00		3.441e-02		-51.807
3		0.00		8.40		3.390e-02		-51.015
3		0.00		8.80		3.569e-02		-48.867
3		0.00		9.20		3.462e-02		-50.762
3		0.00		9.60		3.528e-02		-51.271
3		0.00		10.00		3.474e-02		-44.616
3		0.00		9.60		3.247e-02		-40.312
3		0.00		9.20		3.138e-02		-52.873
3		0.00		8.80		3.079e-02		-53.073
3		0.00		8.40		3.166e-02		-55.433
3		0.00		8.00		3.243e-02		-53.948
3		0.00		7.60		3.129e-02		-52.631
3		0.00		7.20		2.991e-02		-49.957
3		0.00		6.80		2.996e-02		-49.762
3		0.00		6.40		2.886e-02		-49.470
3		0.00		6.00		2.856e-02		-45.617
3		0.00		5.60		2.825e-02		-51.579
3		0.00		5.20		2.877e-02		-56.189
3		0.00		4.80		2.626e-02		-52.588
3		0.00		4.40		2.598e-02		-55.995
3		0.00		4.00		2.517e-02		-54.424
3		0.00		3.60		2.479e-02		-53.246
3		0.00		3.20		2.428e-02		-52.632
3		0.00		2.80		2.386e-02		-52.043
3		0.00		2.40		2.235e-02		-47.291
3		0.00		2.00		2.269e-02		-52.248
3		0.00		1.60		2.249e-02		-57.833
3		0.00		1.20		2.139e-02		-54.962
3		0.00		0.80		2.143e-02		-56.825
3		0.00		0.40		2.001e-02		-54.019
3		0.00		0.00		2.033e-02		-53.833
3		0.00		-0.40		1.821e-02		-55.080
3		0.00		-0.80		1.308e-02		-52.686
3		0.00		-1.20		1.023e-02		-59.845
3		0.00		-1.60		6.363e-03		-51.404
3		0.00		-2.00		5.185e-03		-16.888
3		0.00		-2.40		5.987e-03		69.127
3		0.00		-2.80		7.905e-03		81.519
3		0.00		-3.20		1.094e-02		113.773
3		0.00		-3.60		1.525e-02		123.302
3		0.00		-4.00		1.809e-02		122.644
3		0.00		-4.40		2.223e-02		123.461
3		0.00		-4.80		2.556e-02		123.381
3		0.00		-5.20		2.777e-02		113.794
3		0.00		-5.60		3.097e-02		117.149
3		0.00		-6.00		3.483e-02		124.679
3		0.00		-6.40		3.564e-02		126.001
3		0.00		-6.80		3.922e-02		131.108
3		0.00		-7.20		4.007e-02		129.971
3		0.00		-7.60		3.897e-02		120.153
3		0.00		-8.00		4.089e-02		127.293
3		0.00		-8.40		4.266e-02		128.743
3		0.00		-8.80		4.323e-02		128.247
3		0.00		-9.20		4.492e-02		129.635
3		0.00		-9.60		4.305e-02		126.806
3		0.00		-10.00		4.391e-02		122.583
3		0.00		-9.60		4.393e-02		121.838
3		0.00		-9.20		4.386e-02		121.825
3		0.00		-8.80		4.412e-02		125.646
3		0.00		-8.40		4.315e-02		127.188
3		0.00		-8.00		4.119e-02		122.915
3		0.00		-7.60		4.210e-02		127.105
3		0.00		-7.20		4.222e-02		130.777
3		0.00		-6.80		4.245e-02		129.071
3		0.00		-6.40		3.937e-02		128.557
3		0.00		-6.00		3.905e-02		127.237
3		0.00		-5.60		3.847e-02		124.414
3		0.00		-5.20		3.696e-02		124.923
3		0.00		-4.80		3.552e-02		125.413
3		0.00		-4.40		3.400e-02		125.754
3		0.00		-4.00		3.158e-02		127.119
3		0.00		-3.60		2.934e-02		130.383
3		0.00		-3.20		2.725e-02		129.392
3		0.00		-2.80		2.522e-02		128.565
3		0.00		-2.40		2.314e-02		130.708
3		0.00		-2.00		2.074e-02		131.700
3		0.00		-1.60		1.869e-02		132.687
3		0.00		-1.20		1.620e-02		131.906
3		0.00		-0.80		1.402e-02		127.231
3		0.00		-0.40		1.248e-02		127.686
4		0.00		0.00		1.074e-02		125.267
4		0.00		0.40		8.948e-03		121.825
4		0.00		0.80		7.470e-03		109.849
4		0.00		1.20		6.329e-03		114.675
4		0.00		1.60		5.411e-03		112.209
4		0.00		2.00		4.047e-03		65.970
4		0.00		2.40		3.357e-03		0.197
4		0.00		2.80		3.638e-03		-52.322
4		0.00		3.20		5.004e-03		-60.446
4		0.00		3.60		6.689e-03		-69.398
4		0.00		4.00		1.013e-02		-62.942
4		0.00		4.40		1.795e-02		-57.137
4		0.00		4.80		2.255e-02		-60.008
4		0.00		5.20		2.524e-02		-57.468
4		0.00		5.60		2.898e-02		-55.401
4		0.00		6.00		3.008e-02		-54.989
4		0.00		6.40		3.292e-02		-55.063
4		0.00		6.80		3.397e-02		-54.816
4		0.00		7.20		3.230e-02		-53.783
4		0.00		7.60		3.446e-02		-52.899
4		0.00		8.00		3.696e-02		-52.185
4		0.00		8.40		3.667e-02		-47.277
4		0.00		8.80		3.607e-02		-45.963
4		0.00		9.20		3.850e-02		-48.532
4		0.00		9.60		4.083e-02		-45.392
4		0.00		10.00		3.925e-02		-48.748
4		0.00		9.60		3.571e-02		-51.652
4		0.00		9.20		3.732e-02		-52.658
4		0.00		8.80		3.559e-02		-52.938
4		0.00		8.40		3.396e-02		-53.696
4		0.00		8.00		3.391e-02		-52.317
4		0.00		7.60		3.061e-02		-53.043
4		0.00		7.20		3.159e-02		-51.439
4		0.00		6.80		2.872e-02		-50.954
4		0.00		6.40		2.807e-02		-51.923
4		0.00		6.00		2.626e-02		-52.212
4		0.00		5.60		2.590e-02		-51.931
4		0.00		5.20		2.498e-02		-46.382
4		0.00		4.80		2.423e-02		-51.163
4		0.00		4.40		2.615e-02		-54.489
4		0.00		4.00		2.494e-02		-56.549
4		0.00		3.60		2.437e-02		-54.117
4		0.00		3.20		2.348e-02		-55.505
4		0.00		2.80		2.291e-02		-56.195
4		0.00		2.40		2.376e-02		-56.429
4		0.00		2.00		2.414e-02		-54.223
4		0.00		1.60		2.390e-02		-54.137
4		0.00		1.20		2.321e-02		-52.620
4		0.00		0.80		2.245e-02		-51.600
4		0.00		0.40		2.178e-02		-52.545
4		0.00		0.00		2.033e-02		-49.868
4		0.00		-0.40		1.808e-02		-53.375
4		0.00		-0.80		1.509e-02		-50.062
4		0.00		-1.20		1.207e-02		-54.336
4		0.00		-1.60		7.879e-03		-60.630
4		0.00		-2.00		5.529e-03		-15.810
4		0.00		-2.40		5.727e-03		42.955
4		0.00		-2.80		7.557e-03		72.030
4		0.00		-3.20		1.083e-02		106.443
4		0.00		-3.60		1.484e-02		115.237
4		0.00		-4.00		1.890e-02		118.059
4		0.00		-4.40		2.277e-02		122.130
4		0.00		-4.80		2.727e-02		120.446
4		0.00		-5.20		3.143e-02		120.439
4		0.00		-5.60		3.300e-02		117.139
4		0.00		-6.00		3.671e-02		121.358
4		0.00		-6.40		3.802e-02		122.341
4		0.00		-6.80		3.971e-02		126.668
4		0.00		-7.20		4.010e-02		125.704
4		0.00		-7.60		4.158e-02		126.751
4		0.00		-8.00		4.078e-02		126.982
4		0.00		-8.40		4.098e-02		127.026
4		0.00		-8.80		4.055e-02		122.316
4		0.00		-9.20		4.293e-02		132.650
4		0.00		-9.60		3.969e-02		132.159
4		0.00		-10.00		4.318e-02		133.727
4		0.00		-9.60		4.358e-02		130.260
4		0.00		-9.20		4.521e-02		126.192
4		0.00		-8.80		4.437e-02		125.355
4		0.00		-8.40		4.520e-02		120.610
4		0.00		-8.00		4.493e-02		127.110
4		0.00		-7.60		4.369e-02		123.986
4		0.00		-7.20		4.250e-02		128.956
4		0.00		-6.80		4.233e-02		130.405
4		0.00		-6.40		4.116e-02		128.530
4		0.00		-6.00		3.972e-02		130.472
4		0.00		-5.60		3.763e-02		131.927
4		0.00		-5.20		3.636e-02		131.184
4		0.00		-4.80		3.458e-02		130.672
4		0.00		-4.40		3.358e-02		127.244
4		0.00		-4.00		3.172e-02		127.450
4		0.00		-3.60		3.007e-02		122.815
4		0.00		-3.20		2.789e-02		122.200
4		0.00		-2.80		2.670e-02		122.391
4		0.00		-2.40		2.554e-02		125.054
4		0.00		-2.00		2.355e-02		129.859
4		0.00		-1.60		2.159e-02		128.991
4		0.00		-1.20		1.980e-02		129.902
4		0.00		-0.80		1.775e-02		132.386
4		0.00		-0.40		1.583e-02		134.640
5		0.00		0.00		1.398e-02		132.292
5		0.00		0.40		1.213e-02		129.336
5		0.00		0.80		1.080e-02		130.819
5		0.00		1.20		9.527e-03		127.130
5		0.00		1.60		8.166e-03		123.635
5		0.00		2.00		5.949e-03		123.821
5		0.00		2.40		4.480e-03		90.526
5		0.00		2.80		3.320e-03		16.407
5		0.00		3.20		3.082e-03		-36.973
5		0.00		3.60		5.057e-03		-79.378
5		0.00		4.00		7.131e-03		-55.356
5		0.00		4.40		1.041e-02		-59.045
5		0.00		4.80		1.383e-02		-52.134
5		0.00		5.20		1.759e-02		-58.137
5		0.00		5.60		2.244e-02		-64.011
5		0.00		6.00		2.767e-02		-58.360
5		0.00		6.40		3.268e-02		-55.793
5		0.00		6.80		3.399e-02		-53.895
5		0.00		7.20		3.817e-02		-51.173
5		0.00		7.60		3.648e-02		-52.588
5		0.00		8.00		3.520e-02		-49.088
5		0.00		8.40		3.562e-02		-48.345
5		0.00		8.80		3.741e-02		-52.871
5		0.00		9.20		3.766e-02		-53.874
5		0.00		9.60		3.918e-02		-54.253
5		0.00		10.00		4.044e-02		-51.309
5		0.00		9.60		3.768e-02		-51.103
5		0.00		9.20		3.689e-02		-50.043
5		0.00		8.80		3.421e-02		-47.707
5		0.00		8.40		3.304e-02		-49.871
5		0.00		8.00		3.393e-02		-52.918
5		0.00		7.60		3.181e-02		-55.117
5		0.00		7.20		3.100e-02		-53.992
5		0.00		6.80		3.068e-02		-53.158
5		0.00		6.40		3.110e-02		-51.160
5		0.00		6.00		2.958e-02		-50.541
5		0.00		5.60		2.729e-02		-47.377
5		0.00		5.20		2.820e-02		-54.441
5		0.00		4.80		2.708e-02		-52.713
5		0.00		4.40		2.710e-02		-54.814
5		0.00		4.00		2.652e-02		-55.418
5		0.00		3.60		2.478e-02		-53.674
5		0.00		3.20		2.436e-02		-53.974
5		0.00		2.80		2.262e-02		-53.724
5		0.00		2.40		2.285e-02		-46.347
5		0.00		2.00		2.251e-02		-54.135
5		0.00		1.60		2.224e-02		-55.023
5		0.00		1.20		2.084e-02		-57.384
5		0.00		0.80		2.059e-02		-55.678
5		0.00		0.40		2.021e-02		-56.083
5		0.00		0.00		1.881e-02		-51.385
5		0.00		-0.40		1.651e-02		-53.107
5		0.00		-0.80		1.379e-02		-52.646
5		0.00		-1.20		9.638e-03		-57.593
5		0.00		-1.60		6.669e-03		-61.130
5		0.00		-2.00		5.388e-03		16.996
5		0.00		-2.40		7.092e-03		69.811
5		0.00		-2.80		8.728e-03		89.442
5		0.00		-3.20		1.164e-02		107.717
5		0.00		-3.60		1.437e-02		108.196
5		0.00		-4.00		1.844e-02		116.356
5		0.00		-4.40		2.282e-02		122.800
5		0.00		-4.80		2.655e-02		123.946
5		0.00		-5.20		2.915e-02		130.476
5		0.00		-5.60		3.203e-02		130.135
5		0.00		-6.00		3.472e-02		124.532
5		0.00		-6.40		3.719e-02		122.125
5		0.00		-6.80		3.902e-02		119.444
5		0.00		-7.20		4.069e-02		126.901
5		0.00		-7.60		4.116e-02		129.921
5		0.00		-8.00		4.232e-02		124.340
5		0.00		-8.40		4.292e-02		129.957
5		0.00		-8.80		4.518e-02		129.672
5		0.00		-9.20		4.748e-02		129.052
5		0.00		-9.60		4.611e-02		123.956
5		0.00		-10.00		4.442e-02		125.713
5		0.00		-9.60		4.660e-02		126.081
5		0.00		-9.20		4.601e-02		128.872
5		0.00		-8.80		4.422e-02		128.701
5		0.00		-8.40		4.346e-02		133.559
5		0.00		-8.00		4.347e-02		128.956
5		0.00		-7.60		4.232e-02		122.298
5		0.00		-7.20		4.306e-02		123.577
5		0.00		-6.80		4.164e-02		128.097
5		0.00		-6.40		4.099e-02		128.467
5		0.00		-6.00		3.933e-02		130.222
5		0.00		-5.60		3.914e-02		130.514
5		0.00		-5.20		3.861e-02		128.096
5		0.00		-4.80		3.740e-02		123.892
5		0.00		-4.40		3.509e-02		125.132
5		0.00		-4.00		3.396e-02		127.808
5		0.00		-3.60		3.192e-02		128.571
5		0.00		-3.20		2.930e-02		129.440
5		0.00		-2.80		2.723e-02		131.586
5		0.00		-2.40		2.447e-02		128.452
5		0.00		-2.00		2.313e-02		122.452
5		0.00		-1.60		2.162e-02		124.166
5		0.00		-1.20		1.990e-02		127.987
5		0.00		-0.80		1.796e-02		130.704
5		0.00		-0.40		1.639e-02		131.812
6		0.00		0.00		1.438e-02		132.620
6		0.00		0.40		1.287e-02		129.802
6		0.00		0.80		1.176e-02		124.233
6		0.00		1.20		1.083e-02		131.037
6		0.00		1.60		9.470e-03		129.061
6		0.00		2.00		8.052e-03		133.028
6		0.00		2.40		6.204e-03		115.665
6		0.00		2.80		4.514e-03		87.941
6		0.00		3.20		3.102e-03		3.444
6		0.00		3.60		3.982e-03		-69.780
6		0.00		4.00		5.204e-03		-69.863
6		0.00		4.40		9.193e-03		-65.199
6		0.00		4.80		1.379e-02		-61.995
6		0.00		5.20		1.893e-02		-58.763
6		0.00		5.60		2.285e-02		-56.288
6		0.00		6.00		2.726e-02		-55.192
6		0.00		6.40		3.019e-02		-49.630
6		0.00		6.80		3.222e-02		-58.559
6		0.00		7.20		3.396e-02		-55.706
6		0.00		7.60		3.430e-02		-54.952
6		0.00		8.00		3.870e-02		-52.328
6		0.00		8.40		4.072e-02		-52.328
6		0.00		8.80		3.992e-02		-50.386
6		0.00		9.20		4.035e-02		-54.351
6		0.00		9.60		3.983e-02		-52.032
6		0.00		10.00		3.923e-02		-50.541
6		0.00		9.60		4.026e-02		-49.494
6		0.00		9.20		3.688e-02		-50.511
6		0.00		8.80		3.895e-02		-48.874
6		0.00		8.40		3.725e-02		-42.687
6		0.00		8.00		3.618e-02		-55.663
6		0.00		7.60		3.533e-02		-55.976
6		0.00		7.20		3.263e-02		-53.026
6		0.00		6.80		3.053e-02		-52.730
6		0.00		6.40		3.014e-02		-51.158
6		0.00		6.00		3.045e-02		-47.322
6		0.00		5.60		3.035e-02		-52.771
6		0.00		5.20		3.005e-02		-53.768
6		0.00		4.80		2.932e-02		-55.048
6		0.00		4.40		2.798e-02		-52.915
6		0.00		4.00		2.795e-02		-54.343
6		0.00		3.60		2.775e-02		-51.089
6		0.00		3.20		2.638e-02		-47.869
6		0.00		2.80		2.656e-02		-56.378
6		0.00		2.40		2.594e-02		-54.813
6		0.00		2.00		2.530e-02		-57.550
6		0.00		1.60		2.446e-02		-55.584
6		0.00		1.20		2.486e-02		-52.530
6		0.00		0.80		2.422e-02		-54.111
6		0.00		0.40		2.326e-02		-49.888
6		0.00		0.00		2.148e-02		-49.183
6		0.00		-0.40		1.945e-02		-59.418
6		0.00		-0.80		1.662e-02		-56.311
6		0.00		-1.20		1.222e-02		-61.893
6		0.00		-1.60		8.247e-03		-67.476
6		0.00		-2.00		5.584e-03		-57.360
6		0.00		-2.40		4.696e-03		13.440
6		0.00		-2.80		6.984e-03		86.076
6		0.00		-3.20		1.019e-02		107.325
6		0.00		-3.60		1.349e-02		117.598
6		0.00		-4.00		1.691e-02		123.394
6		0.00		-4.40		2.112e-02		125.796
6		0.00		-4.80		2.601e-02		130.870
6		0.00		-5.20		2.928e-02		126.518
6		0.00		-5.60		3.079e-02		122.785
6		0.00		-6.00		3.420e-02		120.722
6		0.00		-6.40		3.791e-02		124.285
6		0.00		-6.80		3.851e-02		128.421
6		0.00		-7.20		4.201e-02		128.541
6		0.00		-7.60		4.030e-02		129.621
6		0.00		-8.00		4.293e-02		129.859
6		0.00		-8.40		4.615e-02		127.459
6		0.00		-8.80		4.698e-02		127.180
6		0.00		-9.20		4.688e-02		125.675
6		0.00		-9.60		4.862e-02		128.155
6		0.00		-10.00		4.892e-02		128.631
6		0.00		-9.60		4.865e-02		125.876
6		0.00		-9.20		4.523e-02		132.099
6		0.00		-8.80		4.683e-02		129.377
6		0.00		-8.40		4.771e-02		129.895
6		0.00		-8.00		4.806e-02		130.016
6		0.00		-7.60		4.674e-02		123.930
6		0.00		-7.20		4.384e-02		125.466
6		0.00		-6.80		4.392e-02		125.695
6		0.00		-6.40		4.139e-02		127.894
6		0.00		-6.00		3.919e-02		128.026
6		0.00		-5.60		3.900e-02		130.589
6		0.00		-5.20		3.676e-02		130.238
6		0.00		-4.80		3.505e-02		127.914
6		0.00		-4.40		3.284e-02		124.045
6		0.00		-4.00		3.266e-02		125.995
6		0.00		-3.60		3.124e-02		125.715
6		0.00		-3.20		2.939e-02		129.421
6		0.00		-2.80		2.726e-02		129.003
6		0.00		-2.40		2.576e-02		130.549
6		0.00		-2.00		2.375e-02		130.209
6		0.00		-1.60		2.195e-02		132.392
6		0.00		-1.20		1.985e-02		131.904
6		0.00		-0.80		1.834e-02		131.391
6		0.00		-0.40		1.680e-02		124.928
7		0.00		0.00		1.535e-02		125.124
7		0.00		0.40		1.354e-02		128.433
7		0.00		0.80		1.191e-02		132.724
7		0.00		1.20		1.077e-02		135.668
7		0.00		1.60		8.702e-03		131.732
7		0.00		2.00		7.338e-03		127.777
7		0.00		2.40		6.177e-03		121.949
7		0.00		2.80		4.779e-03		90.423
7		0.00		3.20		3.277e-03		22.379
7		0.00		3.60		3.091e-03		-57.935
7		0.00		4.00		5.047e-03		-60.219
7		0.00		4.40		9.401e-03		-68.252
7		0.00		4.80		1.446e-02		-62.040
7		0.00		5.20		1.935e-02		-59.843
7		0.00		5.60		2.497e-02		-58.754
7		0.00		6.00		2.909e-02		-54.098
7		0.00		6.40		3.260e-02		-55.903
7		0.00		6.80		3.454e-02		-53.412
7		0.00		7.20		3.484e-02		-54.104
7		0.00		7.60		3.690e-02		-48.912
7		0.00		8.00		3.974e-02		-50.690
7		0.00		8.40		3.798e-02		-48.432
7		0.00		8.80		3.820e-02		-53.252
7		0.00		9.20		3.957e-02		-53.642
7		0.00		9.60		3.947e-02		-53.072
7		0.00		10.00		4.004e-02		-53.004
7		0.00		9.60		3.997e-02		-51.459
7		0.00		9.20		3.956e-02		-51.384
7		0.00		8.80		4.016e-02		-50.053
7		0.00		8.40		3.903e-02		-50.657
7		0.00		8.00		3.920e-02		-50.644
7		0.00		7.60		3.855e-02		-51.531
7		0.00		7.20		3.567e-02		-53.375
7		0.00		6.80		3.485e-02		-48.772
7		0.00		6.40		3.431e-02		-50.692
7		0.00		6.00		3.278e-02		-51.838
7		0.00		5.60		3.133e-02		-56.502
7		0.00		5.20		2.975e-02		-55.041
7		0.00		4.80		2.953e-02		-54.744
7		0.00		4.40		2.895e-02		-55.342
7		0.00		4.00		2.843e-02		-55.350
7		0.00		3.60		2.753e-02		-55.018
7		0.00		3.20		2.686e-02		-55.567
7		0.00		2.80		2.692e-02		-54.697
7		0.00		2.40		2.712e-02		-54.196
7		0.00		2.00		2.740e-02		-54.854
7		0.00		1.60		2.754e-02		-53.648
7		0.00		1.20		2.789e-02		-52.889
7		0.00		0.80		2.792e-02		-53.468
7		0.00		0.40		2.574e-02		-52.701
7		0.00		0.00		2.312e-02		-52.331
7		0.00		-0.40		2.044e-02		-54.418
7		0.00		-0.80		1.979e-02		-51.076
7		0.00		-1.20		1.708e-02		-56.399
7		0.00		-1.60		1.109e-02		-53.927
7		0.00		-2.00		5.822e-03		-54.879
7		0.00		-2.40		5.206e-03		9.935
7		0.00		-2.80		7.646e-03		88.868
7		0.00		-3.20		1.053e-02		118.548
7		0.00		-3.60		1.373e-02		128.211
7		0.00		-4.00		1.703e-02		124.517
7		0.00		-4.40		2.020e-02		124.484
7		0.00		-4.80		2.275e-02		125.981
7		0.00		-5.20		2.673e-02		130.316
7		0.00		-5.60		3.068e-02		132.227
7		0.00		-6.00		3.360e-02		131.374
7		0.00		-6.40		3.687e-02		131.621
7		0.00		-6.80		4.099e-02		131.502
7		0.00		-7.20		4.159e-02		131.605
7		0.00		-7.60		4.348e-02		130.446
7		0.00		-8.00		4.613e-02		130.364
7		0.00		-8.40		4.659e-02		129.542
7		0.00		-8.80		4.636e-02		131.263
7		0.00		-9.20		4.814e-02		130.387
7		0.00		-9.60		4.839e-02		130.521
7		0.00		-10.00		4.981e-02		128.503
7		0.00		-9.60		4.769e-02		127.620
7		0.00		-9.20		4.748e-02		127.088
7		0.00		-8.80		4.786e-02		126.685
7		0.00		-8.40		4.670e-02		125.020
7		0.00		-8.00		4.679e-02		127.156
7		0.00		-7.60		4.681e-02		126.384
7		0.00		-7.20		4.756e-02		123.985
7		0.00		-6.80		4.663e-02		127.964
7		0.00		-6.40		4.622e-02		126.925
7		0.00		-6.00		4.371e-02		128.743
7		0.00		-5.60		4.371e-02		126.523
7		0.00		-5.20		4.117e-02		128.920
7		0.00		-4.80		3.958e-02		129.998
7		0.00		-4.40		3.725e-02		130.321
7		0.00		-4.00		3.514e-02		130.274
7		0.00		-3.60		3.296e-02		130.967
7		0.00		-3.20		3.073e-02		131.310
7		0.00		-2.80		2.892e-02		130.068
7		0.00		-2.40		2.735e-02		129.970
7		0.00		-2.00		2.558e-02		129.384
7		0.00		-1.60		2.393e-02		130.041
7		0.00		-1.20		2.172e-02		132.856
7		0.00		-0.80		2.025e-02		132.781
7		0.00		-0.40		1.811e-02		132.257
8		0.00		0.00		1.626e-02		133.022
8		0.00		0.40		1.474e-02		131.296
8		0.00		0.80		1.327e-02		129.581
8		0.00		1.20		1.153e-02		132.674
8		0.00		1.60		1.052e-02		130.346
8		0.00		2.00		8.956e-03		130.323
8		0.00		2.40		7.484e-03		124.015
8		0.00		2.80		5.803e-03		121.621
8		0.00		3.20		4.208e-03		75.130
8		0.00		3.60		3.287e-03		-10.555
8		0.00		4.00		3.515e-03		-62.260
8		0.00		4.40		6.321e-03		-62.697
8		0.00		4.80		1.014e-02		-60.622
8		0.00		5.20		1.514e-02		-63.471
8		0.00		5.60		2.134e-02		-57.739
8		0.00		6.00		2.490e-02		-57.488
8		0.00		6.40		2.989e-02		-56.315
8		0.00		6.80		3.400e-02		-56.360
8		0.00		7.20		3.819e-02		-56.348
8		0.00		7.60		3.911e-02		-55.413
8		0.00		8.00		3.892e-02		-54.335
8		0.00		8.40		4.006e-02		-54.490
8		0.00		8.80		4.269e-02		-52.073
8		0.00		9.20		4.279e-02		-52.322
8		0.00		9.60		4.483e-02		-48.850
8		0.00		10.00		4.499e-02		-50.498
8		0.00		9.60		4.275e-02		-47.670
8		0.00		9.20		4.087e-02		-55.049
8		0.00		8.80		3.849e-02		-52.655
8		0.00		8.40		3.602e-02		-52.828
8		0.00		8.00		3.567e-02		-54.083
8		0.00		7.60		3.358e-02		-53.477
8		0.00		7.20		3.754e-02		-53.883
8		0.00		6.80		3.666e-02		-53.949
8		0.00		6.40		2.975e-02		-53.903
8		0.00		6.00		3.096e-02		-50.257
8		0.00		5.60		3.077e-02		-52.892
8		0.00		5.20		3.092e-02		-56.453
8		0.00		4.80		3.093e-02		-53.849
8		0.00		4.40		3.236e-02		-55.158
8		0.00		4.00		3.122e-02		-54.380
8		0.00		3.60		3.113e-02		-53.415
8		0.00		3.20		3.125e-02		-51.918
8		0.00		2.80		2.964e-02		-54.198
8		0.00		2.40		2.880e-02		-49.726
8		0.00		2.00		2.884e-02		-54.466
8		0.00		1.60		2.756e-02		-54.646
8		0.00		1.20		2.723e-02		-56.346
8		0.00		0.80		2.648e-02		-55.824
8		0.00		0.40		2.584e-02		-55.408
8		0.00		0.00		2.474e-02		-54.905
8		0.00		-0.40		2.261e-02		-55.238
8		0.00		-0.80		2.018e-02		-54.453
8		0.00		-1.20		1.662e-02		-55.239
8		0.00		-1.60		1.184e-02		-63.403
8		0.00		-2.00		8.805e-03		-62.903
8		0.00		-2.40		5.194e-03		-44.544
8		0.00		-2.80		5.469e-03		51.171
8		0.00		-3.20		8.678e-03		98.712
8		0.00		-3.60		1.397e-02		119.830
8		0.00		-4.00		1.795e-02		124.749
8		0.00		-4.40		2.216e-02		122.557
8		0.00		-4.80		2.631e-02		128.124
8		0.00		-5.20		2.958e-02		128.590
8		0.00		-5.60		3.279e-02		131.817
8		0.00		-6.00		3.470e-02		130.441
8		0.00		-6.40		3.853e-02		131.382
8		0.00		-6.80		4.074e-02		128.306
8		0.00		-7.20		4.145e-02		127.846
8		0.00		-7.60		4.301e-02		125.872
8		0.00		-8.00		4.413e-02		122.643
8		0.00		-8.40		4.465e-02		127.628
8		0.00		-8.80		4.655e-02		130.457
8		0.00		-9.20		4.778e-02		128.688
8		0.00		-9.60		4.811e-02		130.340
8		0.00		-10.00		5.023e-02		131.856
8		0.00		-9.60		4.936e-02		131.576
8		0.00		-9.20		4.785e-02		130.784
8		0.00		-8.80		4.792e-02		129.078
8		0.00		-8.40		4.694e-02		129.191
8		0.00		-8.00		4.699e-02		125.430
8		0.00		-7.60		4.640e-02		127.171
8		0.00		-7.20		4.541e-02		128.525
8		0.00		-6.80		4.340e-02		129.393
8		0.00		-6.40		4.130e-02		129.846
8		0.00		-6.00		4.198e-02		130.536
8		0.00		-5.60		4.179e-02		128.202
8		0.00		-5.20		4.117e-02		129.166
8		0.00		-4.80		3.855e-02		127.855
8		0.00		-4.40		3.773e-02		126.405
8		0.00		-4.00		3.554e-02		124.334
8		0.00		-3.60		3.356e-02		126.302
8		0.00		-3.20		3.219e-02		127.896
8		0.00		-2.80		3.047e-02		129.835
8		0.00		-2.40		2.853e-02		130.621
8		0.00		-2.00		2.667e-02		131.592
8		0.00		-1.60		2.393e-02		131.732
8		0.00		-1.20		2.241e-02		132.542
8		0.00		-0.80		2.054e-02		130.928
8		0.00		-0.40		1.891e-02		130.764
