# Date of analysis: 2023-10-05 17;22
# 
# Loop index	Read Volt (V)	Write Volt (V)	Amplitude (a.u)	Phase (°)	
1		0.00		0.00		1.387e-02		-53.605
1		0.00		0.40		1.377e-02		-54.003
1		0.00		0.80		1.371e-02		-55.158
1		0.00		1.20		1.294e-02		-52.952
1		0.00		1.60		1.333e-02		-50.977
1		0.00		2.00		1.312e-02		-52.766
1		0.00		2.40		1.308e-02		-55.153
1		0.00		2.80		1.336e-02		-49.081
1		0.00		3.20		1.335e-02		-53.885
1		0.00		3.60		1.382e-02		-53.503
1		0.00		4.00		1.443e-02		-57.367
1		0.00		4.40		1.465e-02		-55.159
1		0.00		4.80		1.495e-02		-57.992
1		0.00		5.20		1.475e-02		-53.901
1		0.00		5.60		1.590e-02		-55.883
1		0.00		6.00		1.644e-02		-55.786
1		0.00		6.40		1.704e-02		-52.325
1		0.00		6.80		1.787e-02		-53.217
1		0.00		7.20		1.894e-02		-54.513
1		0.00		7.60		2.054e-02		-55.408
1		0.00		8.00		2.180e-02		-56.149
1		0.00		8.40		2.307e-02		-56.785
1		0.00		8.80		2.474e-02		-53.458
1		0.00		9.20		2.709e-02		-54.824
1		0.00		9.60		2.879e-02		-54.663
1		0.00		10.00		3.100e-02		-53.473
1		0.00		9.60		3.307e-02		-52.820
1		0.00		9.20		3.402e-02		-53.826
1		0.00		8.80		3.475e-02		-54.685
1		0.00		8.40		3.493e-02		-55.878
1		0.00		8.00		3.459e-02		-55.537
1		0.00		7.60		3.433e-02		-54.822
1		0.00		7.20		3.312e-02		-54.484
1		0.00		6.80		3.249e-02		-51.377
1		0.00		6.40		3.219e-02		-52.151
1		0.00		6.00		3.289e-02		-53.520
1		0.00		5.60		3.297e-02		-53.269
1		0.00		5.20		3.194e-02		-55.839
1		0.00		4.80		3.151e-02		-55.163
1		0.00		4.40		3.093e-02		-52.450
1		0.00		4.00		3.027e-02		-53.738
1		0.00		3.60		3.011e-02		-49.997
1		0.00		3.20		3.034e-02		-51.632
1		0.00		2.80		3.150e-02		-52.572
1		0.00		2.40		3.068e-02		-56.059
1		0.00		2.00		3.090e-02		-55.050
1		0.00		1.60		2.963e-02		-54.967
1		0.00		1.20		2.962e-02		-55.666
1		0.00		0.80		2.916e-02		-53.946
1		0.00		0.40		2.881e-02		-51.670
1		0.00		0.00		2.871e-02		-50.938
1		0.00		-0.40		2.919e-02		-53.233
1		0.00		-0.80		2.892e-02		-53.968
1		0.00		-1.20		2.878e-02		-55.063
1		0.00		-1.60		2.714e-02		-57.008
1		0.00		-2.00		2.728e-02		-55.489
1		0.00		-2.40		2.585e-02		-53.612
1		0.00		-2.80		2.554e-02		-52.168
1		0.00		-3.20		2.419e-02		-50.967
1		0.00		-3.60		2.406e-02		-52.486
1		0.00		-4.00		2.294e-02		-53.478
1		0.00		-4.40		2.041e-02		-55.143
1		0.00		-4.80		1.758e-02		-52.968
1		0.00		-5.20		1.465e-02		-50.975
1		0.00		-5.60		1.097e-02		-52.718
1		0.00		-6.00		7.332e-03		-53.832
1		0.00		-6.40		4.103e-03		-51.494
1		0.00		-6.80		1.963e-03		-19.871
1		0.00		-7.20		3.112e-03		83.139
1		0.00		-7.60		5.753e-03		107.673
1		0.00		-8.00		8.492e-03		123.201
1		0.00		-8.40		9.938e-03		123.723
1		0.00		-8.80		1.200e-02		123.075
1		0.00		-9.20		1.277e-02		120.735
1		0.00		-9.60		1.416e-02		123.677
1		0.00		-10.00		1.563e-02		123.404
1		0.00		-9.60		1.621e-02		123.610
1		0.00		-9.20		1.615e-02		121.655
1		0.00		-8.80		1.616e-02		125.360
1		0.00		-8.40		1.548e-02		126.274
1		0.00		-8.00		1.475e-02		120.034
1		0.00		-7.60		1.484e-02		124.575
1		0.00		-7.20		1.464e-02		125.855
1		0.00		-6.80		1.472e-02		125.473
1		0.00		-6.40		1.401e-02		124.881
1		0.00		-6.00		1.332e-02		125.196
1		0.00		-5.60		1.336e-02		125.286
1		0.00		-5.20		1.213e-02		122.751
1		0.00		-4.80		1.143e-02		120.656
1		0.00		-4.40		1.136e-02		121.089
1		0.00		-4.00		1.073e-02		123.945
1		0.00		-3.60		1.091e-02		123.725
1		0.00		-3.20		1.060e-02		124.295
1		0.00		-2.80		9.646e-03		122.036
1		0.00		-2.40		9.262e-03		120.752
1		0.00		-2.00		8.999e-03		121.590
1		0.00		-1.60		8.801e-03		119.417
1		0.00		-1.20		8.420e-03		129.543
1		0.00		-0.80		8.212e-03		128.004
1		0.00		-0.40		8.223e-03		125.363
2		0.00		0.00		8.417e-03		121.386
2		0.00		0.40		8.003e-03		124.607
2		0.00		0.80		7.265e-03		121.637
2		0.00		1.20		7.103e-03		123.390
2		0.00		1.60		6.338e-03		123.680
2		0.00		2.00		5.978e-03		124.990
2		0.00		2.40		5.211e-03		125.465
2		0.00		2.80		4.455e-03		123.078
2		0.00		3.20		3.760e-03		110.782
2		0.00		3.60		3.307e-03		107.614
2		0.00		4.00		2.521e-03		68.451
2		0.00		4.40		2.034e-03		13.868
2		0.00		4.80		1.834e-03		-10.997
2		0.00		5.20		2.171e-03		-49.266
2		0.00		5.60		3.073e-03		-55.411
2		0.00		6.00		3.934e-03		-51.528
2		0.00		6.40		5.113e-03		-62.353
2		0.00		6.80		5.777e-03		-51.939
2		0.00		7.20		7.751e-03		-54.774
2		0.00		7.60		9.169e-03		-58.104
2		0.00		8.00		1.199e-02		-57.678
2		0.00		8.40		1.462e-02		-59.317
2		0.00		8.80		1.699e-02		-56.192
2		0.00		9.20		1.998e-02		-54.460
2		0.00		9.60		2.373e-02		-55.613
2		0.00		10.00		2.645e-02		-52.819
2		0.00		9.60		2.918e-02		-55.102
2		0.00		9.20		2.963e-02		-56.456
2		0.00		8.80		2.966e-02		-54.040
2		0.00		8.40		2.974e-02		-53.823
2		0.00		8.00		2.894e-02		-52.844
2		0.00		7.60		2.893e-02		-53.836
2		0.00		7.20		2.948e-02		-54.868
2		0.00		6.80		2.860e-02		-56.169
2		0.00		6.40		2.780e-02		-56.971
2		0.00		6.00		2.667e-02		-56.772
2		0.00		5.60		2.677e-02		-54.343
2		0.00		5.20		2.660e-02		-54.655
2		0.00		4.80		2.699e-02		-54.628
2		0.00		4.40		2.611e-02		-57.157
2		0.00		4.00		2.586e-02		-55.250
2		0.00		3.60		2.541e-02		-53.805
2		0.00		3.20		2.539e-02		-50.639
2		0.00		2.80		2.563e-02		-54.378
2		0.00		2.40		2.522e-02		-54.296
2		0.00		2.00		2.490e-02		-54.827
2		0.00		1.60		2.475e-02		-52.893
2		0.00		1.20		2.475e-02		-51.725
2		0.00		0.80		2.538e-02		-54.580
2		0.00		0.40		2.530e-02		-55.589
2		0.00		0.00		2.548e-02		-53.562
2		0.00		-0.40		2.492e-02		-53.685
2		0.00		-0.80		2.425e-02		-55.504
2		0.00		-1.20		2.426e-02		-55.421
2		0.00		-1.60		2.472e-02		-55.753
2		0.00		-2.00		2.489e-02		-54.981
2		0.00		-2.40		2.414e-02		-55.068
2		0.00		-2.80		2.302e-02		-53.214
2		0.00		-3.20		2.157e-02		-51.797
2		0.00		-3.60		2.107e-02		-53.821
2		0.00		-4.00		2.002e-02		-54.672
2		0.00		-4.40		1.809e-02		-55.948
2		0.00		-4.80		1.541e-02		-51.969
2		0.00		-5.20		1.215e-02		-49.713
2		0.00		-5.60		1.088e-02		-50.902
2		0.00		-6.00		8.402e-03		-54.199
2		0.00		-6.40		5.233e-03		-48.303
2		0.00		-6.80		2.782e-03		-50.043
2		0.00		-7.20		1.766e-03		27.700
2		0.00		-7.60		4.410e-03		103.040
2		0.00		-8.00		7.572e-03		117.689
2		0.00		-8.40		9.846e-03		121.504
2		0.00		-8.80		1.233e-02		124.306
2		0.00		-9.20		1.332e-02		121.482
2		0.00		-9.60		1.480e-02		120.825
2		0.00		-10.00		1.677e-02		122.547
2		0.00		-9.60		1.598e-02		125.378
2		0.00		-9.20		1.596e-02		126.034
2		0.00		-8.80		1.560e-02		124.859
2		0.00		-8.40		1.560e-02		122.360
2		0.00		-8.00		1.557e-02		122.802
2		0.00		-7.60		1.520e-02		125.485
2		0.00		-7.20		1.466e-02		123.713
2		0.00		-6.80		1.430e-02		125.150
2		0.00		-6.40		1.385e-02		122.757
2		0.00		-6.00		1.386e-02		125.575
2		0.00		-5.60		1.335e-02		124.523
2		0.00		-5.20		1.281e-02		124.993
2		0.00		-4.80		1.257e-02		123.562
2		0.00		-4.40		1.172e-02		122.028
2		0.00		-4.00		1.133e-02		125.598
2		0.00		-3.60		1.127e-02		126.481
2		0.00		-3.20		1.113e-02		126.060
2		0.00		-2.80		1.050e-02		126.966
2		0.00		-2.40		1.001e-02		125.012
2		0.00		-2.00		9.961e-03		125.488
2		0.00		-1.60		9.922e-03		126.081
2		0.00		-1.20		9.872e-03		128.514
2		0.00		-0.80		9.587e-03		125.616
2		0.00		-0.40		9.052e-03		122.166
3		0.00		0.00		9.067e-03		123.502
3		0.00		0.40		8.365e-03		126.885
3		0.00		0.80		8.420e-03		124.127
3		0.00		1.20		7.227e-03		125.324
3		0.00		1.60		6.926e-03		121.058
3		0.00		2.00		6.350e-03		118.999
3		0.00		2.40		5.842e-03		127.377
3		0.00		2.80		5.244e-03		129.721
3		0.00		3.20		4.286e-03		122.441
3		0.00		3.60		3.349e-03		107.344
3		0.00		4.00		2.881e-03		90.864
3		0.00		4.40		2.330e-03		66.779
3		0.00		4.80		1.942e-03		24.609
3		0.00		5.20		1.802e-03		-38.003
3		0.00		5.60		2.228e-03		-44.443
3		0.00		6.00		3.040e-03		-60.098
3		0.00		6.40		3.822e-03		-62.335
3		0.00		6.80		5.503e-03		-66.476
3		0.00		7.20		7.677e-03		-54.564
3		0.00		7.60		9.007e-03		-58.362
3		0.00		8.00		1.006e-02		-54.873
3		0.00		8.40		1.198e-02		-50.880
3		0.00		8.80		1.491e-02		-55.011
3		0.00		9.20		1.843e-02		-55.634
3		0.00		9.60		2.098e-02		-55.948
3		0.00		10.00		2.377e-02		-55.377
3		0.00		9.60		2.579e-02		-54.190
3		0.00		9.20		2.600e-02		-53.454
3		0.00		8.80		2.718e-02		-53.153
3		0.00		8.40		2.778e-02		-53.096
3		0.00		8.00		2.783e-02		-53.447
3		0.00		7.60		2.704e-02		-52.727
3		0.00		7.20		2.644e-02		-55.610
3		0.00		6.80		2.636e-02		-52.095
3		0.00		6.40		2.634e-02		-52.381
3		0.00		6.00		2.630e-02		-53.755
3		0.00		5.60		2.602e-02		-53.918
3		0.00		5.20		2.483e-02		-52.907
3		0.00		4.80		2.433e-02		-53.393
3		0.00		4.40		2.370e-02		-54.756
3		0.00		4.00		2.398e-02		-52.811
3		0.00		3.60		2.378e-02		-53.746
3		0.00		3.20		2.395e-02		-54.760
3		0.00		2.80		2.401e-02		-53.266
3		0.00		2.40		2.337e-02		-53.959
3		0.00		2.00		2.365e-02		-53.860
3		0.00		1.60		2.285e-02		-51.427
3		0.00		1.20		2.348e-02		-54.449
3		0.00		0.80		2.409e-02		-53.518
3		0.00		0.40		2.455e-02		-57.015
3		0.00		0.00		2.410e-02		-53.978
3		0.00		-0.40		2.380e-02		-52.350
3		0.00		-0.80		2.254e-02		-53.540
3		0.00		-1.20		2.272e-02		-50.368
3		0.00		-1.60		2.243e-02		-52.058
3		0.00		-2.00		2.263e-02		-54.653
3		0.00		-2.40		2.242e-02		-55.467
3		0.00		-2.80		2.100e-02		-54.473
3		0.00		-3.20		2.016e-02		-53.187
3		0.00		-3.60		1.909e-02		-56.776
3		0.00		-4.00		1.734e-02		-51.574
3		0.00		-4.40		1.694e-02		-56.100
3		0.00		-4.80		1.519e-02		-55.597
3		0.00		-5.20		1.340e-02		-57.034
3		0.00		-5.60		1.135e-02		-53.886
3		0.00		-6.00		8.495e-03		-53.749
3		0.00		-6.40		5.560e-03		-43.512
3		0.00		-6.80		3.185e-03		-52.276
3		0.00		-7.20		2.539e-03		69.137
3		0.00		-7.60		5.569e-03		120.868
3		0.00		-8.00		7.722e-03		120.241
3		0.00		-8.40		9.181e-03		122.160
3		0.00		-8.80		1.030e-02		120.961
3		0.00		-9.20		1.215e-02		124.944
3		0.00		-9.60		1.397e-02		124.547
3		0.00		-10.00		1.541e-02		126.013
3		0.00		-9.60		1.578e-02		127.886
3		0.00		-9.20		1.544e-02		125.937
3		0.00		-8.80		1.550e-02		125.065
3		0.00		-8.40		1.500e-02		124.721
3		0.00		-8.00		1.467e-02		124.528
3		0.00		-7.60		1.525e-02		126.773
3		0.00		-7.20		1.474e-02		126.618
3		0.00		-6.80		1.417e-02		127.102
3		0.00		-6.40		1.377e-02		126.184
3		0.00		-6.00		1.289e-02		123.502
3		0.00		-5.60		1.275e-02		122.697
3		0.00		-5.20		1.263e-02		126.665
3		0.00		-4.80		1.245e-02		125.891
3		0.00		-4.40		1.205e-02		125.916
3		0.00		-4.00		1.157e-02		127.076
3		0.00		-3.60		1.108e-02		122.660
3		0.00		-3.20		1.062e-02		123.575
3		0.00		-2.80		1.052e-02		127.392
3		0.00		-2.40		1.033e-02		123.566
3		0.00		-2.00		1.000e-02		126.423
3		0.00		-1.60		9.976e-03		123.852
3		0.00		-1.20		9.026e-03		122.575
3		0.00		-0.80		9.042e-03		123.106
3		0.00		-0.40		9.008e-03		125.763
4		0.00		0.00		8.595e-03		124.773
4		0.00		0.40		8.334e-03		122.175
4		0.00		0.80		7.612e-03		129.240
4		0.00		1.20		7.367e-03		122.223
4		0.00		1.60		6.852e-03		116.721
4		0.00		2.00		5.977e-03		121.464
4		0.00		2.40		5.793e-03		118.330
4		0.00		2.80		4.769e-03		124.582
4		0.00		3.20		3.989e-03		113.084
4		0.00		3.60		3.314e-03		105.485
4		0.00		4.00		2.811e-03		85.212
4		0.00		4.40		2.475e-03		56.675
4		0.00		4.80		1.840e-03		32.058
4		0.00		5.20		1.983e-03		-34.252
4		0.00		5.60		2.074e-03		-53.959
4		0.00		6.00		2.811e-03		-71.191
4		0.00		6.40		3.689e-03		-54.903
4		0.00		6.80		4.711e-03		-53.439
4		0.00		7.20		5.678e-03		-44.016
4		0.00		7.60		7.593e-03		-51.647
4		0.00		8.00		9.532e-03		-56.725
4		0.00		8.40		1.091e-02		-55.570
4		0.00		8.80		1.321e-02		-54.436
4		0.00		9.20		1.447e-02		-55.243
4		0.00		9.60		1.661e-02		-55.956
4		0.00		10.00		1.989e-02		-55.082
4		0.00		9.60		2.167e-02		-52.327
4		0.00		9.20		2.297e-02		-54.040
4		0.00		8.80		2.318e-02		-55.510
4		0.00		8.40		2.331e-02		-56.282
4		0.00		8.00		2.307e-02		-55.203
4		0.00		7.60		2.231e-02		-57.120
4		0.00		7.20		2.210e-02		-52.059
4		0.00		6.80		2.249e-02		-50.082
4		0.00		6.40		2.305e-02		-52.728
4		0.00		6.00		2.302e-02		-55.861
4		0.00		5.60		2.202e-02		-54.195
4		0.00		5.20		2.179e-02		-52.468
4		0.00		4.80		2.135e-02		-53.118
4		0.00		4.40		2.084e-02		-51.041
4		0.00		4.00		2.151e-02		-53.048
4		0.00		3.60		2.123e-02		-52.628
4		0.00		3.20		2.158e-02		-54.570
4		0.00		2.80		2.112e-02		-54.225
4		0.00		2.40		2.064e-02		-53.379
4		0.00		2.00		2.018e-02		-54.493
4		0.00		1.60		1.994e-02		-47.376
4		0.00		1.20		2.013e-02		-54.123
4		0.00		0.80		2.086e-02		-55.083
4		0.00		0.40		2.043e-02		-55.579
4		0.00		0.00		2.008e-02		-54.839
4		0.00		-0.40		1.964e-02		-54.062
4		0.00		-0.80		1.965e-02		-53.880
4		0.00		-1.20		1.998e-02		-49.970
4		0.00		-1.60		1.983e-02		-54.672
4		0.00		-2.00		1.990e-02		-55.751
4		0.00		-2.40		1.856e-02		-54.979
4		0.00		-2.80		1.834e-02		-53.165
4		0.00		-3.20		1.775e-02		-51.487
4		0.00		-3.60		1.773e-02		-53.326
4		0.00		-4.00		1.696e-02		-51.849
4		0.00		-4.40		1.522e-02		-56.442
4		0.00		-4.80		1.423e-02		-55.201
4		0.00		-5.20		1.226e-02		-52.526
4		0.00		-5.60		1.042e-02		-50.265
4		0.00		-6.00		8.278e-03		-56.117
4		0.00		-6.40		6.129e-03		-56.827
4		0.00		-6.80		3.658e-03		-52.846
4		0.00		-7.20		1.676e-03		18.837
4		0.00		-7.60		3.311e-03		105.562
4		0.00		-8.00		5.957e-03		124.986
4		0.00		-8.40		8.586e-03		120.105
4		0.00		-8.80		1.022e-02		127.064
4		0.00		-9.20		1.127e-02		125.715
4		0.00		-9.60		1.269e-02		119.699
4		0.00		-10.00		1.389e-02		124.315
4		0.00		-9.60		1.526e-02		125.226
4		0.00		-9.20		1.506e-02		125.336
4		0.00		-8.80		1.504e-02		125.124
4		0.00		-8.40		1.419e-02		122.973
4		0.00		-8.00		1.427e-02		126.139
4		0.00		-7.60		1.419e-02		125.135
4		0.00		-7.20		1.409e-02		126.587
4		0.00		-6.80		1.343e-02		126.232
4		0.00		-6.40		1.306e-02		126.879
4		0.00		-6.00		1.259e-02		119.364
4		0.00		-5.60		1.236e-02		126.028
4		0.00		-5.20		1.248e-02		125.645
4		0.00		-4.80		1.173e-02		125.686
4		0.00		-4.40		1.143e-02		125.140
4		0.00		-4.00		1.114e-02		119.714
4		0.00		-3.60		1.027e-02		116.622
4		0.00		-3.20		1.047e-02		124.211
4		0.00		-2.80		1.016e-02		123.110
4		0.00		-2.40		9.811e-03		125.300
4		0.00		-2.00		9.483e-03		123.719
4		0.00		-1.60		8.889e-03		120.835
4		0.00		-1.20		8.950e-03		122.847
4		0.00		-0.80		8.944e-03		125.804
4		0.00		-0.40		9.067e-03		124.673
5		0.00		0.00		8.245e-03		127.268
5		0.00		0.40		8.118e-03		121.882
5		0.00		0.80		8.048e-03		121.405
5		0.00		1.20		7.675e-03		125.982
5		0.00		1.60		7.148e-03		130.990
5		0.00		2.00		6.676e-03		126.651
5		0.00		2.40		5.956e-03		122.999
5		0.00		2.80		5.321e-03		121.251
5		0.00		3.20		4.684e-03		122.865
5		0.00		3.60		4.014e-03		115.592
5		0.00		4.00		3.071e-03		108.326
5		0.00		4.40		2.845e-03		82.185
5		0.00		4.80		2.444e-03		75.318
5		0.00		5.20		1.748e-03		-9.174
5		0.00		5.60		2.018e-03		-38.687
5		0.00		6.00		2.766e-03		-61.585
5		0.00		6.40		3.136e-03		-54.351
5		0.00		6.80		3.768e-03		-58.333
5		0.00		7.20		5.166e-03		-52.935
5		0.00		7.60		6.521e-03		-49.830
5		0.00		8.00		8.302e-03		-62.756
5		0.00		8.40		9.609e-03		-54.625
5		0.00		8.80		1.124e-02		-56.219
5		0.00		9.20		1.386e-02		-56.458
5		0.00		9.60		1.628e-02		-54.025
5		0.00		10.00		1.855e-02		-54.683
5		0.00		9.60		1.985e-02		-54.213
5		0.00		9.20		2.065e-02		-54.112
5		0.00		8.80		2.103e-02		-50.622
5		0.00		8.40		2.230e-02		-51.414
5		0.00		8.00		2.244e-02		-55.727
5		0.00		7.60		2.189e-02		-54.973
5		0.00		7.20		2.187e-02		-53.273
5		0.00		6.80		2.162e-02		-54.703
5		0.00		6.40		2.178e-02		-52.405
5		0.00		6.00		2.172e-02		-54.463
5		0.00		5.60		2.113e-02		-55.829
5		0.00		5.20		2.062e-02		-53.928
5		0.00		4.80		2.033e-02		-52.459
5		0.00		4.40		2.036e-02		-52.636
5		0.00		4.00		2.070e-02		-54.266
5		0.00		3.60		2.088e-02		-54.966
5		0.00		3.20		2.056e-02		-53.303
5		0.00		2.80		2.024e-02		-50.913
5		0.00		2.40		2.039e-02		-52.650
5		0.00		2.00		2.098e-02		-52.393
5		0.00		1.60		2.111e-02		-53.844
5		0.00		1.20		2.152e-02		-49.998
5		0.00		0.80		2.029e-02		-52.045
5		0.00		0.40		1.999e-02		-50.718
5		0.00		0.00		2.045e-02		-54.348
5		0.00		-0.40		2.077e-02		-51.333
5		0.00		-0.80		2.058e-02		-53.327
5		0.00		-1.20		1.988e-02		-53.453
5		0.00		-1.60		1.930e-02		-54.010
5		0.00		-2.00		1.942e-02		-50.805
5		0.00		-2.40		1.966e-02		-52.933
5		0.00		-2.80		1.962e-02		-51.694
5		0.00		-3.20		1.916e-02		-51.969
5		0.00		-3.60		1.809e-02		-49.799
5		0.00		-4.00		1.649e-02		-52.795
5		0.00		-4.40		1.580e-02		-51.275
5		0.00		-4.80		1.524e-02		-55.748
5		0.00		-5.20		1.345e-02		-52.856
5		0.00		-5.60		1.074e-02		-51.018
5		0.00		-6.00		8.507e-03		-54.113
5		0.00		-6.40		6.228e-03		-49.088
5		0.00		-6.80		4.336e-03		-66.577
5		0.00		-7.20		2.354e-03		-50.504
5		0.00		-7.60		2.526e-03		88.545
5		0.00		-8.00		4.938e-03		118.647
5		0.00		-8.40		7.969e-03		120.944
5		0.00		-8.80		1.041e-02		125.534
5		0.00		-9.20		1.225e-02		124.058
5		0.00		-9.60		1.376e-02		126.526
5		0.00		-10.00		1.487e-02		123.431
5		0.00		-9.60		1.558e-02		125.350
5		0.00		-9.20		1.615e-02		126.321
5		0.00		-8.80		1.593e-02		126.039
5		0.00		-8.40		1.551e-02		127.459
5		0.00		-8.00		1.496e-02		122.940
5		0.00		-7.60		1.469e-02		123.464
5		0.00		-7.20		1.453e-02		128.909
5		0.00		-6.80		1.435e-02		123.795
5		0.00		-6.40		1.344e-02		126.411
5		0.00		-6.00		1.340e-02		124.525
5		0.00		-5.60		1.275e-02		122.771
5		0.00		-5.20		1.276e-02		125.768
5		0.00		-4.80		1.226e-02		127.206
5		0.00		-4.40		1.236e-02		129.113
5		0.00		-4.00		1.188e-02		126.354
5		0.00		-3.60		1.125e-02		127.541
5		0.00		-3.20		1.106e-02		127.651
5		0.00		-2.80		1.073e-02		126.113
5		0.00		-2.40		9.976e-03		127.048
5		0.00		-2.00		9.986e-03		125.720
5		0.00		-1.60		9.748e-03		120.942
5		0.00		-1.20		9.834e-03		121.985
5		0.00		-0.80		9.949e-03		127.921
5		0.00		-0.40		9.330e-03		124.372
6		0.00		0.00		9.776e-03		123.510
6		0.00		0.40		9.156e-03		123.888
6		0.00		0.80		8.832e-03		129.997
6		0.00		1.20		8.935e-03		126.732
6		0.00		1.60		8.115e-03		124.360
6		0.00		2.00		7.452e-03		129.652
6		0.00		2.40		6.766e-03		124.937
6		0.00		2.80		5.923e-03		125.611
6		0.00		3.20		5.404e-03		128.586
6		0.00		3.60		4.826e-03		130.433
6		0.00		4.00		3.759e-03		114.644
6		0.00		4.40		3.165e-03		92.522
6		0.00		4.80		2.566e-03		78.700
6		0.00		5.20		1.841e-03		22.798
6		0.00		5.60		1.720e-03		-1.741
6		0.00		6.00		2.005e-03		-49.184
6		0.00		6.40		3.017e-03		-56.157
6		0.00		6.80		4.000e-03		-55.623
6		0.00		7.20		5.635e-03		-60.828
6		0.00		7.60		6.893e-03		-51.278
6		0.00		8.00		7.165e-03		-56.360
6		0.00		8.40		9.043e-03		-57.161
6		0.00		8.80		1.104e-02		-57.400
6		0.00		9.20		1.362e-02		-55.983
6		0.00		9.60		1.631e-02		-53.709
6		0.00		10.00		1.848e-02		-55.816
6		0.00		9.60		1.926e-02		-53.027
6		0.00		9.20		2.053e-02		-52.818
6		0.00		8.80		2.118e-02		-53.200
6		0.00		8.40		2.200e-02		-53.893
6		0.00		8.00		2.163e-02		-55.370
6		0.00		7.60		2.109e-02		-53.001
6		0.00		7.20		2.109e-02		-53.783
6		0.00		6.80		2.085e-02		-50.688
6		0.00		6.40		2.134e-02		-53.815
6		0.00		6.00		2.094e-02		-53.162
6		0.00		5.60		2.116e-02		-52.683
6		0.00		5.20		2.041e-02		-51.714
6		0.00		4.80		2.016e-02		-51.749
6		0.00		4.40		1.986e-02		-51.023
6		0.00		4.00		2.009e-02		-50.954
6		0.00		3.60		2.064e-02		-50.857
6		0.00		3.20		2.043e-02		-53.038
6		0.00		2.80		2.008e-02		-51.615
6		0.00		2.40		1.938e-02		-52.918
6		0.00		2.00		1.936e-02		-52.006
6		0.00		1.60		2.003e-02		-53.453
6		0.00		1.20		2.045e-02		-54.504
6		0.00		0.80		2.028e-02		-53.033
6		0.00		0.40		1.971e-02		-52.371
6		0.00		0.00		1.969e-02		-51.894
6		0.00		-0.40		1.957e-02		-49.692
6		0.00		-0.80		2.012e-02		-52.485
6		0.00		-1.20		2.066e-02		-52.775
6		0.00		-1.60		2.101e-02		-53.504
6		0.00		-2.00		2.017e-02		-51.636
6		0.00		-2.40		1.903e-02		-52.706
6		0.00		-2.80		1.897e-02		-51.239
6		0.00		-3.20		1.798e-02		-51.498
6		0.00		-3.60		1.736e-02		-53.133
6		0.00		-4.00		1.719e-02		-52.975
6		0.00		-4.40		1.560e-02		-52.658
6		0.00		-4.80		1.401e-02		-51.549
6		0.00		-5.20		1.255e-02		-54.475
6		0.00		-5.60		1.084e-02		-49.837
6		0.00		-6.00		8.972e-03		-56.921
6		0.00		-6.40		6.912e-03		-50.096
6		0.00		-6.80		5.196e-03		-54.111
6		0.00		-7.20		2.943e-03		-45.791
6		0.00		-7.60		1.892e-03		25.557
6		0.00		-8.00		3.107e-03		98.298
6		0.00		-8.40		6.325e-03		125.891
6		0.00		-8.80		8.809e-03		115.963
6		0.00		-9.20		1.051e-02		123.925
6		0.00		-9.60		1.270e-02		123.813
6		0.00		-10.00		1.472e-02		126.174
6		0.00		-9.60		1.597e-02		130.002
6		0.00		-9.20		1.610e-02		124.627
6		0.00		-8.80		1.604e-02		127.213
6		0.00		-8.40		1.554e-02		124.530
6		0.00		-8.00		1.508e-02		125.940
6		0.00		-7.60		1.543e-02		125.328
6		0.00		-7.20		1.514e-02		127.121
6		0.00		-6.80		1.434e-02		128.448
6		0.00		-6.40		1.395e-02		126.221
6		0.00		-6.00		1.342e-02		130.213
6		0.00		-5.60		1.349e-02		124.188
6		0.00		-5.20		1.258e-02		121.935
6		0.00		-4.80		1.212e-02		123.948
6		0.00		-4.40		1.186e-02		125.601
6		0.00		-4.00		1.203e-02		126.500
6		0.00		-3.60		1.147e-02		126.944
6		0.00		-3.20		1.103e-02		122.318
6		0.00		-2.80		1.131e-02		123.873
6		0.00		-2.40		1.087e-02		126.523
6		0.00		-2.00		1.068e-02		127.212
6		0.00		-1.60		1.019e-02		126.091
6		0.00		-1.20		1.022e-02		123.252
6		0.00		-0.80		9.949e-03		127.016
6		0.00		-0.40		9.577e-03		126.221
7		0.00		0.00		9.748e-03		126.396
7		0.00		0.40		9.416e-03		124.095
7		0.00		0.80		9.669e-03		126.823
7		0.00		1.20		8.996e-03		126.276
7		0.00		1.60		8.240e-03		126.726
7		0.00		2.00		7.536e-03		128.911
7		0.00		2.40		6.824e-03		125.590
7		0.00		2.80		6.252e-03		122.485
7		0.00		3.20		5.297e-03		122.547
7		0.00		3.60		4.608e-03		119.754
7		0.00		4.00		3.922e-03		116.533
7		0.00		4.40		3.333e-03		108.624
7		0.00		4.80		2.384e-03		69.036
7		0.00		5.20		1.979e-03		37.338
7		0.00		5.60		1.693e-03		-20.369
7		0.00		6.00		2.200e-03		-52.488
7		0.00		6.40		2.733e-03		-51.161
7		0.00		6.80		3.480e-03		-54.062
7		0.00		7.20		4.956e-03		-55.947
7		0.00		7.60		6.105e-03		-60.643
7		0.00		8.00		7.305e-03		-59.252
7		0.00		8.40		8.755e-03		-56.591
7		0.00		8.80		1.088e-02		-52.785
7		0.00		9.20		1.288e-02		-55.302
7		0.00		9.60		1.521e-02		-56.542
7		0.00		10.00		1.745e-02		-54.237
7		0.00		9.60		1.880e-02		-53.349
7		0.00		9.20		2.020e-02		-53.138
7		0.00		8.80		2.120e-02		-53.426
7		0.00		8.40		2.162e-02		-53.835
7		0.00		8.00		2.209e-02		-52.803
7		0.00		7.60		2.125e-02		-53.118
7		0.00		7.20		2.095e-02		-51.940
7		0.00		6.80		2.103e-02		-52.260
7		0.00		6.40		2.061e-02		-52.058
7		0.00		6.00		2.027e-02		-53.885
7		0.00		5.60		2.044e-02		-53.150
7		0.00		5.20		2.062e-02		-52.289
7		0.00		4.80		2.078e-02		-52.184
7		0.00		4.40		2.041e-02		-53.243
7		0.00		4.00		2.055e-02		-52.818
7		0.00		3.60		1.971e-02		-51.284
7		0.00		3.20		1.928e-02		-48.351
7		0.00		2.80		1.902e-02		-50.529
7		0.00		2.40		1.899e-02		-51.232
7		0.00		2.00		1.876e-02		-52.286
7		0.00		1.60		1.927e-02		-49.330
7		0.00		1.20		1.946e-02		-52.726
7		0.00		0.80		1.946e-02		-52.967
7		0.00		0.40		1.969e-02		-54.653
7		0.00		0.00		1.919e-02		-53.789
7		0.00		-0.40		1.946e-02		-55.094
7		0.00		-0.80		1.861e-02		-53.299
7		0.00		-1.20		1.832e-02		-50.522
7		0.00		-1.60		1.883e-02		-55.493
7		0.00		-2.00		1.909e-02		-55.717
7		0.00		-2.40		1.877e-02		-53.878
7		0.00		-2.80		1.871e-02		-53.194
7		0.00		-3.20		1.719e-02		-53.081
7		0.00		-3.60		1.641e-02		-51.243
7		0.00		-4.00		1.570e-02		-51.776
7		0.00		-4.40		1.495e-02		-51.627
7		0.00		-4.80		1.424e-02		-52.933
7		0.00		-5.20		1.278e-02		-54.351
7		0.00		-5.60		1.138e-02		-49.102
7		0.00		-6.00		9.510e-03		-53.670
7		0.00		-6.40		7.650e-03		-53.695
7		0.00		-6.80		5.616e-03		-52.502
7		0.00		-7.20		2.862e-03		-43.014
7		0.00		-7.60		1.729e-03		21.491
7		0.00		-8.00		3.952e-03		115.554
7		0.00		-8.40		6.368e-03		121.602
7		0.00		-8.80		8.930e-03		126.613
7		0.00		-9.20		1.031e-02		123.760
7		0.00		-9.60		1.146e-02		122.655
7		0.00		-10.00		1.328e-02		126.081
7		0.00		-9.60		1.413e-02		126.327
7		0.00		-9.20		1.455e-02		124.864
7		0.00		-8.80		1.478e-02		127.751
7		0.00		-8.40		1.397e-02		126.446
7		0.00		-8.00		1.453e-02		125.936
7		0.00		-7.60		1.426e-02		126.756
7		0.00		-7.20		1.397e-02		125.345
7		0.00		-6.80		1.423e-02		123.835
7		0.00		-6.40		1.372e-02		128.606
7		0.00		-6.00		1.385e-02		125.607
7		0.00		-5.60		1.269e-02		123.751
7		0.00		-5.20		1.202e-02		124.985
7		0.00		-4.80		1.227e-02		123.425
7		0.00		-4.40		1.206e-02		126.148
7		0.00		-4.00		1.161e-02		123.979
7		0.00		-3.60		1.105e-02		122.421
7		0.00		-3.20		1.047e-02		127.975
7		0.00		-2.80		1.038e-02		122.966
7		0.00		-2.40		9.996e-03		122.023
7		0.00		-2.00		1.013e-02		125.823
7		0.00		-1.60		9.923e-03		124.597
7		0.00		-1.20		9.680e-03		127.245
7		0.00		-0.80		9.177e-03		129.767
7		0.00		-0.40		9.085e-03		121.619
8		0.00		0.00		8.938e-03		127.715
8		0.00		0.40		8.651e-03		123.029
8		0.00		0.80		8.556e-03		126.988
8		0.00		1.20		7.872e-03		124.665
8		0.00		1.60		7.523e-03		125.969
8		0.00		2.00		7.120e-03		127.610
8		0.00		2.40		6.800e-03		121.791
8		0.00		2.80		6.058e-03		127.102
8		0.00		3.20		5.630e-03		126.990
8		0.00		3.60		4.783e-03		128.671
8		0.00		4.00		3.944e-03		125.340
8		0.00		4.40		2.841e-03		88.952
8		0.00		4.80		2.799e-03		92.964
8		0.00		5.20		2.205e-03		58.493
8		0.00		5.60		1.845e-03		36.133
8		0.00		6.00		2.030e-03		-55.126
8		0.00		6.40		2.413e-03		-50.907
8		0.00		6.80		3.130e-03		-48.639
8		0.00		7.20		4.818e-03		-47.997
8		0.00		7.60		6.103e-03		-53.548
8		0.00		8.00		8.096e-03		-52.779
8		0.00		8.40		8.977e-03		-59.157
8		0.00		8.80		1.096e-02		-54.729
8		0.00		9.20		1.292e-02		-52.033
8		0.00		9.60		1.574e-02		-53.124
8		0.00		10.00		1.790e-02		-52.948
8		0.00		9.60		1.949e-02		-51.839
8		0.00		9.20		1.956e-02		-52.569
8		0.00		8.80		2.041e-02		-52.731
8		0.00		8.40		2.043e-02		-52.423
8		0.00		8.00		2.073e-02		-53.573
8		0.00		7.60		2.109e-02		-55.397
8		0.00		7.20		2.072e-02		-53.133
8		0.00		6.80		2.026e-02		-52.058
8		0.00		6.40		2.018e-02		-52.338
8		0.00		6.00		1.973e-02		-52.425
8		0.00		5.60		2.027e-02		-52.440
8		0.00		5.20		1.989e-02		-53.391
8		0.00		4.80		1.946e-02		-52.330
8		0.00		4.40		1.853e-02		-53.429
8		0.00		4.00		1.881e-02		-53.136
8		0.00		3.60		1.958e-02		-53.341
8		0.00		3.20		1.931e-02		-54.938
8		0.00		2.80		1.910e-02		-50.698
8		0.00		2.40		1.875e-02		-51.745
8		0.00		2.00		1.845e-02		-49.005
8		0.00		1.60		1.930e-02		-49.692
8		0.00		1.20		1.957e-02		-53.594
8		0.00		0.80		1.920e-02		-50.193
8		0.00		0.40		1.917e-02		-52.012
8		0.00		0.00		1.891e-02		-50.973
8		0.00		-0.40		1.864e-02		-51.156
8		0.00		-0.80		1.883e-02		-53.289
8		0.00		-1.20		1.879e-02		-53.680
8		0.00		-1.60		1.875e-02		-52.532
8		0.00		-2.00		1.857e-02		-51.368
8		0.00		-2.40		1.784e-02		-51.414
8		0.00		-2.80		1.746e-02		-50.562
8		0.00		-3.20		1.689e-02		-51.411
8		0.00		-3.60		1.680e-02		-53.645
8		0.00		-4.00		1.652e-02		-50.083
8		0.00		-4.40		1.514e-02		-50.675
8		0.00		-4.80		1.390e-02		-52.578
8		0.00		-5.20		1.238e-02		-48.077
8		0.00		-5.60		1.095e-02		-50.308
8		0.00		-6.00		9.186e-03		-52.751
8		0.00		-6.40		7.253e-03		-63.821
8		0.00		-6.80		3.794e-03		-40.951
8		0.00		-7.20		1.983e-03		-19.234
8		0.00		-7.60		2.458e-03		63.811
8		0.00		-8.00		4.695e-03		121.550
8		0.00		-8.40		6.611e-03		125.481
8		0.00		-8.80		8.958e-03		124.489
8		0.00		-9.20		1.111e-02		128.511
8		0.00		-9.60		1.338e-02		127.789
8		0.00		-10.00		1.439e-02		123.501
8		0.00		-9.60		1.495e-02		125.307
8		0.00		-9.20		1.580e-02		128.599
8		0.00		-8.80		1.544e-02		125.264
8		0.00		-8.40		1.468e-02		124.454
8		0.00		-8.00		1.422e-02		124.606
8		0.00		-7.60		1.446e-02		124.976
8		0.00		-7.20		1.392e-02		127.238
8		0.00		-6.80		1.429e-02		127.911
8		0.00		-6.40		1.372e-02		126.747
8		0.00		-6.00		1.323e-02		126.296
8		0.00		-5.60		1.280e-02		125.219
8		0.00		-5.20		1.280e-02		126.562
8		0.00		-4.80		1.278e-02		126.700
8		0.00		-4.40		1.238e-02		125.360
8		0.00		-4.00		1.195e-02		126.672
8		0.00		-3.60		1.134e-02		125.767
8		0.00		-3.20		1.127e-02		125.786
8		0.00		-2.80		1.139e-02		128.812
8		0.00		-2.40		1.141e-02		128.497
8		0.00		-2.00		1.089e-02		129.185
8		0.00		-1.60		1.041e-02		124.762
8		0.00		-1.20		1.032e-02		121.873
8		0.00		-0.80		1.069e-02		124.535
8		0.00		-0.40		1.053e-02		128.553
