# Date of analysis: 2023-10-17 09;56
# 
# Loop index	Read Volt (V)	Write Volt (V)	Amplitude (a.u)	Phase (deg)	
1		0.00		0.00		1.111e-02		-44.944
1		0.00		0.40		1.172e-02		-45.103
1		0.00		0.80		1.170e-02		-43.480
1		0.00		1.20		1.128e-02		-45.636
1		0.00		1.60		1.118e-02		-45.398
1		0.00		2.00		1.114e-02		-44.458
1		0.00		2.40		1.152e-02		-48.449
1		0.00		2.80		1.131e-02		-39.302
1		0.00		3.20		1.193e-02		-42.910
1		0.00		3.60		1.205e-02		-42.614
1		0.00		4.00		1.293e-02		-44.825
1		0.00		4.40		1.331e-02		-47.333
1		0.00		4.80		1.418e-02		-46.549
1		0.00		5.20		1.537e-02		-48.541
1		0.00		5.60		1.658e-02		-47.837
1		0.00		6.00		1.686e-02		-46.889
1		0.00		6.40		1.736e-02		-48.389
1		0.00		6.80		1.827e-02		-46.148
1		0.00		7.20		1.961e-02		-48.034
1		0.00		7.60		2.053e-02		-48.216
1		0.00		8.00		2.101e-02		-49.444
1		0.00		8.40		2.229e-02		-49.185
1		0.00		8.80		2.350e-02		-50.926
1		0.00		9.20		2.480e-02		-49.673
1		0.00		9.60		2.573e-02		-50.257
1		0.00		10.00		2.712e-02		-49.164
1		0.00		9.60		2.842e-02		-50.862
1		0.00		9.20		2.932e-02		-50.513
1		0.00		8.80		2.980e-02		-49.538
1		0.00		8.40		2.916e-02		-51.098
1		0.00		8.00		2.961e-02		-50.101
1		0.00		7.60		2.974e-02		-50.126
1		0.00		7.20		2.961e-02		-50.312
1		0.00		6.80		2.838e-02		-50.838
1		0.00		6.40		2.828e-02		-51.634
1		0.00		6.00		2.932e-02		-48.828
1		0.00		5.60		2.859e-02		-49.981
1		0.00		5.20		2.851e-02		-48.678
1		0.00		4.80		2.793e-02		-51.518
1		0.00		4.40		2.848e-02		-50.163
1		0.00		4.00		2.815e-02		-50.388
1		0.00		3.60		2.761e-02		-51.085
1		0.00		3.20		2.751e-02		-50.308
1		0.00		2.80		2.744e-02		-51.475
1		0.00		2.40		2.765e-02		-49.767
1		0.00		2.00		2.674e-02		-49.473
1		0.00		1.60		2.606e-02		-50.651
1		0.00		1.20		2.667e-02		-52.268
1		0.00		0.80		2.647e-02		-49.483
1		0.00		0.40		2.623e-02		-48.559
1		0.00		0.00		2.597e-02		-48.762
1		0.00		-0.40		2.647e-02		-52.318
1		0.00		-0.80		2.594e-02		-49.592
1		0.00		-1.20		2.531e-02		-48.762
1		0.00		-1.60		2.440e-02		-49.318
1		0.00		-2.00		2.478e-02		-51.352
1		0.00		-2.40		2.468e-02		-50.061
1		0.00		-2.80		2.377e-02		-48.837
1		0.00		-3.20		2.272e-02		-49.308
1		0.00		-3.60		2.319e-02		-51.398
1		0.00		-4.00		2.239e-02		-50.715
1		0.00		-4.40		2.214e-02		-49.943
1		0.00		-4.80		2.069e-02		-48.553
1		0.00		-5.20		2.005e-02		-48.948
1		0.00		-5.60		1.900e-02		-49.327
1		0.00		-6.00		1.768e-02		-45.753
1		0.00		-6.40		1.606e-02		-48.939
1		0.00		-6.80		1.484e-02		-45.690
1		0.00		-7.20		1.312e-02		-44.713
1		0.00		-7.60		1.068e-02		-46.773
1		0.00		-8.00		8.251e-03		-40.758
1		0.00		-8.40		6.658e-03		-42.765
1		0.00		-8.80		3.655e-03		-29.842
1		0.00		-9.20		2.162e-03		-17.938
1		0.00		-9.60		2.334e-03		62.455
1		0.00		-10.00		3.422e-03		88.329
1		0.00		-9.60		4.527e-03		107.059
1		0.00		-9.20		5.472e-03		117.404
1		0.00		-8.80		5.603e-03		107.351
1		0.00		-8.40		5.842e-03		116.165
1		0.00		-8.00		5.824e-03		114.577
1		0.00		-7.60		5.791e-03		115.795
1		0.00		-7.20		5.435e-03		112.923
1		0.00		-6.80		5.009e-03		108.971
1		0.00		-6.40		4.782e-03		109.205
1		0.00		-6.00		5.165e-03		110.860
1		0.00		-5.60		4.476e-03		106.609
1		0.00		-5.20		4.346e-03		114.618
1		0.00		-4.80		4.314e-03		102.692
1		0.00		-4.40		3.929e-03		109.357
1		0.00		-4.00		3.851e-03		105.853
1		0.00		-3.60		4.050e-03		101.448
1		0.00		-3.20		3.681e-03		106.677
1		0.00		-2.80		3.839e-03		104.162
1		0.00		-2.40		3.643e-03		102.527
1		0.00		-2.00		3.771e-03		105.899
1		0.00		-1.60		3.556e-03		108.413
1		0.00		-1.20		3.290e-03		87.962
1		0.00		-0.80		3.251e-03		99.339
1		0.00		-0.40		3.149e-03		86.149
2		0.00		0.00		3.655e-03		95.911
2		0.00		0.40		3.329e-03		92.775
2		0.00		0.80		3.428e-03		94.945
2		0.00		1.20		3.275e-03		79.282
2		0.00		1.60		2.715e-03		90.334
2		0.00		2.00		2.434e-03		70.994
2		0.00		2.40		2.239e-03		61.214
2		0.00		2.80		2.107e-03		38.291
2		0.00		3.20		2.080e-03		6.806
2		0.00		3.60		1.978e-03		-13.084
2		0.00		4.00		2.794e-03		-10.319
2		0.00		4.40		3.642e-03		-43.717
2		0.00		4.80		3.927e-03		-29.914
2		0.00		5.20		5.409e-03		-35.472
2		0.00		5.60		6.499e-03		-39.947
2		0.00		6.00		7.030e-03		-47.356
2		0.00		6.40		7.895e-03		-51.057
2		0.00		6.80		8.558e-03		-50.268
2		0.00		7.20		9.400e-03		-40.188
2		0.00		7.60		1.049e-02		-46.236
2		0.00		8.00		1.207e-02		-47.623
2		0.00		8.40		1.275e-02		-48.678
2		0.00		8.80		1.406e-02		-48.728
2		0.00		9.20		1.581e-02		-48.815
2		0.00		9.60		1.778e-02		-47.313
2		0.00		10.00		2.025e-02		-52.118
2		0.00		9.60		2.146e-02		-48.828
2		0.00		9.20		2.194e-02		-50.407
2		0.00		8.80		2.268e-02		-49.460
2		0.00		8.40		2.286e-02		-50.141
2		0.00		8.00		2.336e-02		-50.576
2		0.00		7.60		2.342e-02		-50.568
2		0.00		7.20		2.353e-02		-51.342
2		0.00		6.80		2.299e-02		-50.322
2		0.00		6.40		2.269e-02		-50.778
2		0.00		6.00		2.269e-02		-48.814
2		0.00		5.60		2.273e-02		-50.638
2		0.00		5.20		2.236e-02		-47.044
2		0.00		4.80		2.176e-02		-50.197
2		0.00		4.40		2.123e-02		-49.333
2		0.00		4.00		2.141e-02		-52.120
2		0.00		3.60		2.107e-02		-49.498
2		0.00		3.20		2.132e-02		-49.474
2		0.00		2.80		2.094e-02		-47.088
2		0.00		2.40		2.017e-02		-50.686
2		0.00		2.00		2.065e-02		-47.691
2		0.00		1.60		2.081e-02		-47.590
2		0.00		1.20		2.094e-02		-47.966
2		0.00		0.80		2.079e-02		-49.554
2		0.00		0.40		2.082e-02		-49.366
2		0.00		0.00		2.041e-02		-47.444
2		0.00		-0.40		2.055e-02		-46.909
2		0.00		-0.80		2.021e-02		-47.693
2		0.00		-1.20		1.963e-02		-47.218
2		0.00		-1.60		1.895e-02		-48.408
2		0.00		-2.00		1.904e-02		-49.639
2		0.00		-2.40		1.859e-02		-48.008
2		0.00		-2.80		1.824e-02		-47.653
2		0.00		-3.20		1.729e-02		-47.618
2		0.00		-3.60		1.652e-02		-49.291
2		0.00		-4.00		1.555e-02		-50.357
2		0.00		-4.40		1.563e-02		-50.331
2		0.00		-4.80		1.530e-02		-45.635
2		0.00		-5.20		1.389e-02		-47.514
2		0.00		-5.60		1.309e-02		-44.196
2		0.00		-6.00		1.246e-02		-45.738
2		0.00		-6.40		1.167e-02		-47.314
2		0.00		-6.80		1.038e-02		-47.649
2		0.00		-7.20		8.851e-03		-50.345
2		0.00		-7.60		6.891e-03		-43.850
2		0.00		-8.00		5.780e-03		-38.564
2		0.00		-8.40		3.877e-03		-30.655
2		0.00		-8.80		2.274e-03		-14.711
2		0.00		-9.20		2.008e-03		12.087
2		0.00		-9.60		2.560e-03		70.133
2		0.00		-10.00		4.475e-03		111.810
2		0.00		-9.60		6.028e-03		111.844
2		0.00		-9.20		6.715e-03		119.254
2		0.00		-8.80		6.848e-03		120.680
2		0.00		-8.40		6.982e-03		117.987
2		0.00		-8.00		6.784e-03		112.970
2		0.00		-7.60		6.705e-03		117.557
2		0.00		-7.20		6.538e-03		115.219
2		0.00		-6.80		6.229e-03		119.871
2		0.00		-6.40		6.123e-03		112.097
2		0.00		-6.00		6.139e-03		118.273
2		0.00		-5.60		5.621e-03		110.863
2		0.00		-5.20		5.944e-03		112.955
2		0.00		-4.80		5.575e-03		114.389
2		0.00		-4.40		5.439e-03		107.951
2		0.00		-4.00		5.152e-03		112.956
2		0.00		-3.60		5.185e-03		111.535
2		0.00		-3.20		4.810e-03		105.627
2		0.00		-2.80		4.919e-03		116.479
2		0.00		-2.40		5.009e-03		112.363
2		0.00		-2.00		4.810e-03		103.013
2		0.00		-1.60		5.041e-03		112.946
2		0.00		-1.20		5.136e-03		114.495
2		0.00		-0.80		4.842e-03		109.057
2		0.00		-0.40		4.907e-03		110.992
3		0.00		0.00		4.532e-03		111.140
3		0.00		0.40		4.498e-03		116.163
3		0.00		0.80		4.560e-03		109.656
3		0.00		1.20		4.434e-03		113.551
3		0.00		1.60		3.875e-03		100.593
3		0.00		2.00		3.495e-03		95.806
3		0.00		2.40		3.542e-03		104.062
3		0.00		2.80		2.515e-03		74.591
3		0.00		3.20		2.154e-03		56.911
3		0.00		3.60		1.977e-03		33.561
3		0.00		4.00		1.965e-03		-13.870
3		0.00		4.40		2.404e-03		-28.784
3		0.00		4.80		2.964e-03		-33.565
3		0.00		5.20		3.774e-03		-43.097
3		0.00		5.60		4.890e-03		-39.947
3		0.00		6.00		6.213e-03		-47.204
3		0.00		6.40		6.791e-03		-47.110
3		0.00		6.80		7.552e-03		-42.144
3		0.00		7.20		8.464e-03		-48.130
3		0.00		7.60		9.477e-03		-46.411
3		0.00		8.00		1.082e-02		-47.829
3		0.00		8.40		1.171e-02		-51.258
3		0.00		8.80		1.270e-02		-47.982
3		0.00		9.20		1.488e-02		-47.984
3		0.00		9.60		1.659e-02		-48.768
3		0.00		10.00		1.852e-02		-51.086
3		0.00		9.60		1.939e-02		-50.199
3		0.00		9.20		1.999e-02		-52.283
3		0.00		8.80		2.043e-02		-49.509
3		0.00		8.40		2.113e-02		-51.358
3		0.00		8.00		2.096e-02		-49.605
3		0.00		7.60		2.138e-02		-47.797
3		0.00		7.20		2.117e-02		-48.076
3		0.00		6.80		2.064e-02		-50.601
3		0.00		6.40		2.039e-02		-48.091
3		0.00		6.00		2.074e-02		-50.461
3		0.00		5.60		2.111e-02		-47.968
3		0.00		5.20		2.116e-02		-50.284
3		0.00		4.80		2.053e-02		-50.027
3		0.00		4.40		2.006e-02		-49.268
3		0.00		4.00		2.014e-02		-49.532
3		0.00		3.60		1.993e-02		-49.390
3		0.00		3.20		2.009e-02		-51.187
3		0.00		2.80		2.019e-02		-51.894
3		0.00		2.40		2.051e-02		-48.640
3		0.00		2.00		1.980e-02		-47.881
3		0.00		1.60		1.917e-02		-49.857
3		0.00		1.20		1.928e-02		-49.798
3		0.00		0.80		1.927e-02		-50.675
3		0.00		0.40		1.933e-02		-47.812
3		0.00		0.00		1.968e-02		-50.683
3		0.00		-0.40		1.988e-02		-46.763
3		0.00		-0.80		1.912e-02		-46.614
3		0.00		-1.20		1.920e-02		-47.735
3		0.00		-1.60		1.890e-02		-47.861
3		0.00		-2.00		1.810e-02		-48.870
3		0.00		-2.40		1.724e-02		-46.831
3		0.00		-2.80		1.705e-02		-47.491
3		0.00		-3.20		1.650e-02		-48.496
3		0.00		-3.60		1.644e-02		-47.202
3		0.00		-4.00		1.591e-02		-47.608
3		0.00		-4.40		1.543e-02		-47.125
3		0.00		-4.80		1.478e-02		-46.257
3		0.00		-5.20		1.365e-02		-48.754
3		0.00		-5.60		1.295e-02		-44.802
3		0.00		-6.00		1.168e-02		-46.157
3		0.00		-6.40		1.030e-02		-45.178
3		0.00		-6.80		1.005e-02		-46.272
3		0.00		-7.20		8.650e-03		-39.872
3		0.00		-7.60		6.974e-03		-41.502
3		0.00		-8.00		5.749e-03		-42.013
3		0.00		-8.40		4.045e-03		-40.522
3		0.00		-8.80		2.997e-03		-41.157
3		0.00		-9.20		1.913e-03		22.848
3		0.00		-9.60		2.332e-03		69.751
3		0.00		-10.00		4.019e-03		103.861
3		0.00		-9.60		5.739e-03		114.048
3		0.00		-9.20		6.165e-03		114.769
3		0.00		-8.80		6.401e-03		116.279
3		0.00		-8.40		6.731e-03		113.695
3		0.00		-8.00		6.500e-03		115.819
3		0.00		-7.60		6.411e-03		120.836
3		0.00		-7.20		6.273e-03		116.950
3		0.00		-6.80		5.986e-03		114.014
3		0.00		-6.40		5.711e-03		112.888
3		0.00		-6.00		5.866e-03		112.142
3		0.00		-5.60		5.730e-03		118.149
3		0.00		-5.20		5.315e-03		117.797
3		0.00		-4.80		5.155e-03		117.729
3		0.00		-4.40		4.914e-03		106.172
3		0.00		-4.00		5.044e-03		115.126
3		0.00		-3.60		5.013e-03		110.818
3		0.00		-3.20		4.888e-03		116.099
3		0.00		-2.80		4.631e-03		109.598
3		0.00		-2.40		5.193e-03		112.360
3		0.00		-2.00		4.549e-03		112.938
3		0.00		-1.60		4.746e-03		115.619
3		0.00		-1.20		4.678e-03		111.698
3		0.00		-0.80		4.736e-03		111.221
3		0.00		-0.40		4.607e-03		112.373
4		0.00		0.00		4.950e-03		107.622
4		0.00		0.40		4.408e-03		107.774
4		0.00		0.80		4.534e-03		106.793
4		0.00		1.20		4.507e-03		108.452
4		0.00		1.60		4.456e-03		103.782
4		0.00		2.00		3.934e-03		115.323
4		0.00		2.40		3.325e-03		104.211
4		0.00		2.80		2.710e-03		77.292
4		0.00		3.20		2.150e-03		53.648
4		0.00		3.60		2.112e-03		30.485
4		0.00		4.00		1.998e-03		-2.664
4		0.00		4.40		2.052e-03		-21.734
4		0.00		4.80		2.835e-03		-29.893
4		0.00		5.20		3.714e-03		-44.930
4		0.00		5.60		4.245e-03		-33.344
4		0.00		6.00		4.953e-03		-42.624
4		0.00		6.40		6.070e-03		-43.230
4		0.00		6.80		7.192e-03		-45.272
4		0.00		7.20		7.840e-03		-45.430
4		0.00		7.60		9.151e-03		-51.529
4		0.00		8.00		1.054e-02		-42.976
4		0.00		8.40		1.110e-02		-45.175
4		0.00		8.80		1.256e-02		-46.487
4		0.00		9.20		1.366e-02		-47.000
4		0.00		9.60		1.533e-02		-49.383
4		0.00		10.00		1.735e-02		-49.666
4		0.00		9.60		1.801e-02		-51.250
4		0.00		9.20		1.843e-02		-49.638
4		0.00		8.80		1.918e-02		-50.330
4		0.00		8.40		1.900e-02		-51.106
4		0.00		8.00		1.940e-02		-48.063
4		0.00		7.60		1.956e-02		-49.987
4		0.00		7.20		1.964e-02		-52.219
4		0.00		6.80		1.897e-02		-49.293
4		0.00		6.40		1.910e-02		-49.643
4		0.00		6.00		1.847e-02		-51.383
4		0.00		5.60		1.855e-02		-49.619
4		0.00		5.20		1.850e-02		-49.563
4		0.00		4.80		1.852e-02		-49.797
4		0.00		4.40		1.813e-02		-48.645
4		0.00		4.00		1.849e-02		-48.568
4		0.00		3.60		1.844e-02		-48.763
4		0.00		3.20		1.868e-02		-49.532
4		0.00		2.80		1.859e-02		-46.875
4		0.00		2.40		1.847e-02		-48.867
4		0.00		2.00		1.798e-02		-49.019
4		0.00		1.60		1.784e-02		-49.556
4		0.00		1.20		1.757e-02		-50.007
4		0.00		0.80		1.755e-02		-48.364
4		0.00		0.40		1.761e-02		-48.603
4		0.00		0.00		1.766e-02		-48.224
4		0.00		-0.40		1.776e-02		-48.882
4		0.00		-0.80		1.789e-02		-48.321
4		0.00		-1.20		1.759e-02		-49.388
4		0.00		-1.60		1.735e-02		-47.713
4		0.00		-2.00		1.621e-02		-46.419
4		0.00		-2.40		1.616e-02		-48.178
4		0.00		-2.80		1.546e-02		-47.588
4		0.00		-3.20		1.528e-02		-50.356
4		0.00		-3.60		1.498e-02		-46.696
4		0.00		-4.00		1.460e-02		-47.948
4		0.00		-4.40		1.399e-02		-45.438
4		0.00		-4.80		1.387e-02		-43.658
4		0.00		-5.20		1.270e-02		-44.575
4		0.00		-5.60		1.203e-02		-45.513
4		0.00		-6.00		1.089e-02		-40.234
4		0.00		-6.40		1.045e-02		-38.651
4		0.00		-6.80		9.021e-03		-40.870
4		0.00		-7.20		7.912e-03		-45.133
4		0.00		-7.60		6.394e-03		-42.299
4		0.00		-8.00		4.960e-03		-32.382
4		0.00		-8.40		3.565e-03		-35.247
4		0.00		-8.80		2.388e-03		-35.035
4		0.00		-9.20		1.712e-03		6.785
4		0.00		-9.60		2.441e-03		71.918
4		0.00		-10.00		3.880e-03		95.609
4		0.00		-9.60		5.325e-03		120.713
4		0.00		-9.20		6.227e-03		114.922
4		0.00		-8.80		6.553e-03		116.645
4		0.00		-8.40		6.821e-03		121.024
4		0.00		-8.00		6.515e-03		115.362
4		0.00		-7.60		6.273e-03		118.967
4		0.00		-7.20		6.249e-03		113.599
4		0.00		-6.80		6.477e-03		117.601
4		0.00		-6.40		6.140e-03		117.316
4		0.00		-6.00		6.028e-03		118.429
4		0.00		-5.60		5.861e-03		120.705
4		0.00		-5.20		5.785e-03		119.832
4		0.00		-4.80		5.409e-03		109.509
4		0.00		-4.40		5.180e-03		109.326
4		0.00		-4.00		5.418e-03		115.864
4		0.00		-3.60		4.982e-03		107.534
4		0.00		-3.20		5.303e-03		116.329
4		0.00		-2.80		5.373e-03		114.138
4		0.00		-2.40		5.227e-03		114.857
4		0.00		-2.00		5.317e-03		112.648
4		0.00		-1.60		4.763e-03		106.152
4		0.00		-1.20		4.878e-03		114.572
4		0.00		-0.80		5.004e-03		115.361
4		0.00		-0.40		5.032e-03		108.364
5		0.00		0.00		5.031e-03		114.635
5		0.00		0.40		4.767e-03		109.932
5		0.00		0.80		4.774e-03		109.377
5		0.00		1.20		4.784e-03		106.216
5		0.00		1.60		4.419e-03		107.055
5		0.00		2.00		4.434e-03		108.712
5		0.00		2.40		3.676e-03		102.554
5		0.00		2.80		3.384e-03		95.145
5		0.00		3.20		2.636e-03		79.581
5		0.00		3.60		2.060e-03		59.233
5		0.00		4.00		1.887e-03		23.708
5		0.00		4.40		1.941e-03		-20.853
5		0.00		4.80		2.366e-03		-20.628
5		0.00		5.20		3.410e-03		-15.642
5		0.00		5.60		3.835e-03		-48.999
5		0.00		6.00		4.619e-03		-47.460
5		0.00		6.40		5.837e-03		-46.770
5		0.00		6.80		6.557e-03		-46.382
5		0.00		7.20		7.372e-03		-45.779
5		0.00		7.60		8.182e-03		-48.303
5		0.00		8.00		9.939e-03		-47.930
5		0.00		8.40		1.054e-02		-45.565
5		0.00		8.80		1.157e-02		-45.147
5		0.00		9.20		1.276e-02		-46.981
5		0.00		9.60		1.464e-02		-43.957
5		0.00		10.00		1.640e-02		-49.296
5		0.00		9.60		1.784e-02		-48.533
5		0.00		9.20		1.887e-02		-49.022
5		0.00		8.80		1.895e-02		-48.521
5		0.00		8.40		1.900e-02		-48.738
5		0.00		8.00		1.921e-02		-51.100
5		0.00		7.60		1.938e-02		-49.218
5		0.00		7.20		1.925e-02		-48.601
5		0.00		6.80		1.924e-02		-49.242
5		0.00		6.40		1.884e-02		-50.016
5		0.00		6.00		1.823e-02		-49.793
5		0.00		5.60		1.890e-02		-50.643
5		0.00		5.20		1.862e-02		-50.667
5		0.00		4.80		1.856e-02		-48.203
5		0.00		4.40		1.774e-02		-50.035
5		0.00		4.00		1.810e-02		-48.849
5		0.00		3.60		1.828e-02		-47.565
5		0.00		3.20		1.844e-02		-47.548
5		0.00		2.80		1.831e-02		-47.878
5		0.00		2.40		1.748e-02		-48.982
5		0.00		2.00		1.727e-02		-47.902
5		0.00		1.60		1.762e-02		-48.594
5		0.00		1.20		1.779e-02		-48.515
5		0.00		0.80		1.762e-02		-47.525
5		0.00		0.40		1.688e-02		-48.600
5		0.00		0.00		1.703e-02		-48.762
5		0.00		-0.40		1.747e-02		-46.895
5		0.00		-0.80		1.707e-02		-47.428
5		0.00		-1.20		1.631e-02		-46.969
5		0.00		-1.60		1.628e-02		-48.071
5		0.00		-2.00		1.596e-02		-49.469
5		0.00		-2.40		1.568e-02		-45.322
5		0.00		-2.80		1.522e-02		-45.668
5		0.00		-3.20		1.499e-02		-46.957
5		0.00		-3.60		1.406e-02		-49.026
5		0.00		-4.00		1.368e-02		-44.757
5		0.00		-4.40		1.353e-02		-45.818
5		0.00		-4.80		1.235e-02		-45.938
5		0.00		-5.20		1.209e-02		-48.535
5		0.00		-5.60		1.173e-02		-50.421
5		0.00		-6.00		1.066e-02		-45.524
5		0.00		-6.40		9.687e-03		-40.773
5		0.00		-6.80		8.609e-03		-38.680
5		0.00		-7.20		7.351e-03		-41.045
5		0.00		-7.60		6.297e-03		-34.425
5		0.00		-8.00		5.155e-03		-41.372
5		0.00		-8.40		3.651e-03		-44.979
5		0.00		-8.80		2.694e-03		-31.942
5		0.00		-9.20		1.800e-03		-26.339
5		0.00		-9.60		2.024e-03		51.074
5		0.00		-10.00		3.257e-03		94.961
5		0.00		-9.60		4.772e-03		110.110
5		0.00		-9.20		5.029e-03		112.700
5		0.00		-8.80		5.436e-03		113.156
5		0.00		-8.40		6.065e-03		116.939
5		0.00		-8.00		5.963e-03		116.859
5		0.00		-7.60		6.138e-03		119.066
5		0.00		-7.20		5.920e-03		122.785
5		0.00		-6.80		5.484e-03		112.804
5		0.00		-6.40		5.370e-03		112.999
5		0.00		-6.00		5.653e-03		119.093
5		0.00		-5.60		5.560e-03		119.803
5		0.00		-5.20		5.094e-03		114.562
5		0.00		-4.80		5.040e-03		106.557
5		0.00		-4.40		5.257e-03		113.550
5		0.00		-4.00		4.899e-03		110.601
5		0.00		-3.60		5.270e-03		117.238
5		0.00		-3.20		4.783e-03		108.423
5		0.00		-2.80		4.467e-03		105.772
5		0.00		-2.40		4.943e-03		117.260
5		0.00		-2.00		4.925e-03		112.310
5		0.00		-1.60		4.593e-03		121.259
5		0.00		-1.20		4.435e-03		109.943
5		0.00		-0.80		4.722e-03		117.213
5		0.00		-0.40		4.772e-03		108.857
6		0.00		0.00		4.308e-03		109.947
6		0.00		0.40		4.167e-03		109.073
6		0.00		0.80		4.528e-03		109.313
6		0.00		1.20		4.463e-03		109.308
6		0.00		1.60		4.093e-03		99.222
6		0.00		2.00		3.559e-03		99.502
6		0.00		2.40		3.472e-03		102.961
6		0.00		2.80		2.686e-03		84.619
6		0.00		3.20		2.468e-03		71.217
6		0.00		3.60		2.280e-03		65.266
6		0.00		4.00		1.848e-03		30.628
6		0.00		4.40		1.764e-03		-9.120
6		0.00		4.80		2.016e-03		-38.642
6		0.00		5.20		3.106e-03		-42.426
6		0.00		5.60		3.603e-03		-43.318
6		0.00		6.00		4.863e-03		-40.884
6		0.00		6.40		5.600e-03		-36.314
6		0.00		6.80		6.206e-03		-41.450
6		0.00		7.20		7.047e-03		-46.018
6		0.00		7.60		7.997e-03		-50.685
6		0.00		8.00		9.100e-03		-46.344
6		0.00		8.40		1.023e-02		-45.223
6		0.00		8.80		1.098e-02		-42.785
6		0.00		9.20		1.241e-02		-48.105
6		0.00		9.60		1.403e-02		-50.069
6		0.00		10.00		1.564e-02		-50.865
6		0.00		9.60		1.727e-02		-49.173
6		0.00		9.20		1.716e-02		-46.765
6		0.00		8.80		1.792e-02		-49.698
6		0.00		8.40		1.816e-02		-49.229
6		0.00		8.00		1.906e-02		-48.592
6		0.00		7.60		1.883e-02		-50.303
6		0.00		7.20		1.857e-02		-49.252
6		0.00		6.80		1.818e-02		-47.767
6		0.00		6.40		1.782e-02		-49.662
6		0.00		6.00		1.786e-02		-53.229
6		0.00		5.60		1.821e-02		-48.490
6		0.00		5.20		1.780e-02		-48.948
6		0.00		4.80		1.757e-02		-48.275
6		0.00		4.40		1.741e-02		-47.949
6		0.00		4.00		1.727e-02		-48.549
6		0.00		3.60		1.711e-02		-50.289
6		0.00		3.20		1.665e-02		-45.166
6		0.00		2.80		1.648e-02		-49.723
6		0.00		2.40		1.609e-02		-48.760
6		0.00		2.00		1.599e-02		-50.362
6		0.00		1.60		1.619e-02		-48.137
6		0.00		1.20		1.628e-02		-50.089
6		0.00		0.80		1.685e-02		-48.330
6		0.00		0.40		1.636e-02		-47.619
6		0.00		0.00		1.612e-02		-47.369
6		0.00		-0.40		1.634e-02		-49.563
6		0.00		-0.80		1.655e-02		-49.319
6		0.00		-1.20		1.656e-02		-45.487
6		0.00		-1.60		1.590e-02		-49.073
6		0.00		-2.00		1.580e-02		-47.090
6		0.00		-2.40		1.510e-02		-47.023
6		0.00		-2.80		1.466e-02		-44.750
6		0.00		-3.20		1.448e-02		-50.003
6		0.00		-3.60		1.427e-02		-47.717
6		0.00		-4.00		1.373e-02		-48.085
6		0.00		-4.40		1.365e-02		-45.865
6		0.00		-4.80		1.237e-02		-43.586
6		0.00		-5.20		1.183e-02		-47.474
6		0.00		-5.60		1.129e-02		-46.132
6		0.00		-6.00		1.053e-02		-43.896
6		0.00		-6.40		9.467e-03		-44.053
6		0.00		-6.80		7.949e-03		-49.555
6		0.00		-7.20		7.171e-03		-39.829
6		0.00		-7.60		6.139e-03		-35.929
6		0.00		-8.00		4.681e-03		-43.672
6		0.00		-8.40		3.689e-03		-23.178
6		0.00		-8.80		2.849e-03		-40.230
6		0.00		-9.20		1.691e-03		5.247
6		0.00		-9.60		1.921e-03		32.302
6		0.00		-10.00		2.781e-03		74.250
6		0.00		-9.60		3.957e-03		97.615
6		0.00		-9.20		4.999e-03		113.018
6		0.00		-8.80		5.423e-03		111.663
6		0.00		-8.40		5.585e-03		116.573
6		0.00		-8.00		5.663e-03		112.806
6		0.00		-7.60		5.593e-03		118.204
6		0.00		-7.20		5.562e-03		115.899
6		0.00		-6.80		5.211e-03		110.461
6		0.00		-6.40		5.316e-03		119.224
6		0.00		-6.00		5.155e-03		115.878
6		0.00		-5.60		5.426e-03		113.780
6		0.00		-5.20		4.815e-03		115.026
6		0.00		-4.80		4.803e-03		109.572
6		0.00		-4.40		4.592e-03		106.500
6		0.00		-4.00		4.564e-03		118.949
6		0.00		-3.60		4.725e-03		108.750
6		0.00		-3.20		4.833e-03		120.209
6		0.00		-2.80		4.719e-03		116.289
6		0.00		-2.40		4.481e-03		106.647
6		0.00		-2.00		4.671e-03		111.431
6		0.00		-1.60		4.774e-03		116.880
6		0.00		-1.20		4.602e-03		113.919
6		0.00		-0.80		4.642e-03		110.999
6		0.00		-0.40		4.563e-03		108.934
7		0.00		0.00		4.464e-03		113.198
7		0.00		0.40		4.095e-03		101.970
7		0.00		0.80		4.444e-03		105.951
7		0.00		1.20		4.075e-03		106.460
7		0.00		1.60		4.084e-03		110.121
7		0.00		2.00		3.560e-03		94.450
7		0.00		2.40		3.392e-03		95.772
7		0.00		2.80		2.770e-03		87.094
7		0.00		3.20		2.467e-03		63.547
7		0.00		3.60		2.190e-03		64.609
7		0.00		4.00		1.932e-03		34.813
7		0.00		4.40		1.914e-03		-13.958
7		0.00		4.80		2.417e-03		-33.090
7		0.00		5.20		3.254e-03		-52.019
7		0.00		5.60		3.896e-03		-44.252
7		0.00		6.00		4.659e-03		-30.384
7		0.00		6.40		5.228e-03		-33.169
7		0.00		6.80		5.604e-03		-43.887
7		0.00		7.20		6.824e-03		-36.497
7		0.00		7.60		7.614e-03		-43.395
7		0.00		8.00		8.359e-03		-47.177
7		0.00		8.40		1.010e-02		-45.359
7		0.00		8.80		1.097e-02		-50.261
7		0.00		9.20		1.187e-02		-48.164
7		0.00		9.60		1.352e-02		-47.278
7		0.00		10.00		1.594e-02		-46.428
7		0.00		9.60		1.695e-02		-49.386
7		0.00		9.20		1.674e-02		-49.311
7		0.00		8.80		1.730e-02		-49.548
7		0.00		8.40		1.746e-02		-49.146
7		0.00		8.00		1.795e-02		-49.146
7		0.00		7.60		1.809e-02		-49.795
7		0.00		7.20		1.786e-02		-48.789
7		0.00		6.80		1.731e-02		-50.656
7		0.00		6.40		1.684e-02		-50.957
7		0.00		6.00		1.676e-02		-46.961
7		0.00		5.60		1.691e-02		-50.749
7		0.00		5.20		1.757e-02		-50.102
7		0.00		4.80		1.734e-02		-49.565
7		0.00		4.40		1.663e-02		-46.889
7		0.00		4.00		1.669e-02		-48.467
7		0.00		3.60		1.611e-02		-50.103
7		0.00		3.20		1.639e-02		-46.329
7		0.00		2.80		1.634e-02		-47.429
7		0.00		2.40		1.640e-02		-46.103
7		0.00		2.00		1.628e-02		-50.191
7		0.00		1.60		1.600e-02		-48.618
7		0.00		1.20		1.615e-02		-49.967
7		0.00		0.80		1.630e-02		-49.171
7		0.00		0.40		1.624e-02		-47.777
7		0.00		0.00		1.630e-02		-44.817
7		0.00		-0.40		1.617e-02		-44.944
7		0.00		-0.80		1.526e-02		-49.937
7		0.00		-1.20		1.527e-02		-47.148
7		0.00		-1.60		1.523e-02		-46.447
7		0.00		-2.00		1.551e-02		-47.033
7		0.00		-2.40		1.502e-02		-46.905
7		0.00		-2.80		1.436e-02		-47.810
7		0.00		-3.20		1.336e-02		-43.704
7		0.00		-3.60		1.312e-02		-45.563
7		0.00		-4.00		1.307e-02		-47.391
7		0.00		-4.40		1.267e-02		-47.330
7		0.00		-4.80		1.238e-02		-47.878
7		0.00		-5.20		1.162e-02		-42.458
7		0.00		-5.60		1.081e-02		-45.351
7		0.00		-6.00		1.030e-02		-47.583
7		0.00		-6.40		9.841e-03		-49.633
7		0.00		-6.80		8.391e-03		-52.429
7		0.00		-7.20		7.798e-03		-46.457
7		0.00		-7.60		6.453e-03		-44.960
7		0.00		-8.00		5.077e-03		-29.736
7		0.00		-8.40		4.225e-03		-39.085
7		0.00		-8.80		2.999e-03		-28.706
7		0.00		-9.20		2.298e-03		18.645
7		0.00		-9.60		1.824e-03		24.707
7		0.00		-10.00		2.800e-03		79.048
7		0.00		-9.60		3.434e-03		99.413
7		0.00		-9.20		4.290e-03		103.080
7		0.00		-8.80		4.742e-03		113.068
7		0.00		-8.40		4.807e-03		113.084
7		0.00		-8.00		4.925e-03		108.064
7		0.00		-7.60		5.100e-03		109.998
7		0.00		-7.20		4.473e-03		117.087
7		0.00		-6.80		4.735e-03		108.990
7		0.00		-6.40		4.586e-03		118.442
7		0.00		-6.00		4.715e-03		108.478
7		0.00		-5.60		4.655e-03		116.989
7		0.00		-5.20		4.442e-03		107.597
7		0.00		-4.80		4.562e-03		111.248
7		0.00		-4.40		4.440e-03		111.192
7		0.00		-4.00		4.029e-03		105.055
7		0.00		-3.60		3.923e-03		101.989
7		0.00		-3.20		4.202e-03		105.287
7		0.00		-2.80		3.824e-03		105.151
7		0.00		-2.40		3.895e-03		103.932
7		0.00		-2.00		4.188e-03		102.966
7		0.00		-1.60		4.262e-03		109.283
7		0.00		-1.20		4.389e-03		105.020
7		0.00		-0.80		4.149e-03		104.255
7		0.00		-0.40		4.350e-03		106.017
8		0.00		0.00		4.338e-03		100.189
8		0.00		0.40		4.410e-03		110.054
8		0.00		0.80		4.266e-03		107.952
8		0.00		1.20		4.309e-03		108.269
8		0.00		1.60		3.994e-03		106.521
8		0.00		2.00		3.540e-03		101.926
8		0.00		2.40		3.275e-03		99.893
8		0.00		2.80		2.914e-03		93.940
8		0.00		3.20		2.488e-03		70.649
8		0.00		3.60		2.040e-03		30.646
8		0.00		4.00		1.767e-03		12.263
8		0.00		4.40		1.955e-03		-12.297
8		0.00		4.80		2.976e-03		-39.161
8		0.00		5.20		3.060e-03		-33.886
8		0.00		5.60		3.874e-03		-41.372
8		0.00		6.00		4.761e-03		-47.936
8		0.00		6.40		5.313e-03		-34.693
8		0.00		6.80		6.123e-03		-50.749
8		0.00		7.20		6.709e-03		-35.844
8		0.00		7.60		7.398e-03		-50.480
8		0.00		8.00		8.321e-03		-52.494
8		0.00		8.40		9.081e-03		-49.424
8		0.00		8.80		1.059e-02		-48.796
8		0.00		9.20		1.207e-02		-50.803
8		0.00		9.60		1.355e-02		-46.576
8		0.00		10.00		1.470e-02		-51.197
8		0.00		9.60		1.538e-02		-52.932
8		0.00		9.20		1.573e-02		-47.785
8		0.00		8.80		1.656e-02		-48.874
8		0.00		8.40		1.702e-02		-48.135
8		0.00		8.00		1.688e-02		-49.138
8		0.00		7.60		1.721e-02		-47.328
8		0.00		7.20		1.715e-02		-47.923
8		0.00		6.80		1.636e-02		-48.244
8		0.00		6.40		1.632e-02		-49.272
8		0.00		6.00		1.652e-02		-47.001
8		0.00		5.60		1.669e-02		-48.472
8		0.00		5.20		1.690e-02		-50.582
8		0.00		4.80		1.661e-02		-47.848
8		0.00		4.40		1.660e-02		-51.127
8		0.00		4.00		1.557e-02		-49.555
8		0.00		3.60		1.564e-02		-49.128
8		0.00		3.20		1.597e-02		-46.928
8		0.00		2.80		1.598e-02		-47.318
8		0.00		2.40		1.614e-02		-47.098
8		0.00		2.00		1.592e-02		-47.772
8		0.00		1.60		1.559e-02		-48.149
8		0.00		1.20		1.592e-02		-47.798
8		0.00		0.80		1.572e-02		-46.716
8		0.00		0.40		1.594e-02		-50.326
8		0.00		0.00		1.598e-02		-44.170
8		0.00		-0.40		1.617e-02		-43.977
8		0.00		-0.80		1.540e-02		-43.551
8		0.00		-1.20		1.481e-02		-46.483
8		0.00		-1.60		1.501e-02		-49.706
8		0.00		-2.00		1.477e-02		-44.245
8		0.00		-2.40		1.432e-02		-48.238
8		0.00		-2.80		1.339e-02		-47.208
8		0.00		-3.20		1.269e-02		-47.788
8		0.00		-3.60		1.292e-02		-46.038
8		0.00		-4.00		1.230e-02		-48.651
8		0.00		-4.40		1.223e-02		-46.096
8		0.00		-4.80		1.153e-02		-45.580
8		0.00		-5.20		1.075e-02		-48.937
8		0.00		-5.60		1.070e-02		-47.824
8		0.00		-6.00		9.352e-03		-44.479
8		0.00		-6.40		8.405e-03		-49.662
8		0.00		-6.80		7.600e-03		-47.521
8		0.00		-7.20		6.911e-03		-45.398
8		0.00		-7.60		5.001e-03		-54.587
8		0.00		-8.00		4.628e-03		-43.872
8		0.00		-8.40		3.358e-03		-25.270
8		0.00		-8.80		2.647e-03		-26.276
8		0.00		-9.20		2.006e-03		7.554
8		0.00		-9.60		1.963e-03		36.537
8		0.00		-10.00		2.910e-03		90.033
8		0.00		-9.60		3.095e-03		92.335
8		0.00		-9.20		4.040e-03		103.594
8		0.00		-8.80		3.871e-03		96.821
8		0.00		-8.40		4.318e-03		112.734
8		0.00		-8.00		4.369e-03		110.207
8		0.00		-7.60		4.912e-03		117.192
8		0.00		-7.20		4.578e-03		104.769
8		0.00		-6.80		4.459e-03		110.578
8		0.00		-6.40		4.219e-03		108.436
8		0.00		-6.00		4.627e-03		110.208
8		0.00		-5.60		4.405e-03		108.226
8		0.00		-5.20		4.084e-03		110.716
8		0.00		-4.80		4.448e-03		114.699
8		0.00		-4.40		4.326e-03		107.638
8		0.00		-4.00		4.185e-03		104.208
8		0.00		-3.60		4.244e-03		115.464
8		0.00		-3.20		4.586e-03		103.471
8		0.00		-2.80		4.444e-03		110.924
8		0.00		-2.40		4.079e-03		114.929
8		0.00		-2.00		4.129e-03		108.111
8		0.00		-1.60		4.191e-03		107.674
8		0.00		-1.20		4.250e-03		111.320
8		0.00		-0.80		4.550e-03		115.961
8		0.00		-0.40		4.137e-03		108.662
