# Date of analysis: 2023-10-05 17;22
# 
# Loop index	Read Volt (V)	Write Volt (V)	Amplitude (a.u)	Phase (°)	
1		0.00		0.00		7.208e-03		-50.212
1		0.00		0.40		7.276e-03		-53.796
1		0.00		0.80		7.408e-03		-60.057
1		0.00		1.20		7.295e-03		-55.731
1		0.00		1.60		8.078e-03		-57.120
1		0.00		2.00		8.412e-03		-57.274
1		0.00		2.40		8.864e-03		-56.268
1		0.00		2.80		9.379e-03		-57.462
1		0.00		3.20		9.922e-03		-53.047
1		0.00		3.60		1.172e-02		-45.895
1		0.00		4.00		1.303e-02		-43.336
1		0.00		4.40		1.503e-02		-44.892
1		0.00		4.80		1.792e-02		-58.467
1		0.00		5.20		2.130e-02		-56.396
1		0.00		5.60		2.405e-02		-56.416
1		0.00		6.00		2.866e-02		-55.179
1		0.00		6.40		3.202e-02		-55.989
1		0.00		6.80		3.615e-02		-52.608
1		0.00		7.20		4.043e-02		-52.532
1		0.00		7.60		4.517e-02		-47.316
1		0.00		8.00		4.657e-02		-43.547
1		0.00		8.40		4.678e-02		-43.999
1		0.00		8.80		4.874e-02		-46.253
1		0.00		9.20		5.051e-02		-48.072
1		0.00		9.60		5.207e-02		-41.877
1		0.00		10.00		5.018e-02		-33.742
1		0.00		9.60		5.154e-02		-27.776
1		0.00		9.20		4.893e-02		-25.860
1		0.00		8.80		4.757e-02		-36.291
1		0.00		8.40		4.624e-02		-49.806
1		0.00		8.00		4.645e-02		-47.977
1		0.00		7.60		4.762e-02		-49.878
1		0.00		7.20		4.642e-02		-48.600
1		0.00		6.80		4.450e-02		-48.770
1		0.00		6.40		4.399e-02		-48.866
1		0.00		6.00		4.369e-02		-50.258
1		0.00		5.60		4.343e-02		-48.457
1		0.00		5.20		4.207e-02		-49.035
1		0.00		4.80		4.109e-02		-48.276
1		0.00		4.40		3.967e-02		-48.485
1		0.00		4.00		3.718e-02		-47.875
1		0.00		3.60		3.661e-02		-44.406
1		0.00		3.20		3.497e-02		-42.381
1		0.00		2.80		3.463e-02		-41.152
1		0.00		2.40		3.374e-02		-45.407
1		0.00		2.00		3.275e-02		-37.437
1		0.00		1.60		3.238e-02		-43.645
1		0.00		1.20		3.195e-02		-55.913
1		0.00		0.80		3.166e-02		-51.460
1		0.00		0.40		2.984e-02		-53.937
1		0.00		0.00		2.893e-02		-52.208
1		0.00		-0.40		2.651e-02		-51.493
1		0.00		-0.80		2.417e-02		-52.033
1		0.00		-1.20		2.129e-02		-50.408
1		0.00		-1.60		1.713e-02		-51.418
1		0.00		-2.00		1.409e-02		-53.581
1		0.00		-2.40		9.165e-03		-41.089
1		0.00		-2.80		6.826e-03		12.824
1		0.00		-3.20		7.347e-03		48.873
1		0.00		-3.60		8.020e-03		64.725
1		0.00		-4.00		1.072e-02		79.414
1		0.00		-4.40		1.310e-02		87.212
1		0.00		-4.80		1.560e-02		102.212
1		0.00		-5.20		1.913e-02		112.348
1		0.00		-5.60		2.159e-02		118.214
1		0.00		-6.00		2.414e-02		120.756
1		0.00		-6.40		2.687e-02		123.966
1		0.00		-6.80		2.775e-02		125.497
1		0.00		-7.20		2.945e-02		129.239
1		0.00		-7.60		3.073e-02		127.765
1		0.00		-8.00		3.266e-02		128.595
1		0.00		-8.40		3.489e-02		129.534
1		0.00		-8.80		3.630e-02		131.204
1		0.00		-9.20		3.552e-02		133.773
1		0.00		-9.60		3.631e-02		131.638
1		0.00		-10.00		3.610e-02		132.777
1		0.00		-9.60		3.630e-02		132.876
1		0.00		-9.20		3.531e-02		132.374
1		0.00		-8.80		3.472e-02		130.943
1		0.00		-8.40		3.430e-02		130.789
1		0.00		-8.00		3.440e-02		129.647
1		0.00		-7.60		3.212e-02		128.605
1		0.00		-7.20		3.138e-02		127.953
1		0.00		-6.80		3.032e-02		126.535
1		0.00		-6.40		2.901e-02		126.392
1		0.00		-6.00		2.840e-02		124.792
1		0.00		-5.60		2.725e-02		116.649
1		0.00		-5.20		2.594e-02		118.292
1		0.00		-4.80		2.542e-02		115.064
1		0.00		-4.40		2.435e-02		118.393
1		0.00		-4.00		2.305e-02		118.715
1		0.00		-3.60		2.225e-02		118.419
1		0.00		-3.20		2.067e-02		118.964
1		0.00		-2.80		2.012e-02		114.529
1		0.00		-2.40		1.919e-02		111.555
1		0.00		-2.00		1.792e-02		117.356
1		0.00		-1.60		1.681e-02		113.562
1		0.00		-1.20		1.573e-02		111.410
1		0.00		-0.80		1.492e-02		112.154
1		0.00		-0.40		1.407e-02		114.097
2		0.00		0.00		1.318e-02		114.485
2		0.00		0.40		1.241e-02		114.895
2		0.00		0.80		1.145e-02		118.063
2		0.00		1.20		1.033e-02		117.851
2		0.00		1.60		8.909e-03		114.671
2		0.00		2.00		6.980e-03		118.179
2		0.00		2.40		4.838e-03		111.047
2		0.00		2.80		2.498e-03		67.417
2		0.00		3.20		3.066e-03		-28.554
2		0.00		3.60		6.546e-03		-52.087
2		0.00		4.00		1.087e-02		-51.272
2		0.00		4.40		1.493e-02		-53.051
2		0.00		4.80		1.921e-02		-54.968
2		0.00		5.20		2.234e-02		-54.543
2		0.00		5.60		2.624e-02		-52.699
2		0.00		6.00		2.892e-02		-53.261
2		0.00		6.40		3.127e-02		-53.963
2		0.00		6.80		3.287e-02		-49.019
2		0.00		7.20		3.509e-02		-49.670
2		0.00		7.60		3.662e-02		-47.079
2		0.00		8.00		3.730e-02		-47.977
2		0.00		8.40		3.765e-02		-49.703
2		0.00		8.80		3.992e-02		-47.833
2		0.00		9.20		4.011e-02		-41.607
2		0.00		9.60		4.278e-02		-38.745
2		0.00		10.00		4.209e-02		-38.242
2		0.00		9.60		4.180e-02		-35.767
2		0.00		9.20		4.198e-02		-40.121
2		0.00		8.80		4.089e-02		-42.700
2		0.00		8.40		3.980e-02		-49.052
2		0.00		8.00		3.927e-02		-48.472
2		0.00		7.60		3.899e-02		-49.044
2		0.00		7.20		3.798e-02		-51.333
2		0.00		6.80		3.743e-02		-52.030
2		0.00		6.40		3.578e-02		-52.413
2		0.00		6.00		3.463e-02		-53.347
2		0.00		5.60		3.307e-02		-51.738
2		0.00		5.20		3.241e-02		-49.146
2		0.00		4.80		3.168e-02		-49.600
2		0.00		4.40		3.026e-02		-49.246
2		0.00		4.00		2.974e-02		-48.895
2		0.00		3.60		2.898e-02		-48.432
2		0.00		3.20		2.813e-02		-44.341
2		0.00		2.80		2.871e-02		-44.197
2		0.00		2.40		2.842e-02		-40.214
2		0.00		2.00		2.884e-02		-42.185
2		0.00		1.60		2.835e-02		-43.986
2		0.00		1.20		2.781e-02		-52.025
2		0.00		0.80		2.708e-02		-53.232
2		0.00		0.40		2.647e-02		-51.473
2		0.00		0.00		2.560e-02		-51.102
2		0.00		-0.40		2.371e-02		-54.187
2		0.00		-0.80		2.142e-02		-53.338
2		0.00		-1.20		1.720e-02		-53.468
2		0.00		-1.60		1.368e-02		-53.133
2		0.00		-2.00		1.002e-02		-54.752
2		0.00		-2.40		6.606e-03		-45.699
2		0.00		-2.80		5.266e-03		26.595
2		0.00		-3.20		6.333e-03		58.588
2		0.00		-3.60		7.720e-03		75.598
2		0.00		-4.00		1.104e-02		87.521
2		0.00		-4.40		1.420e-02		107.403
2		0.00		-4.80		1.690e-02		112.228
2		0.00		-5.20		1.907e-02		110.313
2		0.00		-5.60		2.206e-02		112.215
2		0.00		-6.00		2.510e-02		110.068
2		0.00		-6.40		2.635e-02		113.718
2		0.00		-6.80		2.921e-02		114.124
2		0.00		-7.20		2.994e-02		116.774
2		0.00		-7.60		3.057e-02		118.816
2		0.00		-8.00		3.139e-02		121.180
2		0.00		-8.40		3.292e-02		119.965
2		0.00		-8.80		3.309e-02		120.699
2		0.00		-9.20		3.432e-02		124.453
2		0.00		-9.60		3.502e-02		125.957
2		0.00		-10.00		3.469e-02		124.155
2		0.00		-9.60		3.412e-02		125.079
2		0.00		-9.20		3.408e-02		122.397
2		0.00		-8.80		3.470e-02		122.415
2		0.00		-8.40		3.436e-02		123.695
2		0.00		-8.00		3.396e-02		125.988
2		0.00		-7.60		3.493e-02		128.429
2		0.00		-7.20		3.439e-02		129.861
2		0.00		-6.80		3.310e-02		130.051
2		0.00		-6.40		3.242e-02		130.993
2		0.00		-6.00		3.019e-02		128.524
2		0.00		-5.60		2.901e-02		127.653
2		0.00		-5.20		2.700e-02		124.040
2		0.00		-4.80		2.571e-02		120.975
2		0.00		-4.40		2.408e-02		114.822
2		0.00		-4.00		2.229e-02		114.595
2		0.00		-3.60		2.119e-02		114.471
2		0.00		-3.20		1.996e-02		116.099
2		0.00		-2.80		1.852e-02		116.944
2		0.00		-2.40		1.821e-02		120.300
2		0.00		-2.00		1.679e-02		120.401
2		0.00		-1.60		1.558e-02		122.077
2		0.00		-1.20		1.461e-02		123.101
2		0.00		-0.80		1.368e-02		125.166
2		0.00		-0.40		1.302e-02		122.109
3		0.00		0.00		1.230e-02		124.222
3		0.00		0.40		1.166e-02		125.751
3		0.00		0.80		1.039e-02		123.020
3		0.00		1.20		9.615e-03		121.015
3		0.00		1.60		8.308e-03		120.220
3		0.00		2.00		6.889e-03		117.332
3		0.00		2.40		5.247e-03		107.654
3		0.00		2.80		3.630e-03		89.292
3		0.00		3.20		2.263e-03		8.949
3		0.00		3.60		3.654e-03		-47.162
3		0.00		4.00		7.049e-03		-50.587
3		0.00		4.40		1.129e-02		-52.303
3		0.00		4.80		1.524e-02		-54.556
3		0.00		5.20		1.943e-02		-50.079
3		0.00		5.60		2.326e-02		-51.516
3		0.00		6.00		2.629e-02		-51.866
3		0.00		6.40		2.872e-02		-51.063
3		0.00		6.80		3.140e-02		-50.503
3		0.00		7.20		3.330e-02		-51.164
3		0.00		7.60		3.543e-02		-49.044
3		0.00		8.00		3.735e-02		-49.364
3		0.00		8.40		3.870e-02		-48.150
3		0.00		8.80		3.924e-02		-47.950
3		0.00		9.20		4.164e-02		-46.558
3		0.00		9.60		4.203e-02		-46.617
3		0.00		10.00		4.051e-02		-48.826
3		0.00		9.60		4.089e-02		-47.148
3		0.00		9.20		3.984e-02		-49.828
3		0.00		8.80		3.871e-02		-48.720
3		0.00		8.40		3.772e-02		-50.330
3		0.00		8.00		3.618e-02		-51.482
3		0.00		7.60		3.580e-02		-53.516
3		0.00		7.20		3.398e-02		-52.893
3		0.00		6.80		3.402e-02		-53.779
3		0.00		6.40		3.244e-02		-52.913
3		0.00		6.00		3.180e-02		-54.222
3		0.00		5.60		3.068e-02		-53.655
3		0.00		5.20		3.029e-02		-54.181
3		0.00		4.80		3.022e-02		-53.200
3		0.00		4.40		2.957e-02		-53.959
3		0.00		4.00		2.907e-02		-53.381
3		0.00		3.60		2.929e-02		-52.665
3		0.00		3.20		2.885e-02		-51.002
3		0.00		2.80		2.867e-02		-51.538
3		0.00		2.40		2.744e-02		-49.883
3		0.00		2.00		2.798e-02		-50.508
3		0.00		1.60		2.667e-02		-51.062
3		0.00		1.20		2.628e-02		-50.822
3		0.00		0.80		2.472e-02		-50.597
3		0.00		0.40		2.485e-02		-54.259
3		0.00		0.00		2.397e-02		-54.496
3		0.00		-0.40		2.222e-02		-49.787
3		0.00		-0.80		1.929e-02		-53.682
3		0.00		-1.20		1.663e-02		-56.574
3		0.00		-1.60		1.337e-02		-50.610
3		0.00		-2.00		9.136e-03		-49.534
3		0.00		-2.40		5.595e-03		-25.926
3		0.00		-2.80		4.736e-03		9.368
3		0.00		-3.20		5.731e-03		75.019
3		0.00		-3.60		8.167e-03		88.949
3		0.00		-4.00		1.083e-02		98.209
3		0.00		-4.40		1.330e-02		103.478
3		0.00		-4.80		1.575e-02		110.364
3		0.00		-5.20		1.893e-02		112.038
3		0.00		-5.60		2.117e-02		112.803
3		0.00		-6.00		2.409e-02		114.112
3		0.00		-6.40		2.607e-02		116.916
3		0.00		-6.80		2.769e-02		117.056
3		0.00		-7.20		2.987e-02		113.483
3		0.00		-7.60		3.120e-02		116.216
3		0.00		-8.00		3.152e-02		114.774
3		0.00		-8.40		3.320e-02		116.905
3		0.00		-8.80		3.223e-02		115.856
3		0.00		-9.20		3.344e-02		116.365
3		0.00		-9.60		3.444e-02		114.828
3		0.00		-10.00		3.410e-02		116.639
3		0.00		-9.60		3.493e-02		115.922
3		0.00		-9.20		3.497e-02		118.901
3		0.00		-8.80		3.602e-02		120.282
3		0.00		-8.40		3.483e-02		115.889
3		0.00		-8.00		3.545e-02		119.700
3		0.00		-7.60		3.384e-02		113.395
3		0.00		-7.20		3.356e-02		117.787
3		0.00		-6.80		3.235e-02		115.907
3		0.00		-6.40		3.026e-02		114.724
3		0.00		-6.00		2.974e-02		116.093
3		0.00		-5.60		2.800e-02		114.797
3		0.00		-5.20		2.633e-02		113.433
3		0.00		-4.80		2.490e-02		113.702
3		0.00		-4.40		2.412e-02		111.553
3		0.00		-4.00		2.280e-02		114.273
3		0.00		-3.60		2.137e-02		114.930
3		0.00		-3.20		2.013e-02		113.303
3		0.00		-2.80		1.924e-02		112.653
3		0.00		-2.40		1.834e-02		111.327
3		0.00		-2.00		1.748e-02		115.940
3		0.00		-1.60		1.676e-02		114.560
3		0.00		-1.20		1.623e-02		112.917
3		0.00		-0.80		1.526e-02		116.238
3		0.00		-0.40		1.373e-02		113.559
4		0.00		0.00		1.327e-02		112.817
4		0.00		0.40		1.214e-02		112.035
4		0.00		0.80		1.175e-02		113.013
4		0.00		1.20		9.985e-03		116.608
4		0.00		1.60		8.794e-03		111.238
4		0.00		2.00		7.824e-03		112.343
4		0.00		2.40		6.201e-03		104.239
4		0.00		2.80		4.601e-03		84.571
4		0.00		3.20		2.805e-03		64.917
4		0.00		3.60		2.984e-03		-36.670
4		0.00		4.00		5.703e-03		-50.277
4		0.00		4.40		1.013e-02		-45.278
4		0.00		4.80		1.474e-02		-49.838
4		0.00		5.20		1.892e-02		-48.962
4		0.00		5.60		2.257e-02		-49.273
4		0.00		6.00		2.579e-02		-49.858
4		0.00		6.40		2.836e-02		-48.646
4		0.00		6.80		3.062e-02		-48.891
4		0.00		7.20		3.350e-02		-47.855
4		0.00		7.60		3.536e-02		-47.706
4		0.00		8.00		3.630e-02		-46.419
4		0.00		8.40		3.856e-02		-45.978
4		0.00		8.80		4.044e-02		-46.598
4		0.00		9.20		3.943e-02		-45.716
4		0.00		9.60		3.938e-02		-45.314
4		0.00		10.00		3.991e-02		-46.093
4		0.00		9.60		3.799e-02		-45.953
4		0.00		9.20		3.681e-02		-47.136
4		0.00		8.80		3.737e-02		-45.424
4		0.00		8.40		3.704e-02		-47.346
4		0.00		8.00		3.625e-02		-46.268
4		0.00		7.60		3.494e-02		-48.175
4		0.00		7.20		3.538e-02		-47.565
4		0.00		6.80		3.347e-02		-47.257
4		0.00		6.40		3.439e-02		-48.524
4		0.00		6.00		3.333e-02		-48.405
4		0.00		5.60		3.325e-02		-47.612
4		0.00		5.20		3.179e-02		-47.354
4		0.00		4.80		3.196e-02		-48.568
4		0.00		4.40		3.148e-02		-47.973
4		0.00		4.00		3.174e-02		-50.274
4		0.00		3.60		3.091e-02		-48.373
4		0.00		3.20		3.000e-02		-47.518
4		0.00		2.80		2.951e-02		-50.300
4		0.00		2.40		2.870e-02		-47.073
4		0.00		2.00		2.839e-02		-49.008
4		0.00		1.60		2.810e-02		-49.403
4		0.00		1.20		2.734e-02		-49.448
4		0.00		0.80		2.683e-02		-50.369
4		0.00		0.40		2.710e-02		-49.293
4		0.00		0.00		2.554e-02		-49.755
4		0.00		-0.40		2.526e-02		-50.027
4		0.00		-0.80		2.316e-02		-48.853
4		0.00		-1.20		2.148e-02		-48.555
4		0.00		-1.60		1.748e-02		-49.790
4		0.00		-2.00		1.365e-02		-51.349
4		0.00		-2.40		8.618e-03		-49.628
4		0.00		-2.80		5.088e-03		-25.323
4		0.00		-3.20		4.866e-03		36.514
4		0.00		-3.60		6.617e-03		70.234
4		0.00		-4.00		8.890e-03		96.066
4		0.00		-4.40		1.228e-02		107.706
4		0.00		-4.80		1.545e-02		114.909
4		0.00		-5.20		1.860e-02		123.710
4		0.00		-5.60		2.215e-02		126.192
4		0.00		-6.00		2.428e-02		128.716
4		0.00		-6.40		2.581e-02		129.574
4		0.00		-6.80		2.883e-02		127.100
4		0.00		-7.20		3.082e-02		125.892
4		0.00		-7.60		3.150e-02		124.545
4		0.00		-8.00		3.350e-02		125.120
4		0.00		-8.40		3.414e-02		124.417
4		0.00		-8.80		3.380e-02		123.245
4		0.00		-9.20		3.665e-02		125.495
4		0.00		-9.60		3.671e-02		125.211
4		0.00		-10.00		3.716e-02		126.868
4		0.00		-9.60		3.699e-02		127.293
4		0.00		-9.20		3.700e-02		127.876
4		0.00		-8.80		3.669e-02		127.834
4		0.00		-8.40		3.609e-02		127.293
4		0.00		-8.00		3.625e-02		126.762
4		0.00		-7.60		3.504e-02		125.906
4		0.00		-7.20		3.322e-02		127.871
4		0.00		-6.80		3.176e-02		126.316
4		0.00		-6.40		3.086e-02		125.061
4		0.00		-6.00		2.956e-02		125.741
4		0.00		-5.60		2.871e-02		124.352
4		0.00		-5.20		2.746e-02		125.142
4		0.00		-4.80		2.641e-02		126.468
4		0.00		-4.40		2.529e-02		125.534
4		0.00		-4.00		2.387e-02		123.800
4		0.00		-3.60		2.283e-02		124.138
4		0.00		-3.20		2.224e-02		125.771
4		0.00		-2.80		2.074e-02		125.394
4		0.00		-2.40		1.972e-02		125.025
4		0.00		-2.00		1.843e-02		124.803
4		0.00		-1.60		1.739e-02		126.000
4		0.00		-1.20		1.641e-02		123.773
4		0.00		-0.80		1.571e-02		123.667
4		0.00		-0.40		1.463e-02		124.742
5		0.00		0.00		1.368e-02		124.199
5		0.00		0.40		1.298e-02		124.634
5		0.00		0.80		1.156e-02		123.785
5		0.00		1.20		1.067e-02		120.212
5		0.00		1.60		9.907e-03		121.220
5		0.00		2.00		8.776e-03		121.327
5		0.00		2.40		7.321e-03		117.515
5		0.00		2.80		5.437e-03		107.702
5		0.00		3.20		3.659e-03		95.246
5		0.00		3.60		2.157e-03		-4.706
5		0.00		4.00		5.065e-03		-53.287
5		0.00		4.40		8.635e-03		-50.832
5		0.00		4.80		1.396e-02		-54.824
5		0.00		5.20		1.819e-02		-54.222
5		0.00		5.60		2.274e-02		-54.459
5		0.00		6.00		2.573e-02		-53.612
5		0.00		6.40		2.935e-02		-53.904
5		0.00		6.80		3.194e-02		-53.721
5		0.00		7.20		3.378e-02		-53.843
5		0.00		7.60		3.576e-02		-52.213
5		0.00		8.00		3.620e-02		-53.671
5		0.00		8.40		3.710e-02		-52.744
5		0.00		8.80		3.930e-02		-53.028
5		0.00		9.20		3.806e-02		-51.309
5		0.00		9.60		3.822e-02		-52.407
5		0.00		10.00		3.801e-02		-51.420
5		0.00		9.60		3.848e-02		-51.238
5		0.00		9.20		3.829e-02		-52.240
5		0.00		8.80		3.772e-02		-53.280
5		0.00		8.40		3.766e-02		-53.221
5		0.00		8.00		3.669e-02		-52.748
5		0.00		7.60		3.639e-02		-51.965
5		0.00		7.20		3.538e-02		-51.505
5		0.00		6.80		3.453e-02		-50.918
5		0.00		6.40		3.411e-02		-51.893
5		0.00		6.00		3.277e-02		-49.395
5		0.00		5.60		3.317e-02		-49.430
5		0.00		5.20		3.276e-02		-47.804
5		0.00		4.80		3.210e-02		-49.308
5		0.00		4.40		3.125e-02		-49.633
5		0.00		4.00		3.005e-02		-49.443
5		0.00		3.60		2.900e-02		-49.216
5		0.00		3.20		2.855e-02		-48.793
5		0.00		2.80		2.808e-02		-49.167
5		0.00		2.40		2.794e-02		-49.471
5		0.00		2.00		2.719e-02		-50.373
5		0.00		1.60		2.683e-02		-49.644
5		0.00		1.20		2.659e-02		-49.707
5		0.00		0.80		2.676e-02		-48.373
5		0.00		0.40		2.546e-02		-50.489
5		0.00		0.00		2.529e-02		-50.958
5		0.00		-0.40		2.431e-02		-50.359
5		0.00		-0.80		2.243e-02		-47.291
5		0.00		-1.20		2.001e-02		-46.660
5		0.00		-1.60		1.669e-02		-49.723
5		0.00		-2.00		1.261e-02		-47.042
5		0.00		-2.40		8.215e-03		-50.760
5		0.00		-2.80		4.699e-03		-40.049
5		0.00		-3.20		4.354e-03		53.375
5		0.00		-3.60		5.648e-03		81.672
5		0.00		-4.00		7.871e-03		91.985
5		0.00		-4.40		1.122e-02		101.671
5		0.00		-4.80		1.406e-02		106.185
5		0.00		-5.20		1.752e-02		107.711
5		0.00		-5.60		1.966e-02		109.035
5		0.00		-6.00		2.300e-02		110.938
5		0.00		-6.40		2.589e-02		110.112
5		0.00		-6.80		2.789e-02		113.994
5		0.00		-7.20		3.024e-02		116.154
5		0.00		-7.60		3.236e-02		116.762
5		0.00		-8.00		3.387e-02		118.512
5		0.00		-8.40		3.451e-02		115.966
5		0.00		-8.80		3.724e-02		119.390
5		0.00		-9.20		3.704e-02		118.754
5		0.00		-9.60		3.717e-02		120.887
5		0.00		-10.00		3.813e-02		122.299
5		0.00		-9.60		3.827e-02		122.845
5		0.00		-9.20		3.779e-02		122.125
5		0.00		-8.80		3.689e-02		121.745
5		0.00		-8.40		3.687e-02		125.247
5		0.00		-8.00		3.685e-02		126.758
5		0.00		-7.60		3.625e-02		127.104
5		0.00		-7.20		3.500e-02		125.929
5		0.00		-6.80		3.348e-02		126.050
5		0.00		-6.40		3.246e-02		125.137
5		0.00		-6.00		3.076e-02		123.724
5		0.00		-5.60		3.042e-02		124.756
5		0.00		-5.20		2.935e-02		126.643
5		0.00		-4.80		2.793e-02		127.507
5		0.00		-4.40		2.720e-02		128.325
5		0.00		-4.00		2.588e-02		128.632
5		0.00		-3.60		2.441e-02		125.842
5		0.00		-3.20		2.292e-02		128.571
5		0.00		-2.80		2.149e-02		123.719
5		0.00		-2.40		2.006e-02		122.085
5		0.00		-2.00		1.819e-02		117.567
5		0.00		-1.60		1.771e-02		116.974
5		0.00		-1.20		1.668e-02		118.542
5		0.00		-0.80		1.583e-02		119.095
5		0.00		-0.40		1.467e-02		121.732
6		0.00		0.00		1.388e-02		127.836
6		0.00		0.40		1.276e-02		126.455
6		0.00		0.80		1.192e-02		124.743
6		0.00		1.20		1.057e-02		123.117
6		0.00		1.60		9.627e-03		124.227
6		0.00		2.00		8.518e-03		123.362
6		0.00		2.40		6.979e-03		119.364
6		0.00		2.80		5.315e-03		105.237
6		0.00		3.20		3.281e-03		78.626
6		0.00		3.60		2.338e-03		-0.647
6		0.00		4.00		3.566e-03		-48.619
6		0.00		4.40		6.962e-03		-54.840
6		0.00		4.80		1.125e-02		-48.944
6		0.00		5.20		1.564e-02		-55.133
6		0.00		5.60		2.027e-02		-52.789
6		0.00		6.00		2.366e-02		-54.488
6		0.00		6.40		2.687e-02		-55.743
6		0.00		6.80		3.002e-02		-54.906
6		0.00		7.20		3.254e-02		-52.546
6		0.00		7.60		3.462e-02		-50.413
6		0.00		8.00		3.644e-02		-49.842
6		0.00		8.40		3.814e-02		-49.973
6		0.00		8.80		3.961e-02		-48.998
6		0.00		9.20		4.012e-02		-40.505
6		0.00		9.60		4.053e-02		-38.387
6		0.00		10.00		4.202e-02		-46.327
6		0.00		9.60		4.210e-02		-50.290
6		0.00		9.20		4.092e-02		-50.975
6		0.00		8.80		4.025e-02		-50.713
6		0.00		8.40		3.953e-02		-51.687
6		0.00		8.00		4.000e-02		-50.654
6		0.00		7.60		3.794e-02		-49.313
6		0.00		7.20		3.695e-02		-49.450
6		0.00		6.80		3.612e-02		-49.292
6		0.00		6.40		3.522e-02		-47.925
6		0.00		6.00		3.406e-02		-49.166
6		0.00		5.60		3.400e-02		-52.291
6		0.00		5.20		3.248e-02		-54.633
6		0.00		4.80		3.189e-02		-53.605
6		0.00		4.40		3.115e-02		-53.048
6		0.00		4.00		3.193e-02		-55.813
6		0.00		3.60		3.061e-02		-53.473
6		0.00		3.20		3.028e-02		-52.964
6		0.00		2.80		2.960e-02		-49.842
6		0.00		2.40		2.986e-02		-50.737
6		0.00		2.00		2.962e-02		-49.513
6		0.00		1.60		2.890e-02		-51.524
6		0.00		1.20		2.803e-02		-50.342
6		0.00		0.80		2.883e-02		-48.309
6		0.00		0.40		2.778e-02		-53.354
6		0.00		0.00		2.718e-02		-52.495
6		0.00		-0.40		2.535e-02		-52.479
6		0.00		-0.80		2.424e-02		-54.439
6		0.00		-1.20		2.179e-02		-54.711
6		0.00		-1.60		1.863e-02		-51.282
6		0.00		-2.00		1.501e-02		-54.363
6		0.00		-2.40		1.031e-02		-51.697
6		0.00		-2.80		5.752e-03		-49.217
6		0.00		-3.20		4.111e-03		16.782
6		0.00		-3.60		5.341e-03		74.840
6		0.00		-4.00		8.229e-03		95.044
6		0.00		-4.40		1.092e-02		105.943
6		0.00		-4.80		1.474e-02		121.617
6		0.00		-5.20		1.919e-02		125.810
6		0.00		-5.60		2.198e-02		126.506
6		0.00		-6.00		2.483e-02		128.111
6		0.00		-6.40		2.858e-02		127.631
6		0.00		-6.80		3.089e-02		129.176
6		0.00		-7.20		3.165e-02		130.181
6		0.00		-7.60		3.273e-02		127.851
6		0.00		-8.00		3.380e-02		121.336
6		0.00		-8.40		3.456e-02		112.413
6		0.00		-8.80		3.515e-02		114.409
6		0.00		-9.20		3.662e-02		117.589
6		0.00		-9.60		3.722e-02		122.425
6		0.00		-10.00		3.730e-02		128.735
6		0.00		-9.60		3.744e-02		126.336
6		0.00		-9.20		3.724e-02		127.316
6		0.00		-8.80		3.715e-02		125.049
6		0.00		-8.40		3.714e-02		126.258
6		0.00		-8.00		3.732e-02		126.191
6		0.00		-7.60		3.713e-02		128.911
6		0.00		-7.20		3.598e-02		130.152
6		0.00		-6.80		3.468e-02		130.232
6		0.00		-6.40		3.329e-02		127.282
6		0.00		-6.00		3.162e-02		125.191
6		0.00		-5.60		2.995e-02		120.703
6		0.00		-5.20		2.829e-02		115.629
6		0.00		-4.80		2.591e-02		118.700
6		0.00		-4.40		2.478e-02		116.712
6		0.00		-4.00		2.308e-02		121.040
6		0.00		-3.60		2.237e-02		122.427
6		0.00		-3.20		2.157e-02		125.661
6		0.00		-2.80		2.052e-02		126.261
6		0.00		-2.40		1.981e-02		126.904
6		0.00		-2.00		1.815e-02		126.477
6		0.00		-1.60		1.747e-02		125.435
6		0.00		-1.20		1.658e-02		125.110
6		0.00		-0.80		1.609e-02		126.016
6		0.00		-0.40		1.493e-02		128.716
7		0.00		0.00		1.395e-02		128.358
7		0.00		0.40		1.299e-02		127.135
7		0.00		0.80		1.215e-02		131.620
7		0.00		1.20		1.109e-02		130.331
7		0.00		1.60		9.424e-03		120.717
7		0.00		2.00		8.531e-03		121.255
7		0.00		2.40		7.328e-03		111.608
7		0.00		2.80		5.236e-03		106.929
7		0.00		3.20		4.105e-03		102.157
7		0.00		3.60		2.476e-03		55.037
7		0.00		4.00		2.542e-03		-23.022
7		0.00		4.40		4.671e-03		-50.326
7		0.00		4.80		8.459e-03		-51.191
7		0.00		5.20		1.251e-02		-47.204
7		0.00		5.60		1.659e-02		-48.077
7		0.00		6.00		2.091e-02		-54.097
7		0.00		6.40		2.471e-02		-48.269
7		0.00		6.80		2.899e-02		-44.570
7		0.00		7.20		3.111e-02		-44.437
7		0.00		7.60		3.419e-02		-43.752
7		0.00		8.00		3.641e-02		-41.543
7		0.00		8.40		3.849e-02		-44.987
7		0.00		8.80		4.014e-02		-43.177
7		0.00		9.20		4.033e-02		-42.445
7		0.00		9.60		4.214e-02		-45.149
7		0.00		10.00		4.146e-02		-41.037
7		0.00		9.60		4.172e-02		-52.216
7		0.00		9.20		4.005e-02		-52.164
7		0.00		8.80		3.884e-02		-52.588
7		0.00		8.40		3.910e-02		-51.541
7		0.00		8.00		3.897e-02		-52.389
7		0.00		7.60		3.794e-02		-51.778
7		0.00		7.20		3.668e-02		-53.126
7		0.00		6.80		3.661e-02		-53.988
7		0.00		6.40		3.658e-02		-53.144
7		0.00		6.00		3.589e-02		-54.064
7		0.00		5.60		3.491e-02		-53.672
7		0.00		5.20		3.430e-02		-53.167
7		0.00		4.80		3.421e-02		-51.718
7		0.00		4.40		3.390e-02		-52.751
7		0.00		4.00		3.332e-02		-53.932
7		0.00		3.60		3.323e-02		-54.099
7		0.00		3.20		3.313e-02		-52.533
7		0.00		2.80		3.302e-02		-51.987
7		0.00		2.40		3.227e-02		-50.756
7		0.00		2.00		3.130e-02		-50.868
7		0.00		1.60		3.053e-02		-51.001
7		0.00		1.20		3.025e-02		-50.507
7		0.00		0.80		2.921e-02		-49.427
7		0.00		0.40		2.932e-02		-49.842
7		0.00		0.00		2.849e-02		-49.966
7		0.00		-0.40		2.785e-02		-51.393
7		0.00		-0.80		2.646e-02		-50.248
7		0.00		-1.20		2.310e-02		-49.572
7		0.00		-1.60		2.021e-02		-54.135
7		0.00		-2.00		1.636e-02		-51.340
7		0.00		-2.40		1.278e-02		-53.322
7		0.00		-2.80		8.932e-03		-50.142
7		0.00		-3.20		5.813e-03		-41.400
7		0.00		-3.60		4.264e-03		33.504
7		0.00		-4.00		5.674e-03		85.821
7		0.00		-4.40		8.940e-03		100.600
7		0.00		-4.80		1.283e-02		109.701
7		0.00		-5.20		1.539e-02		118.454
7		0.00		-5.60		1.861e-02		122.943
7		0.00		-6.00		2.142e-02		125.081
7		0.00		-6.40		2.463e-02		124.890
7		0.00		-6.80		2.753e-02		124.210
7		0.00		-7.20		2.939e-02		124.483
7		0.00		-7.60		3.217e-02		124.875
7		0.00		-8.00		3.449e-02		125.513
7		0.00		-8.40		3.578e-02		125.766
7		0.00		-8.80		3.750e-02		127.255
7		0.00		-9.20		3.955e-02		129.571
7		0.00		-9.60		3.997e-02		129.406
7		0.00		-10.00		4.130e-02		129.692
7		0.00		-9.60		4.197e-02		128.673
7		0.00		-9.20		4.112e-02		128.211
7		0.00		-8.80		4.037e-02		127.184
7		0.00		-8.40		3.878e-02		124.841
7		0.00		-8.00		3.776e-02		121.474
7		0.00		-7.60		3.604e-02		118.395
7		0.00		-7.20		3.467e-02		115.503
7		0.00		-6.80		3.380e-02		117.407
7		0.00		-6.40		3.298e-02		117.774
7		0.00		-6.00		3.067e-02		120.324
7		0.00		-5.60		3.041e-02		123.864
7		0.00		-5.20		2.901e-02		124.935
7		0.00		-4.80		2.788e-02		127.148
7		0.00		-4.40		2.656e-02		126.155
7		0.00		-4.00		2.487e-02		125.965
7		0.00		-3.60		2.424e-02		125.677
7		0.00		-3.20		2.371e-02		125.968
7		0.00		-2.80		2.227e-02		125.608
7		0.00		-2.40		2.156e-02		127.621
7		0.00		-2.00		2.038e-02		128.171
7		0.00		-1.60		1.901e-02		127.253
7		0.00		-1.20		1.763e-02		128.592
7		0.00		-0.80		1.680e-02		128.328
7		0.00		-0.40		1.548e-02		124.829
8		0.00		0.00		1.483e-02		125.030
8		0.00		0.40		1.376e-02		121.772
8		0.00		0.80		1.289e-02		118.907
8		0.00		1.20		1.195e-02		111.818
8		0.00		1.60		1.096e-02		113.481
8		0.00		2.00		9.848e-03		114.867
8		0.00		2.40		9.113e-03		115.710
8		0.00		2.80		6.997e-03		115.499
8		0.00		3.20		5.549e-03		111.333
8		0.00		3.60		3.987e-03		103.815
8		0.00		4.00		2.472e-03		54.595
8		0.00		4.40		2.967e-03		-35.501
8		0.00		4.80		5.706e-03		-57.298
8		0.00		5.20		9.888e-03		-56.551
8		0.00		5.60		1.514e-02		-55.451
8		0.00		6.00		2.130e-02		-54.428
8		0.00		6.40		2.578e-02		-55.717
8		0.00		6.80		2.903e-02		-54.518
8		0.00		7.20		3.302e-02		-54.347
8		0.00		7.60		3.512e-02		-54.494
8		0.00		8.00		3.821e-02		-52.911
8		0.00		8.40		3.865e-02		-52.257
8		0.00		8.80		4.088e-02		-51.291
8		0.00		9.20		4.241e-02		-50.199
8		0.00		9.60		4.281e-02		-49.020
8		0.00		10.00		4.301e-02		-48.834
8		0.00		9.60		4.234e-02		-49.996
8		0.00		9.20		4.288e-02		-49.758
8		0.00		8.80		4.333e-02		-50.700
8		0.00		8.40		4.310e-02		-52.801
8		0.00		8.00		4.175e-02		-47.971
8		0.00		7.60		4.059e-02		-49.327
8		0.00		7.20		4.101e-02		-47.898
8		0.00		6.80		3.939e-02		-47.662
8		0.00		6.40		3.848e-02		-49.202
8		0.00		6.00		3.739e-02		-51.422
8		0.00		5.60		3.743e-02		-51.422
8		0.00		5.20		3.649e-02		-54.519
8		0.00		4.80		3.605e-02		-53.833
8		0.00		4.40		3.456e-02		-52.568
8		0.00		4.00		3.416e-02		-52.983
8		0.00		3.60		3.429e-02		-53.019
8		0.00		3.20		3.389e-02		-55.566
8		0.00		2.80		3.347e-02		-55.093
8		0.00		2.40		3.236e-02		-53.955
8		0.00		2.00		3.174e-02		-54.923
8		0.00		1.60		3.223e-02		-54.192
8		0.00		1.20		3.182e-02		-54.017
8		0.00		0.80		3.176e-02		-53.026
8		0.00		0.40		3.220e-02		-51.738
8		0.00		0.00		3.125e-02		-52.556
8		0.00		-0.40		3.009e-02		-51.730
8		0.00		-0.80		2.789e-02		-51.435
8		0.00		-1.20		2.567e-02		-52.755
8		0.00		-1.60		2.173e-02		-51.387
8		0.00		-2.00		1.742e-02		-50.277
8		0.00		-2.40		1.247e-02		-49.145
8		0.00		-2.80		7.980e-03		-48.122
8		0.00		-3.20		4.509e-03		-17.729
8		0.00		-3.60		4.076e-03		32.058
8		0.00		-4.00		5.361e-03		81.881
8		0.00		-4.40		8.718e-03		100.246
8		0.00		-4.80		1.209e-02		108.625
8		0.00		-5.20		1.400e-02		119.059
8		0.00		-5.60		1.768e-02		120.389
8		0.00		-6.00		2.116e-02		123.870
8		0.00		-6.40		2.449e-02		126.993
8		0.00		-6.80		2.738e-02		125.145
8		0.00		-7.20		3.044e-02		125.342
8		0.00		-7.60		3.440e-02		126.896
8		0.00		-8.00		3.701e-02		125.852
8		0.00		-8.40		3.871e-02		126.285
8		0.00		-8.80		3.947e-02		127.134
8		0.00		-9.20		4.027e-02		125.725
8		0.00		-9.60		4.130e-02		127.503
8		0.00		-10.00		4.226e-02		128.089
8		0.00		-9.60		4.073e-02		127.048
8		0.00		-9.20		4.034e-02		128.659
8		0.00		-8.80		3.883e-02		128.481
8		0.00		-8.40		3.909e-02		128.463
8		0.00		-8.00		3.906e-02		129.303
8		0.00		-7.60		3.759e-02		128.236
8		0.00		-7.20		3.613e-02		127.497
8		0.00		-6.80		3.413e-02		127.563
8		0.00		-6.40		3.320e-02		127.796
8		0.00		-6.00		3.244e-02		125.693
8		0.00		-5.60		3.142e-02		125.392
8		0.00		-5.20		3.014e-02		126.441
8		0.00		-4.80		2.904e-02		125.120
8		0.00		-4.40		2.783e-02		124.683
8		0.00		-4.00		2.662e-02		124.650
8		0.00		-3.60		2.525e-02		126.522
8		0.00		-3.20		2.387e-02		121.943
8		0.00		-2.80		2.276e-02		126.109
8		0.00		-2.40		2.105e-02		122.060
8		0.00		-2.00		1.951e-02		122.874
8		0.00		-1.60		1.805e-02		119.524
8		0.00		-1.20		1.766e-02		120.739
8		0.00		-0.80		1.629e-02		119.507
8		0.00		-0.40		1.531e-02		120.004
