# Date of analysis: 2023-10-05 17;22
# 
# Loop index	Read Volt (V)	Write Volt (V)	Amplitude (a.u)	Phase (°)	
1		0.00		0.00		3.303e-02		-51.893
1		0.00		0.40		3.329e-02		-52.689
1		0.00		0.80		3.322e-02		-51.659
1		0.00		1.20		3.257e-02		-51.315
1		0.00		1.60		3.232e-02		-51.273
1		0.00		2.00		3.242e-02		-51.910
1		0.00		2.40		3.209e-02		-52.533
1		0.00		2.80		3.275e-02		-52.741
1		0.00		3.20		3.224e-02		-52.864
1		0.00		3.60		3.269e-02		-51.938
1		0.00		4.00		3.333e-02		-51.427
1		0.00		4.40		3.377e-02		-52.877
1		0.00		4.80		3.400e-02		-52.222
1		0.00		5.20		3.496e-02		-53.006
1		0.00		5.60		3.619e-02		-52.440
1		0.00		6.00		3.684e-02		-52.952
1		0.00		6.40		3.696e-02		-52.538
1		0.00		6.80		3.823e-02		-52.960
1		0.00		7.20		3.953e-02		-52.101
1		0.00		7.60		4.126e-02		-52.348
1		0.00		8.00		4.280e-02		-51.865
1		0.00		8.40		4.461e-02		-52.676
1		0.00		8.80		4.671e-02		-52.378
1		0.00		9.20		4.970e-02		-52.748
1		0.00		9.60		5.043e-02		-51.894
1		0.00		10.00		5.334e-02		-50.613
1		0.00		9.60		5.230e-02		-51.115
1		0.00		9.20		5.444e-02		-50.276
1		0.00		8.80		5.401e-02		-50.099
1		0.00		8.40		5.474e-02		-52.140
1		0.00		8.00		5.463e-02		-50.153
1		0.00		7.60		5.484e-02		-52.338
1		0.00		7.20		5.289e-02		-50.820
1		0.00		6.80		5.444e-02		-51.578
1		0.00		6.40		5.277e-02		-50.783
1		0.00		6.00		5.250e-02		-50.871
1		0.00		5.60		5.243e-02		-51.144
1		0.00		5.20		5.134e-02		-51.073
1		0.00		4.80		5.156e-02		-50.956
1		0.00		4.40		5.158e-02		-50.746
1		0.00		4.00		5.085e-02		-50.722
1		0.00		3.60		5.136e-02		-52.346
1		0.00		3.20		5.063e-02		-51.053
1		0.00		2.80		4.977e-02		-50.630
1		0.00		2.40		4.955e-02		-50.769
1		0.00		2.00		4.891e-02		-51.145
1		0.00		1.60		4.893e-02		-52.184
1		0.00		1.20		4.835e-02		-51.483
1		0.00		0.80		4.782e-02		-52.086
1		0.00		0.40		4.738e-02		-52.252
1		0.00		0.00		4.675e-02		-50.913
1		0.00		-0.40		4.730e-02		-52.635
1		0.00		-0.80		4.698e-02		-51.117
1		0.00		-1.20		4.538e-02		-49.833
1		0.00		-1.60		4.590e-02		-51.284
1		0.00		-2.00		4.438e-02		-51.764
1		0.00		-2.40		4.187e-02		-51.442
1		0.00		-2.80		3.982e-02		-50.898
1		0.00		-3.20		3.681e-02		-51.088
1		0.00		-3.60		3.235e-02		-49.783
1		0.00		-4.00		2.840e-02		-51.053
1		0.00		-4.40		2.302e-02		-50.257
1		0.00		-4.80		2.027e-02		-48.034
1		0.00		-5.20		1.551e-02		-46.648
1		0.00		-5.60		1.179e-02		-46.283
1		0.00		-6.00		7.521e-03		-44.969
1		0.00		-6.40		4.133e-03		-46.231
1		0.00		-6.80		2.065e-03		13.198
1		0.00		-7.20		3.926e-03		96.639
1		0.00		-7.60		6.060e-03		113.864
1		0.00		-8.00		8.425e-03		116.114
1		0.00		-8.40		1.101e-02		120.475
1		0.00		-8.80		1.295e-02		123.404
1		0.00		-9.20		1.478e-02		120.780
1		0.00		-9.60		1.691e-02		122.606
1		0.00		-10.00		1.775e-02		123.505
1		0.00		-9.60		1.850e-02		123.830
1		0.00		-9.20		1.828e-02		125.281
1		0.00		-8.80		1.806e-02		126.063
1		0.00		-8.40		1.856e-02		122.899
1		0.00		-8.00		1.831e-02		125.097
1		0.00		-7.60		1.766e-02		124.206
1		0.00		-7.20		1.653e-02		122.243
1		0.00		-6.80		1.606e-02		123.172
1		0.00		-6.40		1.546e-02		122.976
1		0.00		-6.00		1.513e-02		123.336
1		0.00		-5.60		1.370e-02		123.667
1		0.00		-5.20		1.281e-02		125.136
1		0.00		-4.80		1.247e-02		122.572
1		0.00		-4.40		1.257e-02		121.585
1		0.00		-4.00		1.158e-02		125.851
1		0.00		-3.60		1.124e-02		126.264
1		0.00		-3.20		1.054e-02		123.596
1		0.00		-2.80		9.980e-03		119.592
1		0.00		-2.40		9.502e-03		124.043
1		0.00		-2.00		8.827e-03		121.626
1		0.00		-1.60		8.295e-03		125.041
1		0.00		-1.20		8.283e-03		117.475
1		0.00		-0.80		7.932e-03		119.741
1		0.00		-0.40		7.545e-03		124.090
2		0.00		0.00		7.293e-03		122.417
2		0.00		0.40		6.557e-03		119.521
2		0.00		0.80		6.532e-03		117.538
2		0.00		1.20		5.713e-03		119.534
2		0.00		1.60		4.574e-03		112.521
2		0.00		2.00		4.127e-03		107.808
2		0.00		2.40		3.179e-03		97.097
2		0.00		2.80		2.462e-03		85.698
2		0.00		3.20		1.870e-03		47.868
2		0.00		3.60		1.774e-03		-12.893
2		0.00		4.00		2.121e-03		-52.617
2		0.00		4.40		2.936e-03		-45.550
2		0.00		4.80		4.665e-03		-51.610
2		0.00		5.20		5.579e-03		-52.782
2		0.00		5.60		7.113e-03		-53.925
2		0.00		6.00		9.432e-03		-50.162
2		0.00		6.40		1.235e-02		-49.472
2		0.00		6.80		1.491e-02		-52.848
2		0.00		7.20		1.857e-02		-51.527
2		0.00		7.60		2.167e-02		-51.068
2		0.00		8.00		2.624e-02		-52.288
2		0.00		8.40		3.000e-02		-52.138
2		0.00		8.80		3.474e-02		-52.479
2		0.00		9.20		3.979e-02		-51.753
2		0.00		9.60		4.403e-02		-52.068
2		0.00		10.00		4.854e-02		-53.353
2		0.00		9.60		5.027e-02		-51.319
2		0.00		9.20		5.046e-02		-50.905
2		0.00		8.80		5.101e-02		-51.229
2		0.00		8.40		4.920e-02		-50.799
2		0.00		8.00		5.002e-02		-51.895
2		0.00		7.60		4.920e-02		-50.723
2		0.00		7.20		5.011e-02		-50.952
2		0.00		6.80		4.838e-02		-50.301
2		0.00		6.40		4.837e-02		-51.012
2		0.00		6.00		4.750e-02		-50.842
2		0.00		5.60		4.729e-02		-50.590
2		0.00		5.20		4.666e-02		-51.912
2		0.00		4.80		4.682e-02		-52.672
2		0.00		4.40		4.641e-02		-53.024
2		0.00		4.00		4.546e-02		-51.709
2		0.00		3.60		4.485e-02		-53.089
2		0.00		3.20		4.440e-02		-54.323
2		0.00		2.80		4.324e-02		-53.873
2		0.00		2.40		4.345e-02		-53.252
2		0.00		2.00		4.369e-02		-52.695
2		0.00		1.60		4.416e-02		-54.117
2		0.00		1.20		4.335e-02		-53.144
2		0.00		0.80		4.328e-02		-52.894
2		0.00		0.40		4.317e-02		-52.209
2		0.00		0.00		4.416e-02		-54.297
2		0.00		-0.40		4.404e-02		-52.703
2		0.00		-0.80		4.370e-02		-52.776
2		0.00		-1.20		4.317e-02		-52.000
2		0.00		-1.60		4.344e-02		-51.637
2		0.00		-2.00		4.265e-02		-52.483
2		0.00		-2.40		4.142e-02		-51.815
2		0.00		-2.80		3.944e-02		-51.691
2		0.00		-3.20		3.759e-02		-51.018
2		0.00		-3.60		3.390e-02		-52.370
2		0.00		-4.00		3.044e-02		-51.417
2		0.00		-4.40		2.709e-02		-48.414
2		0.00		-4.80		2.238e-02		-50.010
2		0.00		-5.20		1.841e-02		-48.492
2		0.00		-5.60		1.457e-02		-48.000
2		0.00		-6.00		1.076e-02		-48.714
2		0.00		-6.40		6.576e-03		-47.398
2		0.00		-6.80		3.682e-03		-42.648
2		0.00		-7.20		2.063e-03		6.191
2		0.00		-7.60		3.128e-03		94.809
2		0.00		-8.00		5.799e-03		109.371
2		0.00		-8.40		7.801e-03		116.848
2		0.00		-8.80		1.014e-02		117.882
2		0.00		-9.20		1.141e-02		123.677
2		0.00		-9.60		1.369e-02		122.988
2		0.00		-10.00		1.451e-02		120.017
2		0.00		-9.60		1.484e-02		122.330
2		0.00		-9.20		1.488e-02		123.009
2		0.00		-8.80		1.453e-02		122.485
2		0.00		-8.40		1.447e-02		121.353
2		0.00		-8.00		1.442e-02		122.400
2		0.00		-7.60		1.373e-02		119.769
2		0.00		-7.20		1.329e-02		118.031
2		0.00		-6.80		1.281e-02		119.951
2		0.00		-6.40		1.225e-02		123.010
2		0.00		-6.00		1.156e-02		119.466
2		0.00		-5.60		1.111e-02		122.395
2		0.00		-5.20		1.043e-02		123.859
2		0.00		-4.80		1.020e-02		120.298
2		0.00		-4.40		9.559e-03		118.994
2		0.00		-4.00		8.704e-03		122.509
2		0.00		-3.60		8.685e-03		122.759
2		0.00		-3.20		7.758e-03		116.916
2		0.00		-2.80		7.794e-03		123.325
2		0.00		-2.40		7.297e-03		120.175
2		0.00		-2.00		6.811e-03		121.644
2		0.00		-1.60		6.520e-03		122.751
2		0.00		-1.20		6.056e-03		121.279
2		0.00		-0.80		5.674e-03		116.589
2		0.00		-0.40		5.670e-03		116.672
3		0.00		0.00		4.828e-03		119.945
3		0.00		0.40		4.565e-03		119.156
3		0.00		0.80		3.683e-03		108.861
3		0.00		1.20		3.720e-03		112.799
3		0.00		1.60		3.077e-03		99.905
3		0.00		2.00		2.733e-03		96.340
3		0.00		2.40		2.160e-03		47.146
3		0.00		2.80		1.704e-03		-7.110
3		0.00		3.20		2.136e-03		-51.234
3		0.00		3.60		2.739e-03		-43.894
3		0.00		4.00		3.554e-03		-53.297
3		0.00		4.40		4.626e-03		-61.877
3		0.00		4.80		5.911e-03		-47.313
3		0.00		5.20		7.342e-03		-53.033
3		0.00		5.60		9.109e-03		-49.140
3		0.00		6.00		1.060e-02		-50.118
3		0.00		6.40		1.357e-02		-52.778
3		0.00		6.80		1.509e-02		-49.585
3		0.00		7.20		1.788e-02		-53.218
3		0.00		7.60		2.102e-02		-50.383
3		0.00		8.00		2.399e-02		-52.235
3		0.00		8.40		2.745e-02		-52.754
3		0.00		8.80		3.119e-02		-53.186
3		0.00		9.20		3.474e-02		-54.180
3		0.00		9.60		3.894e-02		-52.768
3		0.00		10.00		4.304e-02		-52.957
3		0.00		9.60		4.384e-02		-53.620
3		0.00		9.20		4.468e-02		-53.798
3		0.00		8.80		4.543e-02		-53.433
3		0.00		8.40		4.549e-02		-53.618
3		0.00		8.00		4.579e-02		-53.703
3		0.00		7.60		4.555e-02		-54.163
3		0.00		7.20		4.470e-02		-53.800
3		0.00		6.80		4.440e-02		-54.015
3		0.00		6.40		4.430e-02		-53.718
3		0.00		6.00		4.376e-02		-53.713
3		0.00		5.60		4.341e-02		-52.164
3		0.00		5.20		4.266e-02		-53.074
3		0.00		4.80		4.221e-02		-51.965
3		0.00		4.40		4.221e-02		-53.155
3		0.00		4.00		4.181e-02		-53.927
3		0.00		3.60		4.127e-02		-53.533
3		0.00		3.20		4.037e-02		-51.494
3		0.00		2.80		4.017e-02		-53.495
3		0.00		2.40		3.992e-02		-53.119
3		0.00		2.00		4.013e-02		-52.102
3		0.00		1.60		4.034e-02		-52.988
3		0.00		1.20		4.040e-02		-53.441
3		0.00		0.80		4.076e-02		-52.561
3		0.00		0.40		4.001e-02		-52.040
3		0.00		0.00		3.984e-02		-52.321
3		0.00		-0.40		3.929e-02		-52.111
3		0.00		-0.80		3.926e-02		-52.108
3		0.00		-1.20		3.891e-02		-52.715
3		0.00		-1.60		3.801e-02		-52.067
3		0.00		-2.00		3.738e-02		-51.856
3		0.00		-2.40		3.557e-02		-51.527
3		0.00		-2.80		3.417e-02		-51.802
3		0.00		-3.20		3.291e-02		-52.280
3		0.00		-3.60		3.044e-02		-50.996
3		0.00		-4.00		2.697e-02		-51.038
3		0.00		-4.40		2.484e-02		-52.380
3		0.00		-4.80		2.117e-02		-49.036
3		0.00		-5.20		1.664e-02		-48.176
3		0.00		-5.60		1.334e-02		-51.596
3		0.00		-6.00		8.908e-03		-49.228
3		0.00		-6.40		5.782e-03		-41.556
3		0.00		-6.80		2.084e-03		-46.963
3		0.00		-7.20		2.219e-03		60.191
3		0.00		-7.60		4.445e-03		104.542
3		0.00		-8.00		6.912e-03		119.156
3		0.00		-8.40		9.150e-03		121.274
3		0.00		-8.80		1.073e-02		118.672
3		0.00		-9.20		1.263e-02		119.340
3		0.00		-9.60		1.407e-02		123.573
3		0.00		-10.00		1.557e-02		122.450
3		0.00		-9.60		1.555e-02		123.411
3		0.00		-9.20		1.569e-02		122.504
3		0.00		-8.80		1.473e-02		121.917
3		0.00		-8.40		1.478e-02		122.175
3		0.00		-8.00		1.511e-02		122.837
3		0.00		-7.60		1.490e-02		122.390
3		0.00		-7.20		1.418e-02		122.255
3		0.00		-6.80		1.376e-02		123.353
3		0.00		-6.40		1.300e-02		124.077
3		0.00		-6.00		1.262e-02		124.450
3		0.00		-5.60		1.191e-02		122.657
3		0.00		-5.20		1.148e-02		124.807
3		0.00		-4.80		1.026e-02		122.491
3		0.00		-4.40		1.013e-02		124.990
3		0.00		-4.00		8.840e-03		122.651
3		0.00		-3.60		9.131e-03		125.214
3		0.00		-3.20		8.422e-03		122.976
3		0.00		-2.80		7.550e-03		120.708
3		0.00		-2.40		6.741e-03		121.519
3		0.00		-2.00		6.235e-03		117.118
3		0.00		-1.60		6.090e-03		127.287
3		0.00		-1.20		5.712e-03		112.967
3		0.00		-0.80		5.063e-03		116.323
3		0.00		-0.40		4.900e-03		112.140
4		0.00		0.00		4.529e-03		107.517
4		0.00		0.40		4.255e-03		108.828
4		0.00		0.80		3.923e-03		105.881
4		0.00		1.20		3.278e-03		99.726
4		0.00		1.60		2.791e-03		92.753
4		0.00		2.00		2.518e-03		87.186
4		0.00		2.40		2.152e-03		46.601
4		0.00		2.80		1.824e-03		13.645
4		0.00		3.20		1.735e-03		-32.340
4		0.00		3.60		2.655e-03		-53.402
4		0.00		4.00		3.523e-03		-53.533
4		0.00		4.40		4.517e-03		-40.999
4		0.00		4.80		5.623e-03		-49.738
4		0.00		5.20		6.847e-03		-46.955
4		0.00		5.60		8.166e-03		-56.094
4		0.00		6.00		9.447e-03		-48.948
4		0.00		6.40		1.111e-02		-49.922
4		0.00		6.80		1.319e-02		-53.633
4		0.00		7.20		1.549e-02		-53.271
4		0.00		7.60		1.829e-02		-51.636
4		0.00		8.00		2.225e-02		-51.868
4		0.00		8.40		2.518e-02		-52.339
4		0.00		8.80		2.948e-02		-51.134
4		0.00		9.20		3.259e-02		-52.008
4		0.00		9.60		3.520e-02		-53.187
4		0.00		10.00		3.961e-02		-52.605
4		0.00		9.60		4.223e-02		-54.315
4		0.00		9.20		4.298e-02		-53.141
4		0.00		8.80		4.311e-02		-53.393
4		0.00		8.40		4.407e-02		-51.983
4		0.00		8.00		4.412e-02		-52.832
4		0.00		7.60		4.409e-02		-52.378
4		0.00		7.20		4.345e-02		-51.299
4		0.00		6.80		4.308e-02		-51.863
4		0.00		6.40		4.215e-02		-52.067
4		0.00		6.00		4.184e-02		-51.989
4		0.00		5.60		4.132e-02		-50.819
4		0.00		5.20		4.067e-02		-52.026
4		0.00		4.80		3.983e-02		-52.842
4		0.00		4.40		3.926e-02		-52.860
4		0.00		4.00		3.882e-02		-51.522
4		0.00		3.60		3.856e-02		-52.723
4		0.00		3.20		3.749e-02		-50.765
4		0.00		2.80		3.763e-02		-52.279
4		0.00		2.40		3.792e-02		-52.969
4		0.00		2.00		3.779e-02		-52.260
4		0.00		1.60		3.801e-02		-52.784
4		0.00		1.20		3.867e-02		-52.539
4		0.00		0.80		3.856e-02		-53.313
4		0.00		0.40		3.875e-02		-53.548
4		0.00		0.00		3.881e-02		-52.498
4		0.00		-0.40		3.895e-02		-52.063
4		0.00		-0.80		3.853e-02		-52.438
4		0.00		-1.20		3.823e-02		-52.761
4		0.00		-1.60		3.741e-02		-51.635
4		0.00		-2.00		3.640e-02		-50.973
4		0.00		-2.40		3.461e-02		-53.531
4		0.00		-2.80		3.367e-02		-52.152
4		0.00		-3.20		3.202e-02		-52.576
4		0.00		-3.60		2.911e-02		-53.599
4		0.00		-4.00		2.578e-02		-53.633
4		0.00		-4.40		2.224e-02		-52.570
4		0.00		-4.80		2.035e-02		-51.096
4		0.00		-5.20		1.583e-02		-51.888
4		0.00		-5.60		1.179e-02		-51.516
4		0.00		-6.00		7.358e-03		-50.556
4		0.00		-6.40		4.619e-03		-36.871
4		0.00		-6.80		2.945e-03		-20.321
4		0.00		-7.20		2.492e-03		76.259
4		0.00		-7.60		4.482e-03		109.151
4		0.00		-8.00		7.332e-03		123.429
4		0.00		-8.40		9.586e-03		120.775
4		0.00		-8.80		1.045e-02		121.530
4		0.00		-9.20		1.213e-02		121.625
4		0.00		-9.60		1.384e-02		123.903
4		0.00		-10.00		1.498e-02		121.960
4		0.00		-9.60		1.525e-02		123.073
4		0.00		-9.20		1.541e-02		121.991
4		0.00		-8.80		1.493e-02		121.819
4		0.00		-8.40		1.443e-02		123.864
4		0.00		-8.00		1.389e-02		125.791
4		0.00		-7.60		1.377e-02		124.027
4		0.00		-7.20		1.286e-02		123.468
4		0.00		-6.80		1.237e-02		121.560
4		0.00		-6.40		1.126e-02		121.055
4		0.00		-6.00		1.087e-02		122.975
4		0.00		-5.60		1.051e-02		124.210
4		0.00		-5.20		1.021e-02		124.985
4		0.00		-4.80		1.001e-02		122.799
4		0.00		-4.40		9.139e-03		121.250
4		0.00		-4.00		8.521e-03		121.196
4		0.00		-3.60		8.010e-03		118.945
4		0.00		-3.20		7.210e-03		124.813
4		0.00		-2.80		6.766e-03		119.417
4		0.00		-2.40		6.480e-03		115.017
4		0.00		-2.00		5.850e-03		118.439
4		0.00		-1.60		5.396e-03		118.674
4		0.00		-1.20		4.994e-03		114.879
4		0.00		-0.80		4.928e-03		116.077
4		0.00		-0.40		4.074e-03		117.446
5		0.00		0.00		4.080e-03		116.459
5		0.00		0.40		3.496e-03		110.191
5		0.00		0.80		3.438e-03		94.116
5		0.00		1.20		3.250e-03		103.396
5		0.00		1.60		2.444e-03		81.545
5		0.00		2.00		1.831e-03		47.010
5		0.00		2.40		1.772e-03		12.761
5		0.00		2.80		2.034e-03		-17.255
5		0.00		3.20		2.083e-03		-33.316
5		0.00		3.60		2.378e-03		-46.666
5		0.00		4.00		3.909e-03		-55.347
5		0.00		4.40		4.746e-03		-48.251
5		0.00		4.80		6.204e-03		-60.994
5		0.00		5.20		7.844e-03		-57.941
5		0.00		5.60		8.707e-03		-48.194
5		0.00		6.00		9.703e-03		-51.512
5		0.00		6.40		1.176e-02		-48.940
5		0.00		6.80		1.373e-02		-52.898
5		0.00		7.20		1.781e-02		-51.085
5		0.00		7.60		2.001e-02		-53.055
5		0.00		8.00		2.318e-02		-51.289
5		0.00		8.40		2.714e-02		-52.788
5		0.00		8.80		3.047e-02		-53.036
5		0.00		9.20		3.476e-02		-53.763
5		0.00		9.60		3.782e-02		-53.038
5		0.00		10.00		3.977e-02		-52.323
5		0.00		9.60		4.177e-02		-51.573
5		0.00		9.20		4.192e-02		-52.765
5		0.00		8.80		4.213e-02		-50.936
5		0.00		8.40		4.117e-02		-52.173
5		0.00		8.00		4.156e-02		-53.098
5		0.00		7.60		4.103e-02		-52.394
5		0.00		7.20		4.129e-02		-53.175
5		0.00		6.80		4.179e-02		-54.193
5		0.00		6.40		4.106e-02		-52.928
5		0.00		6.00		4.041e-02		-52.383
5		0.00		5.60		4.002e-02		-53.059
5		0.00		5.20		3.919e-02		-51.256
5		0.00		4.80		3.833e-02		-51.854
5		0.00		4.40		3.728e-02		-50.587
5		0.00		4.00		3.707e-02		-52.586
5		0.00		3.60		3.674e-02		-53.158
5		0.00		3.20		3.733e-02		-52.642
5		0.00		2.80		3.685e-02		-54.094
5		0.00		2.40		3.690e-02		-53.253
5		0.00		2.00		3.719e-02		-52.865
5		0.00		1.60		3.780e-02		-52.017
5		0.00		1.20		3.801e-02		-51.817
5		0.00		0.80		3.739e-02		-51.999
5		0.00		0.40		3.741e-02		-50.499
5		0.00		0.00		3.731e-02		-52.207
5		0.00		-0.40		3.691e-02		-51.850
5		0.00		-0.80		3.635e-02		-51.978
5		0.00		-1.20		3.620e-02		-53.329
5		0.00		-1.60		3.592e-02		-52.747
5		0.00		-2.00		3.537e-02		-53.113
5		0.00		-2.40		3.456e-02		-52.721
5		0.00		-2.80		3.382e-02		-54.235
5		0.00		-3.20		3.217e-02		-51.906
5		0.00		-3.60		2.962e-02		-51.640
5		0.00		-4.00		2.691e-02		-52.569
5		0.00		-4.40		2.426e-02		-51.088
5		0.00		-4.80		2.038e-02		-53.744
5		0.00		-5.20		1.679e-02		-50.058
5		0.00		-5.60		1.165e-02		-48.591
5		0.00		-6.00		7.683e-03		-47.131
5		0.00		-6.40		4.302e-03		-49.194
5		0.00		-6.80		2.275e-03		-32.256
5		0.00		-7.20		2.190e-03		35.747
5		0.00		-7.60		3.796e-03		95.280
5		0.00		-8.00		5.807e-03		112.748
5		0.00		-8.40		8.387e-03		119.790
5		0.00		-8.80		9.994e-03		123.408
5		0.00		-9.20		1.121e-02		122.859
5		0.00		-9.60		1.308e-02		123.633
5		0.00		-10.00		1.425e-02		125.439
5		0.00		-9.60		1.500e-02		122.776
5		0.00		-9.20		1.517e-02		125.058
5		0.00		-8.80		1.439e-02		124.569
5		0.00		-8.40		1.397e-02		122.660
5		0.00		-8.00		1.403e-02		121.678
5		0.00		-7.60		1.318e-02		121.309
5		0.00		-7.20		1.257e-02		120.508
5		0.00		-6.80		1.227e-02		123.920
5		0.00		-6.40		1.125e-02		123.039
5		0.00		-6.00		1.098e-02		123.320
5		0.00		-5.60		1.048e-02		122.704
5		0.00		-5.20		9.780e-03		123.325
5		0.00		-4.80		9.595e-03		122.690
5		0.00		-4.40		8.287e-03		123.169
5		0.00		-4.00		7.730e-03		122.143
5		0.00		-3.60		6.796e-03		115.655
5		0.00		-3.20		6.705e-03		119.246
5		0.00		-2.80		6.107e-03		120.794
5		0.00		-2.40		5.756e-03		115.993
5		0.00		-2.00		5.134e-03		113.548
5		0.00		-1.60		4.659e-03		114.756
5		0.00		-1.20		4.279e-03		117.523
5		0.00		-0.80		4.172e-03		115.356
5		0.00		-0.40		3.885e-03		107.401
6		0.00		0.00		3.800e-03		106.247
6		0.00		0.40		3.142e-03		95.815
6		0.00		0.80		2.877e-03		103.578
6		0.00		1.20		2.466e-03		83.454
6		0.00		1.60		1.723e-03		28.959
6		0.00		2.00		1.649e-03		37.663
6		0.00		2.40		1.828e-03		4.866
6		0.00		2.80		2.022e-03		-29.673
6		0.00		3.20		2.771e-03		-43.909
6		0.00		3.60		3.454e-03		-54.407
6		0.00		4.00		4.584e-03		-50.891
6		0.00		4.40		5.758e-03		-48.030
6		0.00		4.80		6.675e-03		-58.904
6		0.00		5.20		8.217e-03		-50.899
6		0.00		5.60		9.505e-03		-51.212
6		0.00		6.00		1.070e-02		-48.821
6		0.00		6.40		1.245e-02		-52.775
6		0.00		6.80		1.344e-02		-50.718
6		0.00		7.20		1.693e-02		-50.998
6		0.00		7.60		1.915e-02		-53.246
6		0.00		8.00		2.213e-02		-53.052
6		0.00		8.40		2.411e-02		-53.831
6		0.00		8.80		2.761e-02		-53.171
6		0.00		9.20		3.141e-02		-52.082
6		0.00		9.60		3.506e-02		-51.288
6		0.00		10.00		3.817e-02		-52.859
6		0.00		9.60		3.908e-02		-52.397
6		0.00		9.20		3.993e-02		-51.385
6		0.00		8.80		3.946e-02		-51.932
6		0.00		8.40		3.936e-02		-51.468
6		0.00		8.00		3.963e-02		-51.380
6		0.00		7.60		3.942e-02		-50.975
6		0.00		7.20		3.872e-02		-52.083
6		0.00		6.80		3.851e-02		-51.566
6		0.00		6.40		3.851e-02		-52.975
6		0.00		6.00		3.857e-02		-53.801
6		0.00		5.60		3.817e-02		-51.753
6		0.00		5.20		3.853e-02		-52.770
6		0.00		4.80		3.763e-02		-51.468
6		0.00		4.40		3.748e-02		-51.723
6		0.00		4.00		3.691e-02		-51.848
6		0.00		3.60		3.674e-02		-52.017
6		0.00		3.20		3.649e-02		-50.613
6		0.00		2.80		3.616e-02		-51.529
6		0.00		2.40		3.519e-02		-49.873
6		0.00		2.00		3.498e-02		-52.281
6		0.00		1.60		3.448e-02		-52.677
6		0.00		1.20		3.498e-02		-51.718
6		0.00		0.80		3.544e-02		-52.071
6		0.00		0.40		3.539e-02		-52.657
6		0.00		0.00		3.591e-02		-52.424
6		0.00		-0.40		3.644e-02		-51.360
6		0.00		-0.80		3.606e-02		-52.742
6		0.00		-1.20		3.589e-02		-52.107
6		0.00		-1.60		3.575e-02		-51.663
6		0.00		-2.00		3.506e-02		-51.905
6		0.00		-2.40		3.401e-02		-51.324
6		0.00		-2.80		3.290e-02		-53.479
6		0.00		-3.20		3.152e-02		-51.235
6		0.00		-3.60		2.945e-02		-51.708
6		0.00		-4.00		2.703e-02		-51.950
6		0.00		-4.40		2.347e-02		-52.128
6		0.00		-4.80		2.076e-02		-52.878
6		0.00		-5.20		1.696e-02		-50.694
6		0.00		-5.60		1.377e-02		-47.427
6		0.00		-6.00		1.010e-02		-48.584
6		0.00		-6.40		6.502e-03		-45.398
6		0.00		-6.80		3.474e-03		-42.642
6		0.00		-7.20		1.949e-03		19.502
6		0.00		-7.60		3.661e-03		98.445
6		0.00		-8.00		5.453e-03		119.416
6		0.00		-8.40		7.756e-03		121.781
6		0.00		-8.80		9.781e-03		124.872
6		0.00		-9.20		1.113e-02		121.361
6		0.00		-9.60		1.281e-02		122.079
6		0.00		-10.00		1.416e-02		124.804
6		0.00		-9.60		1.487e-02		122.944
6		0.00		-9.20		1.456e-02		123.189
6		0.00		-8.80		1.484e-02		125.126
6		0.00		-8.40		1.486e-02		122.974
6		0.00		-8.00		1.388e-02		125.080
6		0.00		-7.60		1.388e-02		125.509
6		0.00		-7.20		1.320e-02		122.891
6		0.00		-6.80		1.210e-02		124.053
6		0.00		-6.40		1.217e-02		124.130
6		0.00		-6.00		1.066e-02		121.346
6		0.00		-5.60		9.780e-03		121.048
6		0.00		-5.20		9.114e-03		122.090
6		0.00		-4.80		8.806e-03		119.398
6		0.00		-4.40		7.996e-03		118.327
6		0.00		-4.00		7.804e-03		120.949
6		0.00		-3.60		6.995e-03		121.134
6		0.00		-3.20		6.656e-03		123.348
6		0.00		-2.80		5.978e-03		115.691
6		0.00		-2.40		5.702e-03		120.120
6		0.00		-2.00		5.499e-03		118.567
6		0.00		-1.60		4.891e-03		117.572
6		0.00		-1.20		4.695e-03		115.844
6		0.00		-0.80		4.288e-03		116.582
6		0.00		-0.40		3.966e-03		111.834
7		0.00		0.00		3.299e-03		104.759
7		0.00		0.40		3.217e-03		94.288
7		0.00		0.80		2.956e-03		87.949
7		0.00		1.20		2.213e-03		92.378
7		0.00		1.60		2.164e-03		75.040
7		0.00		2.00		1.887e-03		21.129
7		0.00		2.40		1.875e-03		1.002
7		0.00		2.80		1.935e-03		-39.285
7		0.00		3.20		2.549e-03		-44.092
7		0.00		3.60		3.427e-03		-56.457
7		0.00		4.00		4.221e-03		-58.240
7		0.00		4.40		5.460e-03		-52.616
7		0.00		4.80		6.685e-03		-43.513
7		0.00		5.20		7.382e-03		-46.728
7		0.00		5.60		8.840e-03		-48.941
7		0.00		6.00		9.638e-03		-55.351
7		0.00		6.40		1.132e-02		-51.902
7		0.00		6.80		1.266e-02		-52.963
7		0.00		7.20		1.418e-02		-51.592
7		0.00		7.60		1.602e-02		-50.479
7		0.00		8.00		1.836e-02		-53.078
7		0.00		8.40		2.228e-02		-52.287
7		0.00		8.80		2.615e-02		-51.592
7		0.00		9.20		3.107e-02		-53.140
7		0.00		9.60		3.484e-02		-51.823
7		0.00		10.00		3.724e-02		-53.708
7		0.00		9.60		3.884e-02		-52.536
7		0.00		9.20		4.012e-02		-52.094
7		0.00		8.80		4.006e-02		-51.531
7		0.00		8.40		4.081e-02		-50.991
7		0.00		8.00		4.021e-02		-51.663
7		0.00		7.60		3.920e-02		-51.073
7		0.00		7.20		3.816e-02		-50.493
7		0.00		6.80		3.857e-02		-50.247
7		0.00		6.40		3.788e-02		-51.283
7		0.00		6.00		3.763e-02		-51.857
7		0.00		5.60		3.729e-02		-50.519
7		0.00		5.20		3.616e-02		-50.150
7		0.00		4.80		3.600e-02		-51.502
7		0.00		4.40		3.499e-02		-51.844
7		0.00		4.00		3.492e-02		-51.395
7		0.00		3.60		3.417e-02		-51.183
7		0.00		3.20		3.420e-02		-52.126
7		0.00		2.80		3.454e-02		-52.313
7		0.00		2.40		3.396e-02		-52.560
7		0.00		2.00		3.352e-02		-51.384
7		0.00		1.60		3.387e-02		-51.924
7		0.00		1.20		3.489e-02		-51.400
7		0.00		0.80		3.426e-02		-51.529
7		0.00		0.40		3.422e-02		-51.913
7		0.00		0.00		3.431e-02		-51.656
7		0.00		-0.40		3.435e-02		-53.086
7		0.00		-0.80		3.398e-02		-50.563
7		0.00		-1.20		3.347e-02		-52.598
7		0.00		-1.60		3.356e-02		-51.045
7		0.00		-2.00		3.280e-02		-52.345
7		0.00		-2.40		3.149e-02		-53.657
7		0.00		-2.80		3.007e-02		-51.478
7		0.00		-3.20		2.777e-02		-51.447
7		0.00		-3.60		2.677e-02		-51.777
7		0.00		-4.00		2.464e-02		-51.752
7		0.00		-4.40		2.171e-02		-50.786
7		0.00		-4.80		1.892e-02		-53.975
7		0.00		-5.20		1.556e-02		-49.752
7		0.00		-5.60		1.311e-02		-51.025
7		0.00		-6.00		9.051e-03		-49.064
7		0.00		-6.40		5.817e-03		-51.397
7		0.00		-6.80		2.638e-03		-37.426
7		0.00		-7.20		2.104e-03		40.203
7		0.00		-7.60		3.894e-03		96.538
7		0.00		-8.00		5.853e-03		120.750
7		0.00		-8.40		9.636e-03		121.372
7		0.00		-8.80		1.133e-02		125.998
7		0.00		-9.20		1.198e-02		121.567
7		0.00		-9.60		1.349e-02		124.946
7		0.00		-10.00		1.492e-02		121.465
7		0.00		-9.60		1.481e-02		125.735
7		0.00		-9.20		1.538e-02		123.041
7		0.00		-8.80		1.531e-02		120.174
7		0.00		-8.40		1.465e-02		122.649
7		0.00		-8.00		1.437e-02		124.605
7		0.00		-7.60		1.352e-02		121.738
7		0.00		-7.20		1.292e-02		121.453
7		0.00		-6.80		1.216e-02		120.929
7		0.00		-6.40		1.141e-02		121.877
7		0.00		-6.00		1.107e-02		125.433
7		0.00		-5.60		1.095e-02		123.681
7		0.00		-5.20		1.003e-02		123.000
7		0.00		-4.80		9.220e-03		121.154
7		0.00		-4.40		8.861e-03		124.170
7		0.00		-4.00		7.879e-03		124.770
7		0.00		-3.60		7.713e-03		128.171
7		0.00		-3.20		7.039e-03		124.640
7		0.00		-2.80		6.673e-03		124.371
7		0.00		-2.40		6.577e-03		121.296
7		0.00		-2.00		5.748e-03		120.394
7		0.00		-1.60		5.230e-03		116.552
7		0.00		-1.20		4.790e-03		116.791
7		0.00		-0.80		4.546e-03		117.014
7		0.00		-0.40		4.358e-03		107.847
8		0.00		0.00		3.882e-03		105.900
8		0.00		0.40		3.533e-03		112.998
8		0.00		0.80		3.187e-03		101.806
8		0.00		1.20		2.634e-03		83.334
8		0.00		1.60		2.412e-03		66.350
8		0.00		2.00		2.041e-03		68.719
8		0.00		2.40		1.834e-03		28.905
8		0.00		2.80		1.806e-03		-26.436
8		0.00		3.20		2.206e-03		-38.725
8		0.00		3.60		2.962e-03		-31.158
8		0.00		4.00		3.927e-03		-38.883
8		0.00		4.40		4.514e-03		-53.581
8		0.00		4.80		5.702e-03		-49.132
8		0.00		5.20		6.665e-03		-45.663
8		0.00		5.60		7.903e-03		-53.108
8		0.00		6.00		9.103e-03		-54.753
8		0.00		6.40		1.041e-02		-48.774
8		0.00		6.80		1.202e-02		-50.737
8		0.00		7.20		1.348e-02		-52.103
8		0.00		7.60		1.534e-02		-49.683
8		0.00		8.00		1.801e-02		-49.552
8		0.00		8.40		2.106e-02		-50.390
8		0.00		8.80		2.492e-02		-50.694
8		0.00		9.20		2.829e-02		-49.818
8		0.00		9.60		3.248e-02		-51.543
8		0.00		10.00		3.484e-02		-50.892
8		0.00		9.60		3.727e-02		-51.466
8		0.00		9.20		3.833e-02		-53.003
8		0.00		8.80		3.858e-02		-50.865
8		0.00		8.40		3.831e-02		-51.926
8		0.00		8.00		3.817e-02		-51.020
8		0.00		7.60		3.727e-02		-52.333
8		0.00		7.20		3.731e-02		-52.893
8		0.00		6.80		3.626e-02		-52.402
8		0.00		6.40		3.552e-02		-53.618
8		0.00		6.00		3.464e-02		-53.654
8		0.00		5.60		3.468e-02		-54.130
8		0.00		5.20		3.358e-02		-51.070
8		0.00		4.80		3.364e-02		-52.265
8		0.00		4.40		3.338e-02		-51.345
8		0.00		4.00		3.326e-02		-51.303
8		0.00		3.60		3.345e-02		-51.584
8		0.00		3.20		3.432e-02		-50.894
8		0.00		2.80		3.436e-02		-51.192
8		0.00		2.40		3.448e-02		-50.483
8		0.00		2.00		3.444e-02		-50.543
8		0.00		1.60		3.469e-02		-51.828
8		0.00		1.20		3.466e-02		-51.625
8		0.00		0.80		3.469e-02		-52.138
8		0.00		0.40		3.417e-02		-51.303
8		0.00		0.00		3.431e-02		-52.664
8		0.00		-0.40		3.323e-02		-52.345
8		0.00		-0.80		3.299e-02		-52.307
8		0.00		-1.20		3.236e-02		-52.596
8		0.00		-1.60		3.187e-02		-52.934
8		0.00		-2.00		3.154e-02		-53.636
8		0.00		-2.40		3.024e-02		-50.363
8		0.00		-2.80		2.885e-02		-51.568
8		0.00		-3.20		2.739e-02		-51.360
8		0.00		-3.60		2.638e-02		-50.919
8		0.00		-4.00		2.477e-02		-50.565
8		0.00		-4.40		2.236e-02		-50.816
8		0.00		-4.80		1.933e-02		-48.274
8		0.00		-5.20		1.599e-02		-51.104
8		0.00		-5.60		1.261e-02		-47.363
8		0.00		-6.00		8.651e-03		-47.402
8		0.00		-6.40		4.681e-03		-47.480
8		0.00		-6.80		2.131e-03		-5.388
8		0.00		-7.20		2.446e-03		70.664
8		0.00		-7.60		5.123e-03		116.821
8		0.00		-8.00		7.195e-03		122.250
8		0.00		-8.40		9.419e-03		121.029
8		0.00		-8.80		1.096e-02		123.054
8		0.00		-9.20		1.317e-02		120.446
8		0.00		-9.60		1.421e-02		123.042
8		0.00		-10.00		1.565e-02		122.964
8		0.00		-9.60		1.598e-02		122.719
8		0.00		-9.20		1.566e-02		124.201
8		0.00		-8.80		1.564e-02		125.688
8		0.00		-8.40		1.559e-02		125.275
8		0.00		-8.00		1.537e-02		124.840
8		0.00		-7.60		1.519e-02		127.212
8		0.00		-7.20		1.419e-02		124.339
8		0.00		-6.80		1.348e-02		127.123
8		0.00		-6.40		1.301e-02		125.836
8		0.00		-6.00		1.227e-02		125.832
8		0.00		-5.60		1.167e-02		125.626
8		0.00		-5.20		1.136e-02		123.421
8		0.00		-4.80		1.058e-02		122.732
8		0.00		-4.40		9.550e-03		124.585
8		0.00		-4.00		8.870e-03		124.049
8		0.00		-3.60		8.589e-03		121.806
8		0.00		-3.20		8.109e-03		124.250
8		0.00		-2.80		7.775e-03		120.797
8		0.00		-2.40		7.145e-03		122.001
8		0.00		-2.00		6.777e-03		126.010
8		0.00		-1.60		6.218e-03		116.027
8		0.00		-1.20		5.828e-03		124.710
8		0.00		-0.80		5.359e-03		114.426
8		0.00		-0.40		4.823e-03		117.154
