# Date of analysis: 2023-10-05 17;22
# 
# Loop index	Read Volt (V)	Write Volt (V)	Amplitude (a.u)	Phase (°)	
1		0.00		0.00		1.690e-02		-48.620
1		0.00		0.40		1.702e-02		-48.020
1		0.00		0.80		1.691e-02		-50.317
1		0.00		1.20		1.726e-02		-49.123
1		0.00		1.60		1.720e-02		-49.786
1		0.00		2.00		1.704e-02		-49.913
1		0.00		2.40		1.725e-02		-50.794
1		0.00		2.80		1.715e-02		-50.742
1		0.00		3.20		1.725e-02		-50.283
1		0.00		3.60		1.687e-02		-51.826
1		0.00		4.00		1.689e-02		-50.305
1		0.00		4.40		1.706e-02		-51.389
1		0.00		4.80		1.765e-02		-52.953
1		0.00		5.20		1.752e-02		-50.642
1		0.00		5.60		1.878e-02		-51.308
1		0.00		6.00		1.967e-02		-51.424
1		0.00		6.40		2.063e-02		-48.248
1		0.00		6.80		2.175e-02		-50.594
1		0.00		7.20		2.136e-02		-51.638
1		0.00		7.60		2.228e-02		-49.547
1		0.00		8.00		2.265e-02		-50.078
1		0.00		8.40		2.357e-02		-51.926
1		0.00		8.80		2.413e-02		-52.944
1		0.00		9.20		2.540e-02		-53.295
1		0.00		9.60		2.696e-02		-51.123
1		0.00		10.00		2.848e-02		-51.964
1		0.00		9.60		2.952e-02		-52.470
1		0.00		9.20		3.015e-02		-52.138
1		0.00		8.80		3.034e-02		-51.419
1		0.00		8.40		3.102e-02		-52.128
1		0.00		8.00		2.984e-02		-51.202
1		0.00		7.60		3.023e-02		-51.295
1		0.00		7.20		2.997e-02		-53.343
1		0.00		6.80		2.952e-02		-52.241
1		0.00		6.40		2.950e-02		-53.841
1		0.00		6.00		2.945e-02		-51.820
1		0.00		5.60		2.996e-02		-51.444
1		0.00		5.20		2.953e-02		-49.333
1		0.00		4.80		2.982e-02		-52.768
1		0.00		4.40		3.022e-02		-52.738
1		0.00		4.00		2.951e-02		-51.938
1		0.00		3.60		2.922e-02		-50.775
1		0.00		3.20		2.923e-02		-51.893
1		0.00		2.80		2.914e-02		-50.398
1		0.00		2.40		2.837e-02		-50.588
1		0.00		2.00		2.815e-02		-49.977
1		0.00		1.60		2.762e-02		-52.964
1		0.00		1.20		2.706e-02		-52.467
1		0.00		0.80		2.688e-02		-52.060
1		0.00		0.40		2.686e-02		-50.582
1		0.00		0.00		2.678e-02		-51.884
1		0.00		-0.40		2.723e-02		-51.528
1		0.00		-0.80		2.716e-02		-51.398
1		0.00		-1.20		2.753e-02		-52.803
1		0.00		-1.60		2.748e-02		-51.533
1		0.00		-2.00		2.737e-02		-51.023
1		0.00		-2.40		2.726e-02		-51.731
1		0.00		-2.80		2.686e-02		-50.759
1		0.00		-3.20		2.604e-02		-50.522
1		0.00		-3.60		2.548e-02		-49.480
1		0.00		-4.00		2.510e-02		-51.488
1		0.00		-4.40		2.463e-02		-49.706
1		0.00		-4.80		2.311e-02		-50.273
1		0.00		-5.20		2.119e-02		-51.484
1		0.00		-5.60		1.897e-02		-48.881
1		0.00		-6.00		1.632e-02		-50.233
1		0.00		-6.40		1.366e-02		-47.092
1		0.00		-6.80		1.199e-02		-49.194
1		0.00		-7.20		9.904e-03		-46.608
1		0.00		-7.60		7.499e-03		-40.309
1		0.00		-8.00		4.837e-03		-44.712
1		0.00		-8.40		2.400e-03		-31.661
1		0.00		-8.80		2.202e-03		53.601
1		0.00		-9.20		3.678e-03		106.686
1		0.00		-9.60		6.356e-03		118.148
1		0.00		-10.00		7.303e-03		119.673
1		0.00		-9.60		8.810e-03		123.304
1		0.00		-9.20		9.435e-03		118.963
1		0.00		-8.80		9.235e-03		116.354
1		0.00		-8.40		9.599e-03		121.500
1		0.00		-8.00		9.352e-03		121.869
1		0.00		-7.60		9.168e-03		119.741
1		0.00		-7.20		9.577e-03		119.811
1		0.00		-6.80		9.380e-03		121.808
1		0.00		-6.40		9.106e-03		120.451
1		0.00		-6.00		8.507e-03		119.126
1		0.00		-5.60		8.008e-03		117.991
1		0.00		-5.20		7.716e-03		114.455
1		0.00		-4.80		6.886e-03		113.680
1		0.00		-4.40		7.290e-03		114.314
1		0.00		-4.00		6.725e-03		116.866
1		0.00		-3.60		6.507e-03		118.365
1		0.00		-3.20		6.341e-03		109.866
1		0.00		-2.80		5.989e-03		114.991
1		0.00		-2.40		5.876e-03		116.201
1		0.00		-2.00		5.618e-03		111.930
1		0.00		-1.60		5.631e-03		115.017
1		0.00		-1.20		5.512e-03		117.923
1		0.00		-0.80		5.283e-03		116.766
1		0.00		-0.40		5.111e-03		114.238
2		0.00		0.00		5.306e-03		115.434
2		0.00		0.40		4.871e-03		118.439
2		0.00		0.80		4.590e-03		110.795
2		0.00		1.20		4.135e-03		102.231
2		0.00		1.60		4.144e-03		108.777
2		0.00		2.00		3.845e-03		109.718
2		0.00		2.40		3.088e-03		106.052
2		0.00		2.80		2.640e-03		80.583
2		0.00		3.20		2.320e-03		68.970
2		0.00		3.60		1.823e-03		27.335
2		0.00		4.00		1.815e-03		-0.943
2		0.00		4.40		2.264e-03		-39.421
2		0.00		4.80		2.459e-03		-38.356
2		0.00		5.20		3.429e-03		-45.300
2		0.00		5.60		4.408e-03		-40.931
2		0.00		6.00		5.035e-03		-45.932
2		0.00		6.40		5.954e-03		-55.830
2		0.00		6.80		6.919e-03		-50.278
2		0.00		7.20		7.870e-03		-49.758
2		0.00		7.60		9.163e-03		-48.956
2		0.00		8.00		9.996e-03		-50.899
2		0.00		8.40		1.178e-02		-51.313
2		0.00		8.80		1.333e-02		-49.908
2		0.00		9.20		1.480e-02		-50.769
2		0.00		9.60		1.645e-02		-51.951
2		0.00		10.00		1.905e-02		-52.418
2		0.00		9.60		2.032e-02		-51.438
2		0.00		9.20		2.159e-02		-51.720
2		0.00		8.80		2.218e-02		-52.738
2		0.00		8.40		2.229e-02		-52.018
2		0.00		8.00		2.309e-02		-52.261
2		0.00		7.60		2.250e-02		-50.202
2		0.00		7.20		2.254e-02		-50.624
2		0.00		6.80		2.289e-02		-49.768
2		0.00		6.40		2.294e-02		-51.909
2		0.00		6.00		2.255e-02		-50.785
2		0.00		5.60		2.214e-02		-50.053
2		0.00		5.20		2.295e-02		-51.176
2		0.00		4.80		2.184e-02		-51.236
2		0.00		4.40		2.169e-02		-52.013
2		0.00		4.00		2.155e-02		-52.121
2		0.00		3.60		2.118e-02		-49.421
2		0.00		3.20		2.081e-02		-51.373
2		0.00		2.80		2.069e-02		-50.070
2		0.00		2.40		2.054e-02		-50.505
2		0.00		2.00		2.017e-02		-50.510
2		0.00		1.60		2.011e-02		-49.406
2		0.00		1.20		2.006e-02		-51.026
2		0.00		0.80		1.995e-02		-50.748
2		0.00		0.40		1.969e-02		-50.103
2		0.00		0.00		2.018e-02		-50.459
2		0.00		-0.40		1.987e-02		-49.903
2		0.00		-0.80		1.966e-02		-49.253
2		0.00		-1.20		2.005e-02		-49.268
2		0.00		-1.60		1.966e-02		-47.903
2		0.00		-2.00		2.019e-02		-50.393
2		0.00		-2.40		1.959e-02		-50.053
2		0.00		-2.80		1.956e-02		-50.335
2		0.00		-3.20		1.916e-02		-49.222
2		0.00		-3.60		1.829e-02		-47.658
2		0.00		-4.00		1.739e-02		-49.742
2		0.00		-4.40		1.727e-02		-47.934
2		0.00		-4.80		1.647e-02		-48.418
2		0.00		-5.20		1.518e-02		-47.043
2		0.00		-5.60		1.393e-02		-48.951
2		0.00		-6.00		1.193e-02		-45.128
2		0.00		-6.40		1.066e-02		-45.099
2		0.00		-6.80		9.437e-03		-46.300
2		0.00		-7.20		6.498e-03		-45.643
2		0.00		-7.60		4.384e-03		-45.125
2		0.00		-8.00		2.525e-03		-21.816
2		0.00		-8.40		2.067e-03		36.949
2		0.00		-8.80		3.078e-03		72.956
2		0.00		-9.20		5.568e-03		108.576
2		0.00		-9.60		7.137e-03		117.374
2		0.00		-10.00		8.180e-03		115.351
2		0.00		-9.60		1.003e-02		121.055
2		0.00		-9.20		1.044e-02		120.597
2		0.00		-8.80		1.050e-02		121.363
2		0.00		-8.40		1.035e-02		122.079
2		0.00		-8.00		1.016e-02		120.841
2		0.00		-7.60		9.819e-03		119.201
2		0.00		-7.20		9.646e-03		118.524
2		0.00		-6.80		9.459e-03		122.112
2		0.00		-6.40		9.253e-03		121.566
2		0.00		-6.00		8.665e-03		125.336
2		0.00		-5.60		8.347e-03		120.066
2		0.00		-5.20		8.437e-03		121.679
2		0.00		-4.80		8.123e-03		117.903
2		0.00		-4.40		7.674e-03		122.228
2		0.00		-4.00		7.573e-03		114.845
2		0.00		-3.60		7.474e-03		120.870
2		0.00		-3.20		7.183e-03		121.528
2		0.00		-2.80		7.057e-03		121.100
2		0.00		-2.40		7.271e-03		118.128
2		0.00		-2.00		6.894e-03		113.043
2		0.00		-1.60		6.415e-03		111.707
2		0.00		-1.20		6.708e-03		116.591
2		0.00		-0.80		6.152e-03		114.932
2		0.00		-0.40		6.221e-03		117.532
3		0.00		0.00		5.860e-03		118.822
3		0.00		0.40		5.763e-03		117.200
3		0.00		0.80		5.808e-03		114.091
3		0.00		1.20		5.639e-03		114.269
3		0.00		1.60		5.028e-03		110.658
3		0.00		2.00		4.320e-03		112.877
3		0.00		2.40		3.889e-03		111.297
3		0.00		2.80		3.256e-03		101.054
3		0.00		3.20		2.449e-03		84.094
3		0.00		3.60		2.144e-03		57.209
3		0.00		4.00		1.659e-03		17.945
3		0.00		4.40		1.955e-03		-26.969
3		0.00		4.80		2.351e-03		-32.723
3		0.00		5.20		2.843e-03		-42.224
3		0.00		5.60		3.833e-03		-52.254
3		0.00		6.00		4.764e-03		-46.704
3		0.00		6.40		5.408e-03		-50.774
3		0.00		6.80		5.969e-03		-47.364
3		0.00		7.20		7.337e-03		-48.475
3		0.00		7.60		8.418e-03		-48.691
3		0.00		8.00		9.530e-03		-49.467
3		0.00		8.40		1.016e-02		-47.198
3		0.00		8.80		1.136e-02		-50.751
3		0.00		9.20		1.322e-02		-49.463
3		0.00		9.60		1.498e-02		-53.009
3		0.00		10.00		1.724e-02		-50.703
3		0.00		9.60		1.825e-02		-49.478
3		0.00		9.20		1.904e-02		-53.020
3		0.00		8.80		1.971e-02		-49.380
3		0.00		8.40		2.006e-02		-51.380
3		0.00		8.00		2.036e-02		-51.973
3		0.00		7.60		2.063e-02		-50.573
3		0.00		7.20		2.081e-02		-50.638
3		0.00		6.80		2.099e-02		-49.238
3		0.00		6.40		2.145e-02		-51.019
3		0.00		6.00		2.053e-02		-53.002
3		0.00		5.60		2.133e-02		-51.326
3		0.00		5.20		2.059e-02		-50.135
3		0.00		4.80		2.044e-02		-50.163
3		0.00		4.40		2.061e-02		-47.992
3		0.00		4.00		2.044e-02		-50.654
3		0.00		3.60		2.015e-02		-48.687
3		0.00		3.20		1.946e-02		-49.630
3		0.00		2.80		1.934e-02		-49.835
3		0.00		2.40		1.867e-02		-49.994
3		0.00		2.00		1.884e-02		-49.532
3		0.00		1.60		1.862e-02		-50.045
3		0.00		1.20		1.843e-02		-48.346
3		0.00		0.80		1.871e-02		-50.402
3		0.00		0.40		1.828e-02		-51.512
3		0.00		0.00		1.835e-02		-50.251
3		0.00		-0.40		1.798e-02		-48.706
3		0.00		-0.80		1.837e-02		-52.395
3		0.00		-1.20		1.802e-02		-51.750
3		0.00		-1.60		1.784e-02		-48.034
3		0.00		-2.00		1.760e-02		-47.053
3		0.00		-2.40		1.741e-02		-48.887
3		0.00		-2.80		1.689e-02		-48.837
3		0.00		-3.20		1.632e-02		-50.334
3		0.00		-3.60		1.615e-02		-51.455
3		0.00		-4.00		1.553e-02		-48.495
3		0.00		-4.40		1.539e-02		-49.848
3		0.00		-4.80		1.472e-02		-49.592
3		0.00		-5.20		1.352e-02		-47.030
3		0.00		-5.60		1.246e-02		-46.470
3		0.00		-6.00		1.111e-02		-50.563
3		0.00		-6.40		1.009e-02		-47.518
3		0.00		-6.80		8.080e-03		-48.935
3		0.00		-7.20		6.810e-03		-45.548
3		0.00		-7.60		5.249e-03		-43.878
3		0.00		-8.00		2.656e-03		-32.944
3		0.00		-8.40		1.968e-03		40.899
3		0.00		-8.80		3.940e-03		104.560
3		0.00		-9.20		5.364e-03		114.834
3		0.00		-9.60		7.839e-03		117.506
3		0.00		-10.00		9.289e-03		120.193
3		0.00		-9.60		1.029e-02		123.673
3		0.00		-9.20		1.045e-02		119.647
3		0.00		-8.80		1.013e-02		123.618
3		0.00		-8.40		1.042e-02		124.355
3		0.00		-8.00		1.046e-02		121.850
3		0.00		-7.60		9.968e-03		121.640
3		0.00		-7.20		9.604e-03		119.725
3		0.00		-6.80		9.760e-03		122.086
3		0.00		-6.40		8.988e-03		120.057
3		0.00		-6.00		8.922e-03		120.019
3		0.00		-5.60		8.668e-03		125.674
3		0.00		-5.20		7.927e-03		118.987
3		0.00		-4.80		8.179e-03		119.729
3		0.00		-4.40		7.757e-03		119.571
3		0.00		-4.00		7.585e-03		119.516
3		0.00		-3.60		7.681e-03		118.849
3		0.00		-3.20		7.111e-03		115.044
3		0.00		-2.80		6.824e-03		118.556
3		0.00		-2.40		6.726e-03		119.779
3		0.00		-2.00		6.742e-03		117.487
3		0.00		-1.60		6.885e-03		122.529
3		0.00		-1.20		6.665e-03		120.515
3		0.00		-0.80		6.633e-03		119.623
3		0.00		-0.40		6.575e-03		119.963
4		0.00		0.00		6.235e-03		114.487
4		0.00		0.40		5.917e-03		118.844
4		0.00		0.80		5.692e-03		112.548
4		0.00		1.20		5.819e-03		114.653
4		0.00		1.60		5.442e-03		119.485
4		0.00		2.00		4.970e-03		117.294
4		0.00		2.40		4.187e-03		119.161
4		0.00		2.80		3.904e-03		112.166
4		0.00		3.20		3.004e-03		100.459
4		0.00		3.60		2.560e-03		61.413
4		0.00		4.00		1.805e-03		45.439
4		0.00		4.40		1.738e-03		-0.332
4		0.00		4.80		1.874e-03		-46.980
4		0.00		5.20		2.755e-03		-39.948
4		0.00		5.60		3.232e-03		-50.492
4		0.00		6.00		4.235e-03		-46.582
4		0.00		6.40		4.831e-03		-53.835
4		0.00		6.80		5.768e-03		-43.753
4		0.00		7.20		6.367e-03		-47.300
4		0.00		7.60		7.375e-03		-54.751
4		0.00		8.00		8.664e-03		-56.823
4		0.00		8.40		9.706e-03		-48.925
4		0.00		8.80		1.130e-02		-47.621
4		0.00		9.20		1.319e-02		-52.019
4		0.00		9.60		1.492e-02		-51.028
4		0.00		10.00		1.658e-02		-52.900
4		0.00		9.60		1.797e-02		-50.129
4		0.00		9.20		1.878e-02		-51.124
4		0.00		8.80		1.876e-02		-49.705
4		0.00		8.40		1.928e-02		-49.686
4		0.00		8.00		1.943e-02		-51.676
4		0.00		7.60		1.943e-02		-48.897
4		0.00		7.20		1.968e-02		-50.589
4		0.00		6.80		1.949e-02		-49.976
4		0.00		6.40		1.976e-02		-51.632
4		0.00		6.00		1.934e-02		-50.092
4		0.00		5.60		1.968e-02		-51.422
4		0.00		5.20		1.914e-02		-49.350
4		0.00		4.80		1.948e-02		-50.262
4		0.00		4.40		1.884e-02		-51.573
4		0.00		4.00		1.850e-02		-48.093
4		0.00		3.60		1.823e-02		-50.076
4		0.00		3.20		1.830e-02		-50.228
4		0.00		2.80		1.834e-02		-50.878
4		0.00		2.40		1.791e-02		-50.123
4		0.00		2.00		1.833e-02		-51.881
4		0.00		1.60		1.788e-02		-49.041
4		0.00		1.20		1.799e-02		-49.551
4		0.00		0.80		1.765e-02		-50.293
4		0.00		0.40		1.774e-02		-48.043
4		0.00		0.00		1.762e-02		-49.491
4		0.00		-0.40		1.736e-02		-51.064
4		0.00		-0.80		1.712e-02		-50.423
4		0.00		-1.20		1.753e-02		-50.972
4		0.00		-1.60		1.677e-02		-46.817
4		0.00		-2.00		1.646e-02		-47.294
4		0.00		-2.40		1.655e-02		-51.188
4		0.00		-2.80		1.643e-02		-48.222
4		0.00		-3.20		1.609e-02		-48.887
4		0.00		-3.60		1.526e-02		-49.725
4		0.00		-4.00		1.480e-02		-50.718
4		0.00		-4.40		1.387e-02		-47.632
4		0.00		-4.80		1.345e-02		-50.013
4		0.00		-5.20		1.306e-02		-52.210
4		0.00		-5.60		1.223e-02		-45.090
4		0.00		-6.00		1.098e-02		-46.528
4		0.00		-6.40		1.008e-02		-50.700
4		0.00		-6.80		8.078e-03		-49.717
4		0.00		-7.20		6.912e-03		-52.913
4		0.00		-7.60		5.162e-03		-37.863
4		0.00		-8.00		2.979e-03		-50.727
4		0.00		-8.40		2.042e-03		0.818
4		0.00		-8.80		2.192e-03		64.001
4		0.00		-9.20		3.510e-03		96.461
4		0.00		-9.60		5.944e-03		113.730
4		0.00		-10.00		7.537e-03		117.894
4		0.00		-9.60		8.827e-03		123.823
4		0.00		-9.20		9.642e-03		120.978
4		0.00		-8.80		9.976e-03		122.375
4		0.00		-8.40		9.769e-03		121.790
4		0.00		-8.00		9.958e-03		119.913
4		0.00		-7.60		9.745e-03		122.974
4		0.00		-7.20		9.512e-03		123.146
4		0.00		-6.80		8.976e-03		119.624
4		0.00		-6.40		8.988e-03		123.625
4		0.00		-6.00		8.619e-03		122.385
4		0.00		-5.60		8.501e-03		123.490
4		0.00		-5.20		8.012e-03		119.997
4		0.00		-4.80		8.148e-03		125.467
4		0.00		-4.40		7.883e-03		121.046
4		0.00		-4.00		7.600e-03		125.360
4		0.00		-3.60		7.256e-03		120.852
4		0.00		-3.20		7.104e-03		116.382
4		0.00		-2.80		7.123e-03		125.580
4		0.00		-2.40		6.958e-03		119.952
4		0.00		-2.00		6.865e-03		124.325
4		0.00		-1.60		6.814e-03		118.863
4		0.00		-1.20		6.396e-03		118.829
4		0.00		-0.80		6.321e-03		121.171
4		0.00		-0.40		6.494e-03		125.335
5		0.00		0.00		6.416e-03		119.263
5		0.00		0.40		6.578e-03		118.797
5		0.00		0.80		6.082e-03		122.064
5		0.00		1.20		5.681e-03		114.627
5		0.00		1.60		5.616e-03		118.017
5		0.00		2.00		5.044e-03		119.606
5		0.00		2.40		4.353e-03		114.543
5		0.00		2.80		4.234e-03		105.597
5		0.00		3.20		3.342e-03		100.522
5		0.00		3.60		2.405e-03		85.050
5		0.00		4.00		2.097e-03		41.597
5		0.00		4.40		1.724e-03		26.308
5		0.00		4.80		2.183e-03		-31.072
5		0.00		5.20		2.623e-03		-36.450
5		0.00		5.60		3.169e-03		-40.040
5		0.00		6.00		3.536e-03		-51.053
5		0.00		6.40		4.408e-03		-55.828
5		0.00		6.80		5.201e-03		-45.166
5		0.00		7.20		6.077e-03		-42.328
5		0.00		7.60		7.426e-03		-51.877
5		0.00		8.00		8.081e-03		-47.430
5		0.00		8.40		9.256e-03		-50.098
5		0.00		8.80		1.092e-02		-48.893
5		0.00		9.20		1.231e-02		-52.707
5		0.00		9.60		1.395e-02		-48.004
5		0.00		10.00		1.583e-02		-49.681
5		0.00		9.60		1.667e-02		-51.625
5		0.00		9.20		1.814e-02		-50.456
5		0.00		8.80		1.840e-02		-49.842
5		0.00		8.40		1.846e-02		-47.588
5		0.00		8.00		1.853e-02		-52.070
5		0.00		7.60		1.855e-02		-51.543
5		0.00		7.20		1.864e-02		-49.905
5		0.00		6.80		1.860e-02		-49.130
5		0.00		6.40		1.833e-02		-51.386
5		0.00		6.00		1.827e-02		-50.650
5		0.00		5.60		1.843e-02		-51.741
5		0.00		5.20		1.825e-02		-52.157
5		0.00		4.80		1.801e-02		-49.773
5		0.00		4.40		1.776e-02		-49.768
5		0.00		4.00		1.740e-02		-51.688
5		0.00		3.60		1.744e-02		-50.642
5		0.00		3.20		1.743e-02		-50.925
5		0.00		2.80		1.784e-02		-49.826
5		0.00		2.40		1.749e-02		-51.824
5		0.00		2.00		1.743e-02		-49.678
5		0.00		1.60		1.737e-02		-48.694
5		0.00		1.20		1.762e-02		-49.848
5		0.00		0.80		1.760e-02		-48.208
5		0.00		0.40		1.720e-02		-49.248
5		0.00		0.00		1.700e-02		-49.967
5		0.00		-0.40		1.700e-02		-47.155
5		0.00		-0.80		1.672e-02		-49.501
5		0.00		-1.20		1.619e-02		-51.636
5		0.00		-1.60		1.638e-02		-49.998
5		0.00		-2.00		1.602e-02		-49.484
5		0.00		-2.40		1.512e-02		-48.691
5		0.00		-2.80		1.520e-02		-50.765
5		0.00		-3.20		1.480e-02		-48.282
5		0.00		-3.60		1.465e-02		-48.188
5		0.00		-4.00		1.404e-02		-46.286
5		0.00		-4.40		1.367e-02		-47.613
5		0.00		-4.80		1.330e-02		-47.958
5		0.00		-5.20		1.287e-02		-48.220
5		0.00		-5.60		1.174e-02		-47.332
5		0.00		-6.00		1.092e-02		-48.683
5		0.00		-6.40		9.323e-03		-44.241
5		0.00		-6.80		8.027e-03		-44.859
5		0.00		-7.20		5.888e-03		-39.079
5		0.00		-7.60		3.666e-03		-46.820
5		0.00		-8.00		2.739e-03		-25.638
5		0.00		-8.40		1.881e-03		4.791
5		0.00		-8.80		2.278e-03		59.143
5		0.00		-9.20		4.535e-03		115.140
5		0.00		-9.60		6.315e-03		121.375
5		0.00		-10.00		7.275e-03		122.268
5		0.00		-9.60		8.601e-03		120.022
5		0.00		-9.20		8.711e-03		121.180
5		0.00		-8.80		9.499e-03		120.079
5		0.00		-8.40		9.823e-03		122.267
5		0.00		-8.00		9.379e-03		120.258
5		0.00		-7.60		9.185e-03		116.770
5		0.00		-7.20		8.861e-03		119.691
5		0.00		-6.80		8.359e-03		116.622
5		0.00		-6.40		8.293e-03		119.998
5		0.00		-6.00		8.481e-03		120.642
5		0.00		-5.60		8.124e-03		122.732
5		0.00		-5.20		8.289e-03		117.674
5		0.00		-4.80		7.791e-03		121.804
5		0.00		-4.40		7.392e-03		120.507
5		0.00		-4.00		7.649e-03		121.606
5		0.00		-3.60		7.640e-03		118.793
5		0.00		-3.20		7.191e-03		123.434
5		0.00		-2.80		7.085e-03		118.254
5		0.00		-2.40		6.397e-03		117.290
5		0.00		-2.00		6.517e-03		117.451
5		0.00		-1.60		6.553e-03		118.725
5		0.00		-1.20		6.110e-03		112.159
5		0.00		-0.80		6.331e-03		116.129
5		0.00		-0.40		6.411e-03		108.451
6		0.00		0.00		6.132e-03		119.474
6		0.00		0.40		6.225e-03		116.824
6		0.00		0.80		6.133e-03		116.811
6		0.00		1.20		5.638e-03		120.448
6		0.00		1.60		5.597e-03		121.678
6		0.00		2.00		5.167e-03		120.972
6		0.00		2.40		4.745e-03		111.929
6		0.00		2.80		3.516e-03		104.161
6		0.00		3.20		3.118e-03		95.252
6		0.00		3.60		2.420e-03		78.465
6		0.00		4.00		1.870e-03		60.577
6		0.00		4.40		1.797e-03		11.431
6		0.00		4.80		1.910e-03		-33.615
6		0.00		5.20		2.293e-03		-28.534
6		0.00		5.60		3.063e-03		-40.847
6		0.00		6.00		3.642e-03		-43.040
6		0.00		6.40		4.235e-03		-41.048
6		0.00		6.80		5.110e-03		-50.546
6		0.00		7.20		5.890e-03		-50.446
6		0.00		7.60		6.854e-03		-39.531
6		0.00		8.00		7.978e-03		-50.251
6		0.00		8.40		8.545e-03		-46.569
6		0.00		8.80		9.978e-03		-48.935
6		0.00		9.20		1.169e-02		-47.259
6		0.00		9.60		1.307e-02		-50.581
6		0.00		10.00		1.519e-02		-46.451
6		0.00		9.60		1.654e-02		-47.245
6		0.00		9.20		1.744e-02		-50.683
6		0.00		8.80		1.840e-02		-49.388
6		0.00		8.40		1.798e-02		-49.828
6		0.00		8.00		1.782e-02		-49.933
6		0.00		7.60		1.764e-02		-50.398
6		0.00		7.20		1.763e-02		-52.908
6		0.00		6.80		1.756e-02		-48.285
6		0.00		6.40		1.783e-02		-49.933
6		0.00		6.00		1.756e-02		-51.715
6		0.00		5.60		1.808e-02		-48.002
6		0.00		5.20		1.771e-02		-51.253
6		0.00		4.80		1.760e-02		-49.513
6		0.00		4.40		1.734e-02		-49.018
6		0.00		4.00		1.750e-02		-48.288
6		0.00		3.60		1.728e-02		-48.733
6		0.00		3.20		1.679e-02		-49.047
6		0.00		2.80		1.701e-02		-49.788
6		0.00		2.40		1.750e-02		-49.465
6		0.00		2.00		1.694e-02		-52.109
6		0.00		1.60		1.671e-02		-48.927
6		0.00		1.20		1.686e-02		-48.937
6		0.00		0.80		1.640e-02		-48.161
6		0.00		0.40		1.615e-02		-47.969
6		0.00		0.00		1.599e-02		-52.989
6		0.00		-0.40		1.583e-02		-47.648
6		0.00		-0.80		1.597e-02		-49.490
6		0.00		-1.20		1.596e-02		-50.915
6		0.00		-1.60		1.619e-02		-49.332
6		0.00		-2.00		1.590e-02		-50.843
6		0.00		-2.40		1.513e-02		-49.540
6		0.00		-2.80		1.482e-02		-47.878
6		0.00		-3.20		1.460e-02		-49.508
6		0.00		-3.60		1.420e-02		-49.723
6		0.00		-4.00		1.384e-02		-45.604
6		0.00		-4.40		1.347e-02		-45.630
6		0.00		-4.80		1.260e-02		-46.457
6		0.00		-5.20		1.218e-02		-45.650
6		0.00		-5.60		1.125e-02		-49.515
6		0.00		-6.00		1.057e-02		-52.841
6		0.00		-6.40		8.723e-03		-43.389
6		0.00		-6.80		7.574e-03		-46.518
6		0.00		-7.20		6.392e-03		-49.527
6		0.00		-7.60		4.997e-03		-43.539
6		0.00		-8.00		3.879e-03		-28.565
6		0.00		-8.40		1.865e-03		3.237
6		0.00		-8.80		1.990e-03		40.320
6		0.00		-9.20		3.270e-03		98.846
6		0.00		-9.60		4.639e-03		116.415
6		0.00		-10.00		6.439e-03		120.486
6		0.00		-9.60		7.567e-03		119.271
6		0.00		-9.20		8.258e-03		120.435
6		0.00		-8.80		8.923e-03		122.150
6		0.00		-8.40		9.101e-03		122.324
6		0.00		-8.00		8.839e-03		120.250
6		0.00		-7.60		8.794e-03		123.811
6		0.00		-7.20		8.088e-03		120.766
6		0.00		-6.80		8.076e-03		118.754
6		0.00		-6.40		8.009e-03		117.965
6		0.00		-6.00		7.455e-03		115.268
6		0.00		-5.60		7.347e-03		113.306
6		0.00		-5.20		7.508e-03		125.056
6		0.00		-4.80		7.339e-03		119.047
6		0.00		-4.40		7.337e-03		119.192
6		0.00		-4.00		6.939e-03		124.585
6		0.00		-3.60		6.984e-03		121.183
6		0.00		-3.20		6.733e-03		114.136
6		0.00		-2.80		6.531e-03		115.609
6		0.00		-2.40		6.758e-03		120.637
6		0.00		-2.00		6.367e-03		121.486
6		0.00		-1.60		6.449e-03		115.025
6		0.00		-1.20		6.606e-03		119.485
6		0.00		-0.80		6.329e-03		120.885
6		0.00		-0.40		6.288e-03		121.931
7		0.00		0.00		5.709e-03		112.464
7		0.00		0.40		5.801e-03		119.679
7		0.00		0.80		5.696e-03		118.490
7		0.00		1.20		5.843e-03		118.715
7		0.00		1.60		5.496e-03		120.898
7		0.00		2.00		5.501e-03		119.434
7		0.00		2.40		5.080e-03		119.307
7		0.00		2.80		4.222e-03		110.543
7		0.00		3.20		3.815e-03		102.496
7		0.00		3.60		2.967e-03		94.561
7		0.00		4.00		2.114e-03		63.231
7		0.00		4.40		1.857e-03		27.797
7		0.00		4.80		1.682e-03		-2.983
7		0.00		5.20		2.229e-03		-28.622
7		0.00		5.60		3.128e-03		-51.154
7		0.00		6.00		3.396e-03		-40.464
7		0.00		6.40		4.123e-03		-46.718
7		0.00		6.80		4.746e-03		-45.524
7		0.00		7.20		5.310e-03		-56.167
7		0.00		7.60		6.784e-03		-43.488
7		0.00		8.00		7.423e-03		-48.305
7		0.00		8.40		8.793e-03		-49.318
7		0.00		8.80		1.018e-02		-51.834
7		0.00		9.20		1.153e-02		-49.024
7		0.00		9.60		1.257e-02		-50.679
7		0.00		10.00		1.476e-02		-48.518
7		0.00		9.60		1.639e-02		-48.572
7		0.00		9.20		1.680e-02		-48.493
7		0.00		8.80		1.729e-02		-48.178
7		0.00		8.40		1.785e-02		-48.778
7		0.00		8.00		1.792e-02		-49.398
7		0.00		7.60		1.786e-02		-50.783
7		0.00		7.20		1.791e-02		-49.635
7		0.00		6.80		1.760e-02		-48.555
7		0.00		6.40		1.692e-02		-50.032
7		0.00		6.00		1.711e-02		-49.945
7		0.00		5.60		1.640e-02		-49.380
7		0.00		5.20		1.649e-02		-51.153
7		0.00		4.80		1.664e-02		-49.083
7		0.00		4.40		1.666e-02		-48.818
7		0.00		4.00		1.692e-02		-51.021
7		0.00		3.60		1.667e-02		-49.173
7		0.00		3.20		1.654e-02		-51.159
7		0.00		2.80		1.617e-02		-52.331
7		0.00		2.40		1.635e-02		-46.552
7		0.00		2.00		1.619e-02		-50.201
7		0.00		1.60		1.605e-02		-52.875
7		0.00		1.20		1.649e-02		-48.142
7		0.00		0.80		1.645e-02		-48.996
7		0.00		0.40		1.637e-02		-49.329
7		0.00		0.00		1.654e-02		-49.092
7		0.00		-0.40		1.664e-02		-49.185
7		0.00		-0.80		1.564e-02		-50.015
7		0.00		-1.20		1.560e-02		-49.515
7		0.00		-1.60		1.517e-02		-52.132
7		0.00		-2.00		1.475e-02		-48.262
7		0.00		-2.40		1.467e-02		-50.383
7		0.00		-2.80		1.452e-02		-46.362
7		0.00		-3.20		1.399e-02		-50.823
7		0.00		-3.60		1.388e-02		-49.012
7		0.00		-4.00		1.362e-02		-49.091
7		0.00		-4.40		1.351e-02		-51.350
7		0.00		-4.80		1.284e-02		-49.513
7		0.00		-5.20		1.183e-02		-51.039
7		0.00		-5.60		1.119e-02		-46.668
7		0.00		-6.00		1.044e-02		-47.688
7		0.00		-6.40		9.531e-03		-45.858
7		0.00		-6.80		8.468e-03		-46.322
7		0.00		-7.20		7.210e-03		-48.748
7		0.00		-7.60		5.467e-03		-41.944
7		0.00		-8.00		4.071e-03		-50.130
7		0.00		-8.40		2.925e-03		-40.066
7		0.00		-8.80		1.879e-03		23.365
7		0.00		-9.20		3.330e-03		104.162
7		0.00		-9.60		5.199e-03		120.815
7		0.00		-10.00		6.789e-03		119.931
7		0.00		-9.60		7.880e-03		118.793
7		0.00		-9.20		9.695e-03		121.490
7		0.00		-8.80		1.033e-02		117.879
7		0.00		-8.40		1.057e-02		121.980
7		0.00		-8.00		1.049e-02		121.466
7		0.00		-7.60		1.038e-02		122.790
7		0.00		-7.20		9.890e-03		120.537
7		0.00		-6.80		9.838e-03		126.057
7		0.00		-6.40		9.201e-03		125.841
7		0.00		-6.00		9.249e-03		124.127
7		0.00		-5.60		8.997e-03		123.835
7		0.00		-5.20		9.245e-03		122.975
7		0.00		-4.80		8.397e-03		122.951
7		0.00		-4.40		8.139e-03		118.363
7		0.00		-4.00		7.769e-03		122.174
7		0.00		-3.60		7.398e-03		119.910
7		0.00		-3.20		7.294e-03		121.493
7		0.00		-2.80		6.956e-03		114.576
7		0.00		-2.40		7.006e-03		117.576
7		0.00		-2.00		7.114e-03		121.430
7		0.00		-1.60		7.180e-03		118.313
7		0.00		-1.20		7.024e-03		120.735
7		0.00		-0.80		7.273e-03		122.494
7		0.00		-0.40		7.330e-03		120.203
8		0.00		0.00		7.333e-03		121.780
8		0.00		0.40		7.064e-03		118.088
8		0.00		0.80		6.996e-03		120.685
8		0.00		1.20		6.299e-03		117.078
8		0.00		1.60		6.271e-03		118.374
8		0.00		2.00		5.776e-03		122.731
8		0.00		2.40		5.097e-03		113.180
8		0.00		2.80		4.478e-03		111.734
8		0.00		3.20		3.687e-03		110.615
8		0.00		3.60		3.231e-03		96.180
8		0.00		4.00		2.558e-03		87.276
8		0.00		4.40		1.960e-03		57.936
8		0.00		4.80		1.859e-03		-3.490
8		0.00		5.20		1.924e-03		-53.031
8		0.00		5.60		2.356e-03		-40.434
8		0.00		6.00		2.941e-03		-63.792
8		0.00		6.40		4.001e-03		-41.482
8		0.00		6.80		4.588e-03		-45.880
8		0.00		7.20		5.172e-03		-52.077
8		0.00		7.60		5.947e-03		-45.173
8		0.00		8.00		6.910e-03		-48.759
8		0.00		8.40		7.878e-03		-46.711
8		0.00		8.80		8.721e-03		-47.593
8		0.00		9.20		1.047e-02		-51.103
8		0.00		9.60		1.211e-02		-49.086
8		0.00		10.00		1.405e-02		-51.278
8		0.00		9.60		1.495e-02		-53.413
8		0.00		9.20		1.549e-02		-51.644
8		0.00		8.80		1.634e-02		-49.248
8		0.00		8.40		1.616e-02		-46.123
8		0.00		8.00		1.637e-02		-47.981
8		0.00		7.60		1.635e-02		-48.401
8		0.00		7.20		1.647e-02		-48.034
8		0.00		6.80		1.682e-02		-47.391
8		0.00		6.40		1.683e-02		-50.291
8		0.00		6.00		1.700e-02		-49.374
8		0.00		5.60		1.662e-02		-47.051
8		0.00		5.20		1.649e-02		-49.800
8		0.00		4.80		1.629e-02		-48.973
8		0.00		4.40		1.563e-02		-49.323
8		0.00		4.00		1.573e-02		-46.348
8		0.00		3.60		1.565e-02		-50.978
8		0.00		3.20		1.512e-02		-49.527
8		0.00		2.80		1.529e-02		-51.613
8		0.00		2.40		1.504e-02		-49.339
8		0.00		2.00		1.481e-02		-49.208
8		0.00		1.60		1.478e-02		-45.781
8		0.00		1.20		1.491e-02		-50.764
8		0.00		0.80		1.507e-02		-47.633
8		0.00		0.40		1.497e-02		-48.158
8		0.00		0.00		1.507e-02		-50.564
8		0.00		-0.40		1.499e-02		-47.548
8		0.00		-0.80		1.485e-02		-45.558
8		0.00		-1.20		1.486e-02		-48.652
8		0.00		-1.60		1.482e-02		-44.338
8		0.00		-2.00		1.518e-02		-49.726
8		0.00		-2.40		1.442e-02		-47.403
8		0.00		-2.80		1.442e-02		-50.043
8		0.00		-3.20		1.407e-02		-46.726
8		0.00		-3.60		1.377e-02		-50.021
8		0.00		-4.00		1.325e-02		-47.411
8		0.00		-4.40		1.260e-02		-48.037
8		0.00		-4.80		1.215e-02		-47.015
8		0.00		-5.20		1.097e-02		-47.623
8		0.00		-5.60		1.031e-02		-48.378
8		0.00		-6.00		9.776e-03		-49.485
8		0.00		-6.40		8.562e-03		-49.821
8		0.00		-6.80		7.385e-03		-45.572
8		0.00		-7.20		6.540e-03		-41.015
8		0.00		-7.60		4.797e-03		-33.745
8		0.00		-8.00		3.303e-03		-45.849
8		0.00		-8.40		2.086e-03		-11.555
8		0.00		-8.80		2.290e-03		59.339
8		0.00		-9.20		3.710e-03		103.298
8		0.00		-9.60		5.229e-03		114.714
8		0.00		-10.00		6.718e-03		117.819
8		0.00		-9.60		7.489e-03		122.779
8		0.00		-9.20		7.947e-03		117.878
8		0.00		-8.80		8.484e-03		120.956
8		0.00		-8.40		8.500e-03		120.832
8		0.00		-8.00		8.423e-03		121.023
8		0.00		-7.60		8.062e-03		120.885
8		0.00		-7.20		8.247e-03		122.531
8		0.00		-6.80		7.667e-03		123.460
8		0.00		-6.40		7.496e-03		120.864
8		0.00		-6.00		7.400e-03		124.090
8		0.00		-5.60		7.478e-03		121.090
8		0.00		-5.20		7.142e-03		126.181
8		0.00		-4.80		7.117e-03		121.139
8		0.00		-4.40		6.787e-03		119.611
8		0.00		-4.00		6.857e-03		120.230
8		0.00		-3.60		6.798e-03		117.628
8		0.00		-3.20		6.608e-03		117.324
8		0.00		-2.80		6.335e-03		119.176
8		0.00		-2.40		6.429e-03		121.149
8		0.00		-2.00		5.912e-03		116.234
8		0.00		-1.60		6.651e-03		122.675
8		0.00		-1.20		6.407e-03		115.298
8		0.00		-0.80		6.114e-03		118.417
8		0.00		-0.40		5.924e-03		115.225
