# Date of analysis: 2023-10-05 17;23
# 
# Loop index	Read Volt (V)	Write Volt (V)	Amplitude (a.u)	Phase (°)	
1		0.00		0.00		2.781e-02		-50.203
1		0.00		0.40		2.730e-02		-50.111
1		0.00		0.80		2.722e-02		-49.255
1		0.00		1.20		2.651e-02		-50.713
1		0.00		1.60		2.623e-02		-52.170
1		0.00		2.00		2.624e-02		-51.988
1		0.00		2.40		2.642e-02		-51.931
1		0.00		2.80		2.653e-02		-50.154
1		0.00		3.20		2.690e-02		-50.379
1		0.00		3.60		2.682e-02		-49.047
1		0.00		4.00		2.716e-02		-50.198
1		0.00		4.40		2.746e-02		-51.718
1		0.00		4.80		2.753e-02		-50.612
1		0.00		5.20		2.819e-02		-51.736
1		0.00		5.60		2.863e-02		-50.547
1		0.00		6.00		2.931e-02		-50.158
1		0.00		6.40		2.999e-02		-50.015
1		0.00		6.80		3.064e-02		-50.926
1		0.00		7.20		3.190e-02		-50.017
1		0.00		7.60		3.401e-02		-51.292
1		0.00		8.00		3.701e-02		-51.492
1		0.00		8.40		3.983e-02		-51.205
1		0.00		8.80		4.212e-02		-52.194
1		0.00		9.20		4.453e-02		-51.607
1		0.00		9.60		4.603e-02		-52.843
1		0.00		10.00		4.778e-02		-52.017
1		0.00		9.60		4.813e-02		-51.973
1		0.00		9.20		4.802e-02		-50.703
1		0.00		8.80		4.689e-02		-51.209
1		0.00		8.40		4.585e-02		-51.348
1		0.00		8.00		4.578e-02		-50.688
1		0.00		7.60		4.443e-02		-52.472
1		0.00		7.20		4.427e-02		-51.551
1		0.00		6.80		4.418e-02		-50.363
1		0.00		6.40		4.284e-02		-51.265
1		0.00		6.00		4.359e-02		-51.337
1		0.00		5.60		4.281e-02		-51.344
1		0.00		5.20		4.228e-02		-51.093
1		0.00		4.80		4.269e-02		-49.846
1		0.00		4.40		4.213e-02		-51.008
1		0.00		4.00		4.203e-02		-51.015
1		0.00		3.60		3.951e-02		-51.351
1		0.00		3.20		3.964e-02		-50.903
1		0.00		2.80		3.938e-02		-51.368
1		0.00		2.40		3.859e-02		-52.663
1		0.00		2.00		3.855e-02		-51.883
1		0.00		1.60		3.710e-02		-52.731
1		0.00		1.20		3.745e-02		-51.615
1		0.00		0.80		3.714e-02		-51.526
1		0.00		0.40		3.661e-02		-51.553
1		0.00		0.00		3.639e-02		-51.426
1		0.00		-0.40		3.655e-02		-52.426
1		0.00		-0.80		3.583e-02		-50.412
1		0.00		-1.20		3.491e-02		-51.131
1		0.00		-1.60		3.303e-02		-49.738
1		0.00		-2.00		3.062e-02		-48.943
1		0.00		-2.40		2.748e-02		-50.873
1		0.00		-2.80		2.417e-02		-49.640
1		0.00		-3.20		2.153e-02		-47.715
1		0.00		-3.60		1.815e-02		-49.998
1		0.00		-4.00		1.376e-02		-48.627
1		0.00		-4.40		9.429e-03		-41.488
1		0.00		-4.80		5.835e-03		-35.734
1		0.00		-5.20		2.438e-03		3.077
1		0.00		-5.60		3.336e-03		77.010
1		0.00		-6.00		6.449e-03		109.488
1		0.00		-6.40		9.871e-03		115.853
1		0.00		-6.80		1.276e-02		122.515
1		0.00		-7.20		1.476e-02		124.763
1		0.00		-7.60		1.690e-02		123.535
1		0.00		-8.00		1.858e-02		122.698
1		0.00		-8.40		1.981e-02		125.416
1		0.00		-8.80		2.113e-02		126.745
1		0.00		-9.20		2.286e-02		126.701
1		0.00		-9.60		2.366e-02		123.700
1		0.00		-10.00		2.539e-02		126.956
1		0.00		-9.60		2.403e-02		125.539
1		0.00		-9.20		2.394e-02		125.937
1		0.00		-8.80		2.407e-02		126.446
1		0.00		-8.40		2.391e-02		126.328
1		0.00		-8.00		2.305e-02		127.311
1		0.00		-7.60		2.198e-02		126.435
1		0.00		-7.20		2.158e-02		125.606
1		0.00		-6.80		2.064e-02		124.493
1		0.00		-6.40		1.941e-02		125.480
1		0.00		-6.00		1.906e-02		123.200
1		0.00		-5.60		1.846e-02		126.182
1		0.00		-5.20		1.782e-02		127.645
1		0.00		-4.80		1.736e-02		125.697
1		0.00		-4.40		1.667e-02		124.025
1		0.00		-4.00		1.626e-02		126.961
1		0.00		-3.60		1.661e-02		125.071
1		0.00		-3.20		1.608e-02		125.329
1		0.00		-2.80		1.523e-02		127.653
1		0.00		-2.40		1.525e-02		128.418
1		0.00		-2.00		1.447e-02		128.038
1		0.00		-1.60		1.401e-02		126.229
1		0.00		-1.20		1.369e-02		128.921
1		0.00		-0.80		1.318e-02		124.694
1		0.00		-0.40		1.321e-02		129.256
2		0.00		0.00		1.276e-02		124.985
2		0.00		0.40		1.221e-02		126.350
2		0.00		0.80		1.081e-02		125.311
2		0.00		1.20		1.054e-02		123.975
2		0.00		1.60		1.007e-02		123.531
2		0.00		2.00		9.393e-03		122.820
2		0.00		2.40		8.600e-03		124.402
2		0.00		2.80		7.804e-03		127.270
2		0.00		3.20		6.898e-03		122.600
2		0.00		3.60		5.718e-03		116.226
2		0.00		4.00		4.987e-03		127.591
2		0.00		4.40		3.537e-03		104.040
2		0.00		4.80		2.506e-03		63.073
2		0.00		5.20		1.855e-03		1.353
2		0.00		5.60		2.991e-03		-58.356
2		0.00		6.00		4.744e-03		-64.082
2		0.00		6.40		6.459e-03		-54.215
2		0.00		6.80		9.421e-03		-47.671
2		0.00		7.20		1.231e-02		-50.108
2		0.00		7.60		1.571e-02		-47.665
2		0.00		8.00		1.880e-02		-52.518
2		0.00		8.40		2.251e-02		-48.312
2		0.00		8.80		2.731e-02		-51.275
2		0.00		9.20		3.206e-02		-51.612
2		0.00		9.60		3.699e-02		-52.648
2		0.00		10.00		3.990e-02		-52.450
2		0.00		9.60		4.094e-02		-52.461
2		0.00		9.20		4.056e-02		-52.504
2		0.00		8.80		4.008e-02		-52.248
2		0.00		8.40		3.918e-02		-52.514
2		0.00		8.00		3.829e-02		-51.983
2		0.00		7.60		3.862e-02		-51.281
2		0.00		7.20		3.818e-02		-51.737
2		0.00		6.80		3.829e-02		-50.928
2		0.00		6.40		3.834e-02		-52.511
2		0.00		6.00		3.812e-02		-50.808
2		0.00		5.60		3.753e-02		-51.425
2		0.00		5.20		3.780e-02		-51.038
2		0.00		4.80		3.695e-02		-51.940
2		0.00		4.40		3.687e-02		-49.579
2		0.00		4.00		3.557e-02		-51.514
2		0.00		3.60		3.623e-02		-51.485
2		0.00		3.20		3.529e-02		-51.188
2		0.00		2.80		3.577e-02		-52.578
2		0.00		2.40		3.613e-02		-50.214
2		0.00		2.00		3.619e-02		-50.783
2		0.00		1.60		3.587e-02		-51.076
2		0.00		1.20		3.481e-02		-50.679
2		0.00		0.80		3.458e-02		-50.417
2		0.00		0.40		3.426e-02		-49.412
2		0.00		0.00		3.404e-02		-52.158
2		0.00		-0.40		3.431e-02		-50.677
2		0.00		-0.80		3.448e-02		-51.498
2		0.00		-1.20		3.457e-02		-51.146
2		0.00		-1.60		3.384e-02		-50.512
2		0.00		-2.00		3.241e-02		-50.454
2		0.00		-2.40		3.112e-02		-51.319
2		0.00		-2.80		2.837e-02		-48.328
2		0.00		-3.20		2.489e-02		-49.409
2		0.00		-3.60		2.161e-02		-48.558
2		0.00		-4.00		1.789e-02		-50.539
2		0.00		-4.40		1.375e-02		-50.032
2		0.00		-4.80		9.839e-03		-46.521
2		0.00		-5.20		6.041e-03		-54.513
2		0.00		-5.60		3.347e-03		-35.574
2		0.00		-6.00		2.670e-03		43.121
2		0.00		-6.40		5.836e-03		112.023
2		0.00		-6.80		8.803e-03		123.216
2		0.00		-7.20		1.201e-02		123.775
2		0.00		-7.60		1.393e-02		121.144
2		0.00		-8.00		1.507e-02		123.543
2		0.00		-8.40		1.747e-02		122.113
2		0.00		-8.80		1.887e-02		125.100
2		0.00		-9.20		1.980e-02		125.221
2		0.00		-9.60		2.205e-02		125.792
2		0.00		-10.00		2.271e-02		126.525
2		0.00		-9.60		2.320e-02		125.962
2		0.00		-9.20		2.209e-02		125.943
2		0.00		-8.80		2.234e-02		126.265
2		0.00		-8.40		2.179e-02		126.901
2		0.00		-8.00		2.150e-02		126.296
2		0.00		-7.60		2.105e-02		127.126
2		0.00		-7.20		2.057e-02		125.084
2		0.00		-6.80		1.957e-02		124.053
2		0.00		-6.40		1.923e-02		123.248
2		0.00		-6.00		1.863e-02		124.430
2		0.00		-5.60		1.835e-02		128.731
2		0.00		-5.20		1.787e-02		127.385
2		0.00		-4.80		1.753e-02		126.290
2		0.00		-4.40		1.711e-02		123.744
2		0.00		-4.00		1.632e-02		125.901
2		0.00		-3.60		1.592e-02		125.437
2		0.00		-3.20		1.515e-02		126.394
2		0.00		-2.80		1.439e-02		127.877
2		0.00		-2.40		1.404e-02		124.890
2		0.00		-2.00		1.367e-02		127.506
2		0.00		-1.60		1.342e-02		124.675
2		0.00		-1.20		1.272e-02		128.047
2		0.00		-0.80		1.300e-02		124.238
2		0.00		-0.40		1.238e-02		125.509
3		0.00		0.00		1.228e-02		123.717
3		0.00		0.40		1.170e-02		124.746
3		0.00		0.80		1.077e-02		127.042
3		0.00		1.20		1.068e-02		125.500
3		0.00		1.60		9.709e-03		124.045
3		0.00		2.00		9.117e-03		123.853
3		0.00		2.40		8.549e-03		123.975
3		0.00		2.80		8.000e-03		125.865
3		0.00		3.20		7.150e-03		126.330
3		0.00		3.60		6.118e-03		121.505
3		0.00		4.00		5.148e-03		125.860
3		0.00		4.40		4.074e-03		114.242
3		0.00		4.80		2.959e-03		88.969
3		0.00		5.20		2.084e-03		65.441
3		0.00		5.60		1.830e-03		-22.767
3		0.00		6.00		2.876e-03		-56.600
3		0.00		6.40		5.048e-03		-45.629
3		0.00		6.80		7.588e-03		-49.485
3		0.00		7.20		9.502e-03		-54.148
3		0.00		7.60		1.256e-02		-50.715
3		0.00		8.00		1.627e-02		-52.698
3		0.00		8.40		2.036e-02		-51.863
3		0.00		8.80		2.386e-02		-51.859
3		0.00		9.20		2.759e-02		-50.208
3		0.00		9.60		3.155e-02		-50.141
3		0.00		10.00		3.492e-02		-51.193
3		0.00		9.60		3.643e-02		-52.017
3		0.00		9.20		3.762e-02		-51.933
3		0.00		8.80		3.858e-02		-51.391
3		0.00		8.40		3.915e-02		-51.366
3		0.00		8.00		3.889e-02		-51.651
3		0.00		7.60		3.946e-02		-51.624
3		0.00		7.20		3.867e-02		-50.729
3		0.00		6.80		3.834e-02		-50.763
3		0.00		6.40		3.801e-02		-50.909
3		0.00		6.00		3.760e-02		-49.388
3		0.00		5.60		3.647e-02		-49.500
3		0.00		5.20		3.602e-02		-49.499
3		0.00		4.80		3.524e-02		-51.103
3		0.00		4.40		3.559e-02		-50.088
3		0.00		4.00		3.547e-02		-50.938
3		0.00		3.60		3.539e-02		-50.333
3		0.00		3.20		3.523e-02		-50.434
3		0.00		2.80		3.476e-02		-49.783
3		0.00		2.40		3.448e-02		-50.783
3		0.00		2.00		3.441e-02		-50.633
3		0.00		1.60		3.423e-02		-51.351
3		0.00		1.20		3.348e-02		-50.820
3		0.00		0.80		3.209e-02		-51.211
3		0.00		0.40		3.261e-02		-50.555
3		0.00		0.00		3.223e-02		-49.867
3		0.00		-0.40		3.176e-02		-50.664
3		0.00		-0.80		3.178e-02		-49.973
3		0.00		-1.20		3.171e-02		-50.668
3		0.00		-1.60		3.192e-02		-50.185
3		0.00		-2.00		3.097e-02		-49.968
3		0.00		-2.40		2.967e-02		-51.197
3		0.00		-2.80		2.766e-02		-48.616
3		0.00		-3.20		2.538e-02		-49.650
3		0.00		-3.60		2.247e-02		-48.499
3		0.00		-4.00		1.898e-02		-49.188
3		0.00		-4.40		1.522e-02		-49.494
3		0.00		-4.80		1.117e-02		-47.214
3		0.00		-5.20		7.132e-03		-41.366
3		0.00		-5.60		3.556e-03		-43.209
3		0.00		-6.00		2.210e-03		9.854
3		0.00		-6.40		4.156e-03		102.128
3		0.00		-6.80		7.302e-03		121.615
3		0.00		-7.20		1.040e-02		121.269
3		0.00		-7.60		1.377e-02		125.658
3		0.00		-8.00		1.577e-02		126.537
3		0.00		-8.40		1.682e-02		125.399
3		0.00		-8.80		1.760e-02		125.996
3		0.00		-9.20		1.978e-02		127.482
3		0.00		-9.60		2.080e-02		126.991
3		0.00		-10.00		2.108e-02		125.068
3		0.00		-9.60		2.149e-02		122.955
3		0.00		-9.20		2.154e-02		127.186
3		0.00		-8.80		2.180e-02		127.182
3		0.00		-8.40		2.170e-02		127.964
3		0.00		-8.00		2.149e-02		126.586
3		0.00		-7.60		2.096e-02		126.686
3		0.00		-7.20		1.996e-02		127.275
3		0.00		-6.80		1.894e-02		127.416
3		0.00		-6.40		1.770e-02		126.230
3		0.00		-6.00		1.737e-02		123.663
3		0.00		-5.60		1.681e-02		123.834
3		0.00		-5.20		1.604e-02		125.667
3		0.00		-4.80		1.613e-02		126.329
3		0.00		-4.40		1.578e-02		125.896
3		0.00		-4.00		1.497e-02		128.587
3		0.00		-3.60		1.475e-02		128.730
3		0.00		-3.20		1.377e-02		128.959
3		0.00		-2.80		1.345e-02		124.995
3		0.00		-2.40		1.315e-02		127.331
3		0.00		-2.00		1.304e-02		123.651
3		0.00		-1.60		1.276e-02		126.327
3		0.00		-1.20		1.280e-02		126.370
3		0.00		-0.80		1.235e-02		127.631
3		0.00		-0.40		1.204e-02		128.246
4		0.00		0.00		1.189e-02		127.618
4		0.00		0.40		1.165e-02		127.133
4		0.00		0.80		1.101e-02		127.764
4		0.00		1.20		1.039e-02		125.182
4		0.00		1.60		1.001e-02		126.161
4		0.00		2.00		9.535e-03		119.791
4		0.00		2.40		8.688e-03		126.960
4		0.00		2.80		8.048e-03		124.604
4		0.00		3.20		7.209e-03		124.435
4		0.00		3.60		6.754e-03		130.686
4		0.00		4.00		5.264e-03		127.860
4		0.00		4.40		4.435e-03		124.601
4		0.00		4.80		3.218e-03		110.836
4		0.00		5.20		2.203e-03		52.830
4		0.00		5.60		1.764e-03		4.885
4		0.00		6.00		2.356e-03		-50.231
4		0.00		6.40		3.997e-03		-43.439
4		0.00		6.80		6.471e-03		-48.462
4		0.00		7.20		8.871e-03		-51.651
4		0.00		7.60		1.116e-02		-50.654
4		0.00		8.00		1.357e-02		-48.870
4		0.00		8.40		1.652e-02		-51.507
4		0.00		8.80		2.000e-02		-50.769
4		0.00		9.20		2.404e-02		-50.347
4		0.00		9.60		2.746e-02		-51.978
4		0.00		10.00		3.161e-02		-52.568
4		0.00		9.60		3.393e-02		-50.524
4		0.00		9.20		3.457e-02		-50.877
4		0.00		8.80		3.590e-02		-50.554
4		0.00		8.40		3.555e-02		-50.847
4		0.00		8.00		3.491e-02		-51.908
4		0.00		7.60		3.435e-02		-50.261
4		0.00		7.20		3.385e-02		-49.576
4		0.00		6.80		3.328e-02		-51.083
4		0.00		6.40		3.240e-02		-52.381
4		0.00		6.00		3.282e-02		-49.535
4		0.00		5.60		3.294e-02		-50.560
4		0.00		5.20		3.258e-02		-49.382
4		0.00		4.80		3.211e-02		-49.378
4		0.00		4.40		3.277e-02		-50.328
4		0.00		4.00		3.230e-02		-49.957
4		0.00		3.60		3.163e-02		-48.967
4		0.00		3.20		3.061e-02		-48.908
4		0.00		2.80		3.099e-02		-47.450
4		0.00		2.40		3.091e-02		-50.328
4		0.00		2.00		3.084e-02		-50.498
4		0.00		1.60		3.099e-02		-50.625
4		0.00		1.20		3.115e-02		-50.856
4		0.00		0.80		3.100e-02		-50.093
4		0.00		0.40		3.072e-02		-49.586
4		0.00		0.00		3.048e-02		-49.028
4		0.00		-0.40		2.971e-02		-49.588
4		0.00		-0.80		2.910e-02		-51.455
4		0.00		-1.20		2.904e-02		-50.419
4		0.00		-1.60		2.947e-02		-50.162
4		0.00		-2.00		2.874e-02		-48.595
4		0.00		-2.40		2.813e-02		-50.498
4		0.00		-2.80		2.601e-02		-50.197
4		0.00		-3.20		2.423e-02		-49.058
4		0.00		-3.60		2.232e-02		-48.605
4		0.00		-4.00		1.985e-02		-50.051
4		0.00		-4.40		1.683e-02		-50.450
4		0.00		-4.80		1.264e-02		-51.346
4		0.00		-5.20		8.950e-03		-44.751
4		0.00		-5.60		4.378e-03		-37.783
4		0.00		-6.00		2.129e-03		46.133
4		0.00		-6.40		3.922e-03		103.841
4		0.00		-6.80		6.876e-03		116.385
4		0.00		-7.20		9.333e-03		123.329
4		0.00		-7.60		1.204e-02		121.765
4		0.00		-8.00		1.444e-02		125.788
4		0.00		-8.40		1.662e-02		125.147
4		0.00		-8.80		1.671e-02		123.473
4		0.00		-9.20		1.815e-02		123.397
4		0.00		-9.60		1.933e-02		122.535
4		0.00		-10.00		2.052e-02		126.801
4		0.00		-9.60		2.156e-02		126.613
4		0.00		-9.20		2.138e-02		126.436
4		0.00		-8.80		2.175e-02		127.649
4		0.00		-8.40		2.052e-02		128.730
4		0.00		-8.00		2.015e-02		128.352
4		0.00		-7.60		1.979e-02		124.882
4		0.00		-7.20		1.921e-02		123.611
4		0.00		-6.80		1.872e-02		126.531
4		0.00		-6.40		1.865e-02		126.726
4		0.00		-6.00		1.808e-02		124.557
4		0.00		-5.60		1.755e-02		125.450
4		0.00		-5.20		1.670e-02		126.771
4		0.00		-4.80		1.565e-02		124.699
4		0.00		-4.40		1.511e-02		125.554
4		0.00		-4.00		1.521e-02		124.570
4		0.00		-3.60		1.486e-02		128.701
4		0.00		-3.20		1.464e-02		125.250
4		0.00		-2.80		1.442e-02		125.629
4		0.00		-2.40		1.390e-02		125.470
4		0.00		-2.00		1.361e-02		126.306
4		0.00		-1.60		1.314e-02		123.204
4		0.00		-1.20		1.281e-02		126.868
4		0.00		-0.80		1.257e-02		127.287
4		0.00		-0.40		1.232e-02		127.095
5		0.00		0.00		1.223e-02		126.789
5		0.00		0.40		1.191e-02		126.983
5		0.00		0.80		1.146e-02		124.825
5		0.00		1.20		1.070e-02		125.907
5		0.00		1.60		1.022e-02		126.148
5		0.00		2.00		9.630e-03		122.530
5		0.00		2.40		8.956e-03		124.146
5		0.00		2.80		8.216e-03		128.477
5		0.00		3.20		7.169e-03		129.662
5		0.00		3.60		6.416e-03		130.486
5		0.00		4.00		5.279e-03		122.711
5		0.00		4.40		4.242e-03		120.875
5		0.00		4.80		3.204e-03		93.205
5		0.00		5.20		2.206e-03		57.432
5		0.00		5.60		1.758e-03		27.505
5		0.00		6.00		2.155e-03		-41.739
5		0.00		6.40		3.816e-03		-59.356
5		0.00		6.80		6.055e-03		-53.868
5		0.00		7.20		8.123e-03		-50.274
5		0.00		7.60		1.082e-02		-52.809
5		0.00		8.00		1.268e-02		-49.003
5		0.00		8.40		1.527e-02		-48.144
5		0.00		8.80		1.842e-02		-52.012
5		0.00		9.20		2.195e-02		-50.689
5		0.00		9.60		2.599e-02		-50.754
5		0.00		10.00		2.965e-02		-48.159
5		0.00		9.60		3.118e-02		-50.907
5		0.00		9.20		3.279e-02		-49.556
5		0.00		8.80		3.296e-02		-49.554
5		0.00		8.40		3.289e-02		-48.048
5		0.00		8.00		3.262e-02		-49.595
5		0.00		7.60		3.248e-02		-51.041
5		0.00		7.20		3.237e-02		-49.847
5		0.00		6.80		3.227e-02		-49.099
5		0.00		6.40		3.284e-02		-49.844
5		0.00		6.00		3.229e-02		-51.401
5		0.00		5.60		3.191e-02		-50.466
5		0.00		5.20		3.198e-02		-49.013
5		0.00		4.80		3.107e-02		-49.974
5		0.00		4.40		3.005e-02		-49.761
5		0.00		4.00		3.015e-02		-48.798
5		0.00		3.60		2.951e-02		-49.448
5		0.00		3.20		3.037e-02		-50.028
5		0.00		2.80		3.057e-02		-49.705
5		0.00		2.40		3.080e-02		-49.847
5		0.00		2.00		3.069e-02		-51.071
5		0.00		1.60		2.999e-02		-49.814
5		0.00		1.20		3.061e-02		-50.011
5		0.00		0.80		2.988e-02		-48.487
5		0.00		0.40		2.964e-02		-49.472
5		0.00		0.00		2.942e-02		-48.929
5		0.00		-0.40		2.900e-02		-52.043
5		0.00		-0.80		2.877e-02		-50.788
5		0.00		-1.20		2.855e-02		-50.175
5		0.00		-1.60		2.879e-02		-50.134
5		0.00		-2.00		2.867e-02		-50.538
5		0.00		-2.40		2.769e-02		-50.985
5		0.00		-2.80		2.652e-02		-49.333
5		0.00		-3.20		2.514e-02		-50.285
5		0.00		-3.60		2.277e-02		-49.337
5		0.00		-4.00		2.050e-02		-48.648
5		0.00		-4.40		1.771e-02		-47.351
5		0.00		-4.80		1.510e-02		-46.708
5		0.00		-5.20		1.066e-02		-44.991
5		0.00		-5.60		6.696e-03		-46.629
5		0.00		-6.00		2.422e-03		-34.624
5		0.00		-6.40		3.037e-03		87.196
5		0.00		-6.80		6.894e-03		123.344
5		0.00		-7.20		9.112e-03		124.372
5		0.00		-7.60		1.183e-02		126.845
5		0.00		-8.00		1.431e-02		124.771
5		0.00		-8.40		1.607e-02		127.046
5		0.00		-8.80		1.758e-02		127.918
5		0.00		-9.20		1.918e-02		127.373
5		0.00		-9.60		2.012e-02		125.199
5		0.00		-10.00		2.137e-02		125.826
5		0.00		-9.60		2.139e-02		126.780
5		0.00		-9.20		2.075e-02		125.999
5		0.00		-8.80		2.153e-02		126.894
5		0.00		-8.40		2.107e-02		127.242
5		0.00		-8.00		2.034e-02		127.206
5		0.00		-7.60		2.012e-02		126.843
5		0.00		-7.20		1.958e-02		129.462
5		0.00		-6.80		1.881e-02		127.046
5		0.00		-6.40		1.850e-02		128.071
5		0.00		-6.00		1.750e-02		124.526
5		0.00		-5.60		1.676e-02		125.688
5		0.00		-5.20		1.682e-02		126.602
5		0.00		-4.80		1.645e-02		126.106
5		0.00		-4.40		1.623e-02		126.467
5		0.00		-4.00		1.568e-02		127.497
5		0.00		-3.60		1.511e-02		127.134
5		0.00		-3.20		1.480e-02		125.091
5		0.00		-2.80		1.419e-02		124.989
5		0.00		-2.40		1.320e-02		124.309
5		0.00		-2.00		1.301e-02		125.171
5		0.00		-1.60		1.269e-02		123.320
5		0.00		-1.20		1.255e-02		128.234
5		0.00		-0.80		1.239e-02		127.755
5		0.00		-0.40		1.214e-02		126.236
6		0.00		0.00		1.189e-02		124.472
6		0.00		0.40		1.168e-02		125.806
6		0.00		0.80		1.099e-02		127.819
6		0.00		1.20		1.057e-02		126.890
6		0.00		1.60		9.751e-03		122.282
6		0.00		2.00		9.494e-03		121.965
6		0.00		2.40		9.089e-03		128.716
6		0.00		2.80		8.224e-03		126.005
6		0.00		3.20		7.442e-03		126.796
6		0.00		3.60		6.716e-03		128.071
6		0.00		4.00		5.956e-03		125.396
6		0.00		4.40		4.677e-03		123.585
6		0.00		4.80		3.643e-03		116.904
6		0.00		5.20		2.881e-03		100.324
6		0.00		5.60		1.873e-03		57.189
6		0.00		6.00		1.834e-03		-40.386
6		0.00		6.40		2.655e-03		-51.642
6		0.00		6.80		4.338e-03		-47.122
6		0.00		7.20		6.303e-03		-52.457
6		0.00		7.60		9.106e-03		-48.303
6		0.00		8.00		1.169e-02		-48.756
6		0.00		8.40		1.399e-02		-48.828
6		0.00		8.80		1.756e-02		-49.273
6		0.00		9.20		2.102e-02		-49.262
6		0.00		9.60		2.482e-02		-48.693
6		0.00		10.00		2.814e-02		-51.872
6		0.00		9.60		3.045e-02		-50.896
6		0.00		9.20		3.167e-02		-49.624
6		0.00		8.80		3.190e-02		-50.191
6		0.00		8.40		3.178e-02		-48.475
6		0.00		8.00		3.091e-02		-48.897
6		0.00		7.60		3.097e-02		-49.470
6		0.00		7.20		2.983e-02		-50.089
6		0.00		6.80		2.970e-02		-51.197
6		0.00		6.40		2.999e-02		-50.165
6		0.00		6.00		3.018e-02		-49.671
6		0.00		5.60		3.017e-02		-49.137
6		0.00		5.20		3.000e-02		-49.586
6		0.00		4.80		2.971e-02		-50.842
6		0.00		4.40		2.973e-02		-50.221
6		0.00		4.00		2.859e-02		-49.245
6		0.00		3.60		2.873e-02		-49.727
6		0.00		3.20		2.859e-02		-50.749
6		0.00		2.80		2.864e-02		-50.200
6		0.00		2.40		2.919e-02		-49.302
6		0.00		2.00		2.953e-02		-48.480
6		0.00		1.60		2.957e-02		-50.693
6		0.00		1.20		2.896e-02		-50.557
6		0.00		0.80		2.930e-02		-47.180
6		0.00		0.40		2.878e-02		-48.393
6		0.00		0.00		2.888e-02		-49.288
6		0.00		-0.40		2.881e-02		-50.315
6		0.00		-0.80		2.831e-02		-49.622
6		0.00		-1.20		2.873e-02		-48.703
6		0.00		-1.60		2.839e-02		-49.616
6		0.00		-2.00		2.770e-02		-47.677
6		0.00		-2.40		2.695e-02		-49.195
6		0.00		-2.80		2.520e-02		-48.818
6		0.00		-3.20		2.337e-02		-50.490
6		0.00		-3.60		2.160e-02		-48.175
6		0.00		-4.00		1.991e-02		-48.528
6		0.00		-4.40		1.764e-02		-48.001
6		0.00		-4.80		1.363e-02		-48.598
6		0.00		-5.20		1.014e-02		-46.557
6		0.00		-5.60		6.226e-03		-45.497
6		0.00		-6.00		2.525e-03		-35.705
6		0.00		-6.40		3.920e-03		110.319
6		0.00		-6.80		8.079e-03		121.064
6		0.00		-7.20		1.032e-02		124.145
6		0.00		-7.60		1.231e-02		125.569
6		0.00		-8.00		1.407e-02		127.115
6		0.00		-8.40		1.554e-02		129.799
6		0.00		-8.80		1.736e-02		125.305
6		0.00		-9.20		1.874e-02		126.563
6		0.00		-9.60		1.929e-02		125.159
6		0.00		-10.00		2.066e-02		126.919
6		0.00		-9.60		2.100e-02		127.271
6		0.00		-9.20		2.132e-02		126.660
6		0.00		-8.80		2.117e-02		127.075
6		0.00		-8.40		2.079e-02		126.937
6		0.00		-8.00		2.007e-02		125.128
6		0.00		-7.60		1.917e-02		123.308
6		0.00		-7.20		1.907e-02		125.660
6		0.00		-6.80		1.894e-02		125.285
6		0.00		-6.40		1.825e-02		129.160
6		0.00		-6.00		1.810e-02		126.785
6		0.00		-5.60		1.770e-02		126.429
6		0.00		-5.20		1.717e-02		128.910
6		0.00		-4.80		1.623e-02		127.088
6		0.00		-4.40		1.608e-02		124.476
6		0.00		-4.00		1.544e-02		128.294
6		0.00		-3.60		1.492e-02		125.718
6		0.00		-3.20		1.516e-02		125.846
6		0.00		-2.80		1.436e-02		127.463
6		0.00		-2.40		1.373e-02		127.486
6		0.00		-2.00		1.313e-02		125.507
6		0.00		-1.60		1.297e-02		128.161
6		0.00		-1.20		1.251e-02		123.567
6		0.00		-0.80		1.218e-02		125.922
6		0.00		-0.40		1.216e-02		129.798
7		0.00		0.00		1.212e-02		125.447
7		0.00		0.40		1.182e-02		127.893
7		0.00		0.80		1.114e-02		128.599
7		0.00		1.20		1.054e-02		129.760
7		0.00		1.60		1.031e-02		124.231
7		0.00		2.00		9.574e-03		126.169
7		0.00		2.40		8.725e-03		125.468
7		0.00		2.80		8.218e-03		126.924
7		0.00		3.20		7.684e-03		124.280
7		0.00		3.60		6.606e-03		126.320
7		0.00		4.00		5.795e-03		127.332
7		0.00		4.40		4.657e-03		120.505
7		0.00		4.80		3.205e-03		104.934
7		0.00		5.20		2.705e-03		92.046
7		0.00		5.60		1.669e-03		11.380
7		0.00		6.00		1.922e-03		-35.120
7		0.00		6.40		3.289e-03		-60.793
7		0.00		6.80		4.619e-03		-56.522
7		0.00		7.20		7.474e-03		-49.473
7		0.00		7.60		8.744e-03		-49.695
7		0.00		8.00		1.174e-02		-47.589
7		0.00		8.40		1.467e-02		-51.418
7		0.00		8.80		1.809e-02		-51.849
7		0.00		9.20		2.132e-02		-50.496
7		0.00		9.60		2.516e-02		-49.958
7		0.00		10.00		2.880e-02		-50.594
7		0.00		9.60		3.001e-02		-50.476
7		0.00		9.20		3.068e-02		-49.380
7		0.00		8.80		3.042e-02		-49.098
7		0.00		8.40		3.079e-02		-50.050
7		0.00		8.00		3.067e-02		-51.583
7		0.00		7.60		3.109e-02		-49.861
7		0.00		7.20		3.127e-02		-49.323
7		0.00		6.80		3.150e-02		-51.028
7		0.00		6.40		3.111e-02		-49.296
7		0.00		6.00		3.098e-02		-50.065
7		0.00		5.60		3.072e-02		-48.145
7		0.00		5.20		2.993e-02		-48.456
7		0.00		4.80		2.952e-02		-49.723
7		0.00		4.40		2.901e-02		-51.555
7		0.00		4.00		2.933e-02		-50.142
7		0.00		3.60		2.959e-02		-48.648
7		0.00		3.20		3.003e-02		-49.725
7		0.00		2.80		3.088e-02		-50.323
7		0.00		2.40		3.034e-02		-49.840
7		0.00		2.00		3.000e-02		-51.145
7		0.00		1.60		2.952e-02		-48.867
7		0.00		1.20		2.925e-02		-48.212
7		0.00		0.80		2.917e-02		-49.746
7		0.00		0.40		2.963e-02		-49.343
7		0.00		0.00		3.013e-02		-49.807
7		0.00		-0.40		3.001e-02		-49.492
7		0.00		-0.80		2.983e-02		-50.158
7		0.00		-1.20		2.899e-02		-48.201
7		0.00		-1.60		2.836e-02		-49.464
7		0.00		-2.00		2.752e-02		-49.750
7		0.00		-2.40		2.654e-02		-50.303
7		0.00		-2.80		2.595e-02		-49.123
7		0.00		-3.20		2.470e-02		-50.402
7		0.00		-3.60		2.223e-02		-48.648
7		0.00		-4.00		1.957e-02		-49.206
7		0.00		-4.40		1.649e-02		-48.777
7		0.00		-4.80		1.226e-02		-48.245
7		0.00		-5.20		8.525e-03		-46.979
7		0.00		-5.60		4.826e-03		-43.646
7		0.00		-6.00		1.930e-03		10.477
7		0.00		-6.40		4.085e-03		108.063
7		0.00		-6.80		7.373e-03		119.079
7		0.00		-7.20		1.093e-02		127.821
7		0.00		-7.60		1.371e-02		123.767
7		0.00		-8.00		1.578e-02		125.215
7		0.00		-8.40		1.646e-02		126.633
7		0.00		-8.80		1.866e-02		126.697
7		0.00		-9.20		1.860e-02		125.361
7		0.00		-9.60		1.945e-02		125.584
7		0.00		-10.00		2.113e-02		125.184
7		0.00		-9.60		2.132e-02		127.523
7		0.00		-9.20		2.114e-02		126.910
7		0.00		-8.80		2.101e-02		125.786
7		0.00		-8.40		2.138e-02		127.661
7		0.00		-8.00		2.055e-02		126.751
7		0.00		-7.60		2.063e-02		127.619
7		0.00		-7.20		1.917e-02		128.623
7		0.00		-6.80		1.829e-02		126.921
7		0.00		-6.40		1.806e-02		125.280
7		0.00		-6.00		1.729e-02		124.858
7		0.00		-5.60		1.694e-02		125.297
7		0.00		-5.20		1.688e-02		127.080
7		0.00		-4.80		1.607e-02		126.873
7		0.00		-4.40		1.620e-02		125.820
7		0.00		-4.00		1.544e-02		127.737
7		0.00		-3.60		1.485e-02		125.853
7		0.00		-3.20		1.427e-02		126.311
7		0.00		-2.80		1.366e-02		122.496
7		0.00		-2.40		1.333e-02		126.851
7		0.00		-2.00		1.315e-02		127.307
7		0.00		-1.60		1.289e-02		126.667
7		0.00		-1.20		1.247e-02		125.925
7		0.00		-0.80		1.219e-02		126.878
7		0.00		-0.40		1.189e-02		127.436
8		0.00		0.00		1.114e-02		126.632
8		0.00		0.40		1.092e-02		122.100
8		0.00		0.80		1.073e-02		121.275
8		0.00		1.20		1.041e-02		122.353
8		0.00		1.60		1.002e-02		125.823
8		0.00		2.00		8.930e-03		127.096
8		0.00		2.40		8.434e-03		125.824
8		0.00		2.80		8.094e-03		129.711
8		0.00		3.20		7.011e-03		124.038
8		0.00		3.60		6.657e-03		118.615
8		0.00		4.00		5.321e-03		119.560
8		0.00		4.40		4.037e-03		119.351
8		0.00		4.80		3.182e-03		107.846
8		0.00		5.20		2.404e-03		70.604
8		0.00		5.60		1.852e-03		26.280
8		0.00		6.00		1.791e-03		-29.243
8		0.00		6.40		2.896e-03		-40.942
8		0.00		6.80		4.804e-03		-47.109
8		0.00		7.20		6.402e-03		-45.319
8		0.00		7.60		9.260e-03		-54.268
8		0.00		8.00		1.183e-02		-50.455
8		0.00		8.40		1.497e-02		-50.018
8		0.00		8.80		1.728e-02		-47.534
8		0.00		9.20		2.033e-02		-48.747
8		0.00		9.60		2.276e-02		-51.305
8		0.00		10.00		2.691e-02		-50.617
8		0.00		9.60		2.853e-02		-51.194
8		0.00		9.20		3.007e-02		-49.817
8		0.00		8.80		3.157e-02		-50.607
8		0.00		8.40		3.203e-02		-50.170
8		0.00		8.00		3.127e-02		-49.826
8		0.00		7.60		3.089e-02		-48.952
8		0.00		7.20		3.009e-02		-49.027
8		0.00		6.80		2.964e-02		-49.352
8		0.00		6.40		3.011e-02		-49.403
8		0.00		6.00		2.982e-02		-49.296
8		0.00		5.60		3.005e-02		-50.080
8		0.00		5.20		3.010e-02		-49.040
8		0.00		4.80		2.986e-02		-49.851
8		0.00		4.40		2.849e-02		-48.660
8		0.00		4.00		2.847e-02		-48.555
8		0.00		3.60		2.804e-02		-48.831
8		0.00		3.20		2.834e-02		-49.502
8		0.00		2.80		2.844e-02		-50.813
8		0.00		2.40		2.941e-02		-50.092
8		0.00		2.00		2.893e-02		-49.648
8		0.00		1.60		2.904e-02		-49.688
8		0.00		1.20		2.874e-02		-47.928
8		0.00		0.80		2.888e-02		-48.918
8		0.00		0.40		2.823e-02		-49.241
8		0.00		0.00		2.873e-02		-50.310
8		0.00		-0.40		2.916e-02		-49.378
8		0.00		-0.80		2.938e-02		-49.154
8		0.00		-1.20		2.963e-02		-48.973
8		0.00		-1.60		2.898e-02		-48.683
8		0.00		-2.00		2.841e-02		-47.112
8		0.00		-2.40		2.761e-02		-47.821
8		0.00		-2.80		2.642e-02		-47.774
8		0.00		-3.20		2.519e-02		-49.219
8		0.00		-3.60		2.326e-02		-49.499
8		0.00		-4.00		1.964e-02		-47.058
8		0.00		-4.40		1.751e-02		-48.424
8		0.00		-4.80		1.386e-02		-47.374
8		0.00		-5.20		1.094e-02		-47.002
8		0.00		-5.60		6.788e-03		-40.139
8		0.00		-6.00		3.192e-03		-51.526
8		0.00		-6.40		2.278e-03		67.900
8		0.00		-6.80		4.728e-03		109.093
8		0.00		-7.20		8.715e-03		122.929
8		0.00		-7.60		1.231e-02		126.072
8		0.00		-8.00		1.401e-02		126.633
8		0.00		-8.40		1.678e-02		125.745
8		0.00		-8.80		1.831e-02		128.221
8		0.00		-9.20		1.979e-02		126.650
8		0.00		-9.60		2.138e-02		128.898
8		0.00		-10.00		2.145e-02		127.734
8		0.00		-9.60		2.150e-02		128.167
8		0.00		-9.20		2.201e-02		126.216
8		0.00		-8.80		2.143e-02		127.716
8		0.00		-8.40		2.102e-02		129.067
8		0.00		-8.00		2.143e-02		126.823
8		0.00		-7.60		2.119e-02		127.952
8		0.00		-7.20		2.070e-02		124.779
8		0.00		-6.80		1.951e-02		128.154
8		0.00		-6.40		1.895e-02		127.963
8		0.00		-6.00		1.825e-02		127.780
8		0.00		-5.60		1.783e-02		126.138
8		0.00		-5.20		1.701e-02		125.471
8		0.00		-4.80		1.641e-02		123.635
8		0.00		-4.40		1.604e-02		124.888
8		0.00		-4.00		1.578e-02		126.567
8		0.00		-3.60		1.541e-02		126.554
8		0.00		-3.20		1.505e-02		128.696
8		0.00		-2.80		1.494e-02		126.131
8		0.00		-2.40		1.444e-02		128.761
8		0.00		-2.00		1.406e-02		128.775
8		0.00		-1.60		1.352e-02		127.559
8		0.00		-1.20		1.315e-02		126.569
8		0.00		-0.80		1.278e-02		128.254
8		0.00		-0.40		1.262e-02		124.145
