# Date of analysis: 2023-10-05 17;23
# 
# Loop index	Read Volt (V)	Write Volt (V)	Amplitude (a.u)	Phase (°)	
1		0.00		0.00		3.102e-02		-54.791
1		0.00		0.40		2.995e-02		-54.217
1		0.00		0.80		2.911e-02		-53.560
1		0.00		1.20		2.784e-02		-55.748
1		0.00		1.60		2.834e-02		-55.486
1		0.00		2.00		2.690e-02		-55.861
1		0.00		2.40		2.672e-02		-55.491
1		0.00		2.80		2.717e-02		-54.861
1		0.00		3.20		2.789e-02		-55.028
1		0.00		3.60		2.850e-02		-54.238
1		0.00		4.00		2.971e-02		-55.611
1		0.00		4.40		3.138e-02		-53.421
1		0.00		4.80		3.221e-02		-53.516
1		0.00		5.20		3.279e-02		-52.518
1		0.00		5.60		3.361e-02		-51.965
1		0.00		6.00		3.480e-02		-50.078
1		0.00		6.40		3.443e-02		-51.591
1		0.00		6.80		3.589e-02		-50.966
1		0.00		7.20		3.820e-02		-50.385
1		0.00		7.60		3.918e-02		-50.262
1		0.00		8.00		4.131e-02		-51.496
1		0.00		8.40		4.080e-02		-50.920
1		0.00		8.80		4.237e-02		-52.077
1		0.00		9.20		4.413e-02		-53.746
1		0.00		9.60		4.535e-02		-53.733
1		0.00		10.00		4.553e-02		-53.180
1		0.00		9.60		4.509e-02		-55.065
1		0.00		9.20		4.513e-02		-50.466
1		0.00		8.80		4.295e-02		-51.723
1		0.00		8.40		4.169e-02		-48.231
1		0.00		8.00		4.111e-02		-49.517
1		0.00		7.60		4.081e-02		-51.588
1		0.00		7.20		4.124e-02		-52.813
1		0.00		6.80		4.097e-02		-51.108
1		0.00		6.40		3.995e-02		-52.140
1		0.00		6.00		3.875e-02		-51.376
1		0.00		5.60		3.810e-02		-50.896
1		0.00		5.20		3.813e-02		-50.484
1		0.00		4.80		3.868e-02		-50.048
1		0.00		4.40		3.724e-02		-49.780
1		0.00		4.00		3.640e-02		-53.215
1		0.00		3.60		3.467e-02		-52.967
1		0.00		3.20		3.361e-02		-55.574
1		0.00		2.80		3.241e-02		-55.381
1		0.00		2.40		3.216e-02		-55.198
1		0.00		2.00		3.188e-02		-53.781
1		0.00		1.60		3.113e-02		-53.461
1		0.00		1.20		3.097e-02		-52.770
1		0.00		0.80		2.997e-02		-53.258
1		0.00		0.40		3.032e-02		-51.500
1		0.00		0.00		2.988e-02		-51.413
1		0.00		-0.40		2.810e-02		-51.073
1		0.00		-0.80		2.664e-02		-50.624
1		0.00		-1.20		2.472e-02		-51.073
1		0.00		-1.60		2.125e-02		-50.499
1		0.00		-2.00		1.771e-02		-51.348
1		0.00		-2.40		1.488e-02		-52.838
1		0.00		-2.80		1.190e-02		-53.830
1		0.00		-3.20		8.149e-03		-53.641
1		0.00		-3.60		6.154e-03		-41.516
1		0.00		-4.00		4.659e-03		-4.582
1		0.00		-4.40		4.433e-03		54.699
1		0.00		-4.80		5.587e-03		89.621
1		0.00		-5.20		8.422e-03		110.707
1		0.00		-5.60		1.063e-02		119.799
1		0.00		-6.00		1.292e-02		123.609
1		0.00		-6.40		1.604e-02		128.311
1		0.00		-6.80		1.778e-02		128.286
1		0.00		-7.20		2.194e-02		129.090
1		0.00		-7.60		2.327e-02		128.663
1		0.00		-8.00		2.460e-02		125.794
1		0.00		-8.40		2.686e-02		126.374
1		0.00		-8.80		2.840e-02		124.955
1		0.00		-9.20		2.954e-02		124.007
1		0.00		-9.60		3.167e-02		123.291
1		0.00		-10.00		3.080e-02		123.050
1		0.00		-9.60		3.275e-02		122.679
1		0.00		-9.20		3.027e-02		123.030
1		0.00		-8.80		3.023e-02		125.204
1		0.00		-8.40		2.968e-02		125.522
1		0.00		-8.00		2.973e-02		126.133
1		0.00		-7.60		2.789e-02		126.006
1		0.00		-7.20		2.844e-02		126.434
1		0.00		-6.80		2.463e-02		126.426
1		0.00		-6.40		2.551e-02		127.116
1		0.00		-6.00		2.207e-02		122.740
1		0.00		-5.60		2.200e-02		123.399
1		0.00		-5.20		2.085e-02		122.415
1		0.00		-4.80		2.009e-02		124.272
1		0.00		-4.40		1.892e-02		123.295
1		0.00		-4.00		1.831e-02		123.105
1		0.00		-3.60		1.653e-02		123.934
1		0.00		-3.20		1.584e-02		124.888
1		0.00		-2.80		1.450e-02		128.789
1		0.00		-2.40		1.388e-02		127.543
1		0.00		-2.00		1.294e-02		126.397
1		0.00		-1.60		1.174e-02		130.816
1		0.00		-1.20		1.019e-02		125.454
1		0.00		-0.80		9.626e-03		120.897
1		0.00		-0.40		8.570e-03		125.418
2		0.00		0.00		7.929e-03		120.194
2		0.00		0.40		6.842e-03		111.426
2		0.00		0.80		5.909e-03		108.969
2		0.00		1.20		4.908e-03		114.966
2		0.00		1.60		3.915e-03		107.518
2		0.00		2.00		3.049e-03		85.407
2		0.00		2.40		2.302e-03		22.092
2		0.00		2.80		2.322e-03		-20.859
2		0.00		3.20		3.186e-03		-50.820
2		0.00		3.60		4.189e-03		-59.656
2		0.00		4.00		8.649e-03		-54.178
2		0.00		4.40		1.450e-02		-53.753
2		0.00		4.80		1.892e-02		-51.575
2		0.00		5.20		2.597e-02		-51.998
2		0.00		5.60		3.358e-02		-51.658
2		0.00		6.00		3.397e-02		-51.463
2		0.00		6.40		3.589e-02		-52.285
2		0.00		6.80		3.774e-02		-52.604
2		0.00		7.20		4.011e-02		-52.576
2		0.00		7.60		4.066e-02		-54.281
2		0.00		8.00		3.823e-02		-55.608
2		0.00		8.40		3.930e-02		-55.502
2		0.00		8.80		3.892e-02		-52.051
2		0.00		9.20		3.877e-02		-53.027
2		0.00		9.60		4.062e-02		-52.390
2		0.00		10.00		4.066e-02		-49.785
2		0.00		9.60		4.230e-02		-51.023
2		0.00		9.20		4.064e-02		-48.843
2		0.00		8.80		4.078e-02		-51.580
2		0.00		8.40		3.989e-02		-51.652
2		0.00		8.00		3.728e-02		-53.488
2		0.00		7.60		3.507e-02		-54.003
2		0.00		7.20		3.178e-02		-49.989
2		0.00		6.80		3.267e-02		-52.111
2		0.00		6.40		3.241e-02		-50.964
2		0.00		6.00		3.150e-02		-51.233
2		0.00		5.60		3.200e-02		-50.788
2		0.00		5.20		3.258e-02		-50.425
2		0.00		4.80		3.158e-02		-52.773
2		0.00		4.40		3.012e-02		-53.203
2		0.00		4.00		2.855e-02		-53.305
2		0.00		3.60		2.878e-02		-52.135
2		0.00		3.20		2.810e-02		-51.708
2		0.00		2.80		2.885e-02		-51.399
2		0.00		2.40		2.918e-02		-52.255
2		0.00		2.00		2.933e-02		-52.393
2		0.00		1.60		2.919e-02		-53.024
2		0.00		1.20		2.731e-02		-52.760
2		0.00		0.80		2.576e-02		-52.113
2		0.00		0.40		2.458e-02		-52.161
2		0.00		0.00		2.439e-02		-52.769
2		0.00		-0.40		2.375e-02		-52.947
2		0.00		-0.80		2.280e-02		-53.504
2		0.00		-1.20		2.009e-02		-52.264
2		0.00		-1.60		1.668e-02		-54.393
2		0.00		-2.00		1.273e-02		-55.954
2		0.00		-2.40		1.004e-02		-57.872
2		0.00		-2.80		7.824e-03		-55.599
2		0.00		-3.20		6.698e-03		-53.724
2		0.00		-3.60		4.952e-03		-28.773
2		0.00		-4.00		3.930e-03		11.459
2		0.00		-4.40		4.527e-03		41.924
2		0.00		-4.80		6.386e-03		91.439
2		0.00		-5.20		8.652e-03		106.185
2		0.00		-5.60		1.164e-02		114.532
2		0.00		-6.00		1.319e-02		120.863
2		0.00		-6.40		1.641e-02		125.346
2		0.00		-6.80		1.870e-02		130.646
2		0.00		-7.20		2.140e-02		129.982
2		0.00		-7.60		2.369e-02		128.106
2		0.00		-8.00		2.601e-02		127.855
2		0.00		-8.40		2.589e-02		124.113
2		0.00		-8.80		2.865e-02		122.365
2		0.00		-9.20		2.684e-02		120.540
2		0.00		-9.60		3.033e-02		125.075
2		0.00		-10.00		2.669e-02		126.341
2		0.00		-9.60		2.970e-02		127.696
2		0.00		-9.20		2.961e-02		127.446
2		0.00		-8.80		2.918e-02		126.165
2		0.00		-8.40		2.833e-02		123.970
2		0.00		-8.00		2.990e-02		123.255
2		0.00		-7.60		2.829e-02		122.703
2		0.00		-7.20		2.790e-02		126.971
2		0.00		-6.80		2.481e-02		127.456
2		0.00		-6.40		2.427e-02		128.612
2		0.00		-6.00		2.290e-02		126.196
2		0.00		-5.60		2.143e-02		121.085
2		0.00		-5.20		2.001e-02		120.465
2		0.00		-4.80		1.852e-02		120.018
2		0.00		-4.40		1.711e-02		123.105
2		0.00		-4.00		1.561e-02		123.980
2		0.00		-3.60		1.425e-02		125.630
2		0.00		-3.20		1.298e-02		128.432
2		0.00		-2.80		1.115e-02		112.234
2		0.00		-2.40		1.057e-02		115.403
2		0.00		-2.00		9.559e-03		114.789
2		0.00		-1.60		8.798e-03		119.227
2		0.00		-1.20		7.497e-03		118.767
2		0.00		-0.80		6.333e-03		109.662
2		0.00		-0.40		5.481e-03		111.863
3		0.00		0.00		4.646e-03		94.179
3		0.00		0.40		3.869e-03		87.709
3		0.00		0.80		3.285e-03		78.444
3		0.00		1.20		2.809e-03		42.861
3		0.00		1.60		2.348e-03		1.455
3		0.00		2.00		2.712e-03		-21.699
3		0.00		2.40		3.152e-03		-51.539
3		0.00		2.80		5.000e-03		-57.654
3		0.00		3.20		7.025e-03		-56.266
3		0.00		3.60		9.809e-03		-53.572
3		0.00		4.00		1.365e-02		-51.722
3		0.00		4.40		1.968e-02		-53.060
3		0.00		4.80		2.519e-02		-53.796
3		0.00		5.20		2.844e-02		-52.020
3		0.00		5.60		2.959e-02		-53.620
3		0.00		6.00		3.273e-02		-50.642
3		0.00		6.40		3.439e-02		-50.271
3		0.00		6.80		3.621e-02		-50.549
3		0.00		7.20		3.824e-02		-50.058
3		0.00		7.60		3.873e-02		-51.012
3		0.00		8.00		4.005e-02		-51.128
3		0.00		8.40		3.906e-02		-52.268
3		0.00		8.80		3.839e-02		-53.548
3		0.00		9.20		3.703e-02		-55.267
3		0.00		9.60		3.538e-02		-53.071
3		0.00		10.00		3.549e-02		-49.443
3		0.00		9.60		3.805e-02		-49.469
3		0.00		9.20		3.803e-02		-49.592
3		0.00		8.80		3.740e-02		-51.213
3		0.00		8.40		3.625e-02		-51.448
3		0.00		8.00		3.610e-02		-49.963
3		0.00		7.60		3.606e-02		-50.256
3		0.00		7.20		3.543e-02		-50.588
3		0.00		6.80		3.390e-02		-50.858
3		0.00		6.40		3.274e-02		-52.268
3		0.00		6.00		3.194e-02		-53.049
3		0.00		5.60		3.306e-02		-52.478
3		0.00		5.20		3.184e-02		-50.666
3		0.00		4.80		3.191e-02		-50.961
3		0.00		4.40		3.233e-02		-51.069
3		0.00		4.00		3.160e-02		-50.177
3		0.00		3.60		3.178e-02		-50.970
3		0.00		3.20		3.185e-02		-49.447
3		0.00		2.80		3.094e-02		-50.083
3		0.00		2.40		3.023e-02		-50.805
3		0.00		2.00		2.995e-02		-51.373
3		0.00		1.60		2.930e-02		-53.903
3		0.00		1.20		2.839e-02		-54.325
3		0.00		0.80		2.895e-02		-53.338
3		0.00		0.40		2.890e-02		-51.655
3		0.00		0.00		2.926e-02		-50.108
3		0.00		-0.40		2.712e-02		-51.338
3		0.00		-0.80		2.670e-02		-50.664
3		0.00		-1.20		2.336e-02		-50.534
3		0.00		-1.60		2.162e-02		-50.618
3		0.00		-2.00		1.727e-02		-49.760
3		0.00		-2.40		1.339e-02		-50.686
3		0.00		-2.80		9.857e-03		-53.555
3		0.00		-3.20		7.355e-03		-46.885
3		0.00		-3.60		4.714e-03		-20.886
3		0.00		-4.00		4.243e-03		23.340
3		0.00		-4.40		4.319e-03		46.880
3		0.00		-4.80		5.390e-03		83.525
3		0.00		-5.20		7.899e-03		107.473
3		0.00		-5.60		1.155e-02		116.912
3		0.00		-6.00		1.210e-02		113.780
3		0.00		-6.40		1.445e-02		115.047
3		0.00		-6.80		1.729e-02		121.419
3		0.00		-7.20		2.044e-02		122.514
3		0.00		-7.60		2.265e-02		122.252
3		0.00		-8.00		2.563e-02		122.885
3		0.00		-8.40		2.689e-02		123.920
3		0.00		-8.80		3.031e-02		125.258
3		0.00		-9.20		2.834e-02		128.054
3		0.00		-9.60		3.107e-02		128.146
3		0.00		-10.00		3.304e-02		129.278
3		0.00		-9.60		3.198e-02		128.438
3		0.00		-9.20		3.124e-02		128.461
3		0.00		-8.80		3.135e-02		126.994
3		0.00		-8.40		3.028e-02		126.505
3		0.00		-8.00		2.961e-02		123.215
3		0.00		-7.60		2.596e-02		121.502
3		0.00		-7.20		2.598e-02		120.880
3		0.00		-6.80		2.185e-02		121.657
3		0.00		-6.40		2.173e-02		125.033
3		0.00		-6.00		1.968e-02		126.807
3		0.00		-5.60		1.834e-02		127.098
3		0.00		-5.20		1.707e-02		127.785
3		0.00		-4.80		1.544e-02		123.725
3		0.00		-4.40		1.327e-02		124.836
3		0.00		-4.00		1.171e-02		124.785
3		0.00		-3.60		1.014e-02		118.283
3		0.00		-3.20		8.989e-03		119.711
3		0.00		-2.80		7.166e-03		115.041
3		0.00		-2.40		5.460e-03		104.297
3		0.00		-2.00		4.535e-03		88.172
3		0.00		-1.60		3.386e-03		83.986
3		0.00		-1.20		2.760e-03		44.687
3		0.00		-0.80		2.520e-03		-14.554
3		0.00		-0.40		3.054e-03		-39.630
4		0.00		0.00		3.607e-03		-45.260
4		0.00		0.40		4.119e-03		-47.802
4		0.00		0.80		5.398e-03		-50.577
4		0.00		1.20		6.701e-03		-56.784
4		0.00		1.60		7.756e-03		-56.558
4		0.00		2.00		9.133e-03		-53.968
4		0.00		2.40		1.048e-02		-52.413
4		0.00		2.80		1.113e-02		-50.462
4		0.00		3.20		1.241e-02		-54.142
4		0.00		3.60		1.465e-02		-53.869
4		0.00		4.00		1.898e-02		-49.783
4		0.00		4.40		2.320e-02		-52.243
4		0.00		4.80		2.952e-02		-51.693
4		0.00		5.20		3.315e-02		-55.480
4		0.00		5.60		3.503e-02		-53.708
4		0.00		6.00		3.666e-02		-52.652
4		0.00		6.40		3.801e-02		-53.235
4		0.00		6.80		4.041e-02		-51.426
4		0.00		7.20		3.946e-02		-52.363
4		0.00		7.60		4.023e-02		-51.073
4		0.00		8.00		4.329e-02		-49.506
4		0.00		8.40		4.405e-02		-52.184
4		0.00		8.80		4.427e-02		-52.350
4		0.00		9.20		4.462e-02		-52.046
4		0.00		9.60		4.354e-02		-53.020
4		0.00		10.00		4.375e-02		-49.237
4		0.00		9.60		4.166e-02		-52.010
4		0.00		9.20		4.177e-02		-50.383
4		0.00		8.80		4.162e-02		-50.113
4		0.00		8.40		4.173e-02		-51.046
4		0.00		8.00		3.831e-02		-53.520
4		0.00		7.60		3.722e-02		-53.363
4		0.00		7.20		3.525e-02		-55.785
4		0.00		6.80		3.504e-02		-54.496
4		0.00		6.40		3.430e-02		-50.838
4		0.00		6.00		3.417e-02		-52.129
4		0.00		5.60		3.418e-02		-52.494
4		0.00		5.20		3.387e-02		-51.555
4		0.00		4.80		3.433e-02		-52.193
4		0.00		4.40		3.449e-02		-53.567
4		0.00		4.00		3.448e-02		-54.035
4		0.00		3.60		3.373e-02		-55.838
4		0.00		3.20		3.341e-02		-52.549
4		0.00		2.80		3.403e-02		-51.253
4		0.00		2.40		3.394e-02		-50.748
4		0.00		2.00		3.319e-02		-51.386
4		0.00		1.60		3.386e-02		-51.968
4		0.00		1.20		3.347e-02		-52.446
4		0.00		0.80		3.319e-02		-53.374
4		0.00		0.40		3.202e-02		-55.483
4		0.00		0.00		3.098e-02		-55.925
4		0.00		-0.40		2.918e-02		-52.443
4		0.00		-0.80		2.702e-02		-51.876
4		0.00		-1.20		2.590e-02		-53.244
4		0.00		-1.60		2.333e-02		-52.808
4		0.00		-2.00		2.086e-02		-53.495
4		0.00		-2.40		1.554e-02		-51.152
4		0.00		-2.80		1.149e-02		-57.150
4		0.00		-3.20		7.657e-03		-52.867
4		0.00		-3.60		5.056e-03		-25.750
4		0.00		-4.00		4.694e-03		-2.757
4		0.00		-4.40		4.207e-03		27.350
4		0.00		-4.80		5.024e-03		74.845
4		0.00		-5.20		6.742e-03		93.948
4		0.00		-5.60		1.134e-02		111.711
4		0.00		-6.00		1.401e-02		116.005
4		0.00		-6.40		1.750e-02		116.206
4		0.00		-6.80		1.961e-02		120.121
4		0.00		-7.20		2.190e-02		123.225
4		0.00		-7.60		2.453e-02		125.996
4		0.00		-8.00		2.629e-02		126.135
4		0.00		-8.40		2.845e-02		128.202
4		0.00		-8.80		3.224e-02		128.351
4		0.00		-9.20		3.317e-02		126.697
4		0.00		-9.60		3.489e-02		123.670
4		0.00		-10.00		3.516e-02		123.725
4		0.00		-9.60		3.451e-02		123.825
4		0.00		-9.20		3.396e-02		125.881
4		0.00		-8.80		3.382e-02		128.782
4		0.00		-8.40		3.172e-02		128.279
4		0.00		-8.00		3.112e-02		128.591
4		0.00		-7.60		2.897e-02		126.601
4		0.00		-7.20		2.921e-02		128.049
4		0.00		-6.80		2.568e-02		123.510
4		0.00		-6.40		2.386e-02		123.064
4		0.00		-6.00		2.192e-02		124.102
4		0.00		-5.60		1.981e-02		127.817
4		0.00		-5.20		1.823e-02		128.022
4		0.00		-4.80		1.591e-02		128.248
4		0.00		-4.40		1.389e-02		127.152
4		0.00		-4.00		1.168e-02		116.973
4		0.00		-3.60		1.006e-02		118.511
4		0.00		-3.20		8.864e-03		116.969
4		0.00		-2.80		7.078e-03		108.110
4		0.00		-2.40		5.380e-03		99.174
4		0.00		-2.00		4.241e-03		98.062
4		0.00		-1.60		3.315e-03		78.276
4		0.00		-1.20		2.690e-03		33.149
4		0.00		-0.80		2.723e-03		0.220
4		0.00		-0.40		2.925e-03		-24.715
5		0.00		0.00		3.894e-03		-50.817
5		0.00		0.40		4.941e-03		-44.906
5		0.00		0.80		6.531e-03		-59.798
5		0.00		1.20		7.893e-03		-57.470
5		0.00		1.60		9.639e-03		-55.122
5		0.00		2.00		1.124e-02		-53.391
5		0.00		2.40		1.127e-02		-55.029
5		0.00		2.80		1.249e-02		-54.598
5		0.00		3.20		1.362e-02		-55.966
5		0.00		3.60		1.604e-02		-52.433
5		0.00		4.00		1.976e-02		-52.262
5		0.00		4.40		2.624e-02		-50.595
5		0.00		4.80		3.307e-02		-52.094
5		0.00		5.20		3.726e-02		-51.971
5		0.00		5.60		3.822e-02		-54.118
5		0.00		6.00		4.020e-02		-54.504
5		0.00		6.40		4.006e-02		-52.792
5		0.00		6.80		4.082e-02		-50.825
5		0.00		7.20		4.185e-02		-49.733
5		0.00		7.60		4.396e-02		-51.053
5		0.00		8.00		4.198e-02		-50.999
5		0.00		8.40		4.340e-02		-52.083
5		0.00		8.80		4.332e-02		-54.187
5		0.00		9.20		4.028e-02		-55.264
5		0.00		9.60		4.119e-02		-52.441
5		0.00		10.00		4.073e-02		-53.812
5		0.00		9.60		4.328e-02		-51.792
5		0.00		9.20		4.272e-02		-51.698
5		0.00		8.80		4.099e-02		-51.220
5		0.00		8.40		3.981e-02		-51.604
5		0.00		8.00		4.131e-02		-52.258
5		0.00		7.60		3.969e-02		-53.775
5		0.00		7.20		4.105e-02		-54.309
5		0.00		6.80		3.727e-02		-50.944
5		0.00		6.40		3.625e-02		-51.136
5		0.00		6.00		3.381e-02		-51.141
5		0.00		5.60		3.363e-02		-52.664
5		0.00		5.20		3.359e-02		-51.787
5		0.00		4.80		3.464e-02		-52.037
5		0.00		4.40		3.358e-02		-52.616
5		0.00		4.00		3.349e-02		-54.248
5		0.00		3.60		3.182e-02		-55.353
5		0.00		3.20		3.069e-02		-54.806
5		0.00		2.80		3.159e-02		-53.280
5		0.00		2.40		3.136e-02		-52.522
5		0.00		2.00		3.062e-02		-50.482
5		0.00		1.60		3.091e-02		-50.283
5		0.00		1.20		3.106e-02		-51.213
5		0.00		0.80		3.121e-02		-52.180
5		0.00		0.40		3.140e-02		-51.785
5		0.00		0.00		3.068e-02		-50.313
5		0.00		-0.40		2.949e-02		-52.458
5		0.00		-0.80		2.669e-02		-53.984
5		0.00		-1.20		2.379e-02		-52.975
5		0.00		-1.60		2.098e-02		-53.133
5		0.00		-2.00		1.883e-02		-52.885
5		0.00		-2.40		1.529e-02		-53.092
5		0.00		-2.80		1.098e-02		-55.028
5		0.00		-3.20		8.501e-03		-59.766
5		0.00		-3.60		5.660e-03		-44.256
5		0.00		-4.00		4.704e-03		56.410
5		0.00		-4.40		5.350e-03		80.737
5		0.00		-4.80		7.750e-03		104.801
5		0.00		-5.20		1.015e-02		111.348
5		0.00		-5.60		1.195e-02		114.400
5		0.00		-6.00		1.485e-02		125.356
5		0.00		-6.40		1.880e-02		125.464
5		0.00		-6.80		2.148e-02		128.686
5		0.00		-7.20		2.365e-02		128.817
5		0.00		-7.60		2.759e-02		127.103
5		0.00		-8.00		2.884e-02		123.163
5		0.00		-8.40		3.083e-02		123.789
5		0.00		-8.80		3.238e-02		120.660
5		0.00		-9.20		3.220e-02		122.864
5		0.00		-9.60		3.313e-02		125.038
5		0.00		-10.00		3.493e-02		126.166
5		0.00		-9.60		3.366e-02		127.081
5		0.00		-9.20		3.349e-02		126.750
5		0.00		-8.80		3.170e-02		128.257
5		0.00		-8.40		3.321e-02		126.480
5		0.00		-8.00		3.201e-02		121.373
5		0.00		-7.60		3.068e-02		121.620
5		0.00		-7.20		2.854e-02		120.168
5		0.00		-6.80		2.680e-02		122.404
5		0.00		-6.40		2.483e-02		125.636
5		0.00		-6.00		2.275e-02		127.031
5		0.00		-5.60		2.039e-02		127.405
5		0.00		-5.20		1.855e-02		127.762
5		0.00		-4.80		1.652e-02		125.763
5		0.00		-4.40		1.471e-02		127.460
5		0.00		-4.00		1.257e-02		121.914
5		0.00		-3.60		1.066e-02		120.925
5		0.00		-3.20		8.796e-03		116.759
5		0.00		-2.80		7.569e-03		110.007
5		0.00		-2.40		5.916e-03		106.210
5		0.00		-2.00		4.375e-03		95.651
5		0.00		-1.60		3.287e-03		79.895
5		0.00		-1.20		2.736e-03		35.079
5		0.00		-0.80		2.626e-03		-15.774
5		0.00		-0.40		3.111e-03		-39.657
6		0.00		0.00		4.099e-03		-54.621
6		0.00		0.40		5.232e-03		-57.838
6		0.00		0.80		6.011e-03		-55.532
6		0.00		1.20		7.356e-03		-46.757
6		0.00		1.60		8.428e-03		-49.011
6		0.00		2.00		1.026e-02		-49.358
6		0.00		2.40		1.140e-02		-48.193
6		0.00		2.80		1.268e-02		-51.578
6		0.00		3.20		1.409e-02		-54.052
6		0.00		3.60		1.655e-02		-50.658
6		0.00		4.00		2.379e-02		-52.094
6		0.00		4.40		2.776e-02		-53.470
6		0.00		4.80		3.291e-02		-54.913
6		0.00		5.20		4.102e-02		-56.319
6		0.00		5.60		3.938e-02		-57.038
6		0.00		6.00		3.970e-02		-54.459
6		0.00		6.40		4.301e-02		-52.852
6		0.00		6.80		4.259e-02		-52.855
6		0.00		7.20		4.378e-02		-50.982
6		0.00		7.60		4.293e-02		-50.700
6		0.00		8.00		4.274e-02		-51.708
6		0.00		8.40		4.377e-02		-51.104
6		0.00		8.80		4.495e-02		-49.826
6		0.00		9.20		4.604e-02		-51.192
6		0.00		9.60		4.637e-02		-52.544
6		0.00		10.00		4.637e-02		-53.133
6		0.00		9.60		4.063e-02		-53.803
6		0.00		9.20		4.189e-02		-54.802
6		0.00		8.80		4.258e-02		-51.274
6		0.00		8.40		3.838e-02		-52.220
6		0.00		8.00		3.417e-02		-52.039
6		0.00		7.60		3.598e-02		-51.879
6		0.00		7.20		4.037e-02		-52.157
6		0.00		6.80		3.689e-02		-51.974
6		0.00		6.40		3.774e-02		-53.062
6		0.00		6.00		3.472e-02		-52.338
6		0.00		5.60		3.564e-02		-54.204
6		0.00		5.20		3.603e-02		-53.957
6		0.00		4.80		3.407e-02		-54.487
6		0.00		4.40		3.447e-02		-53.225
6		0.00		4.00		3.208e-02		-53.568
6		0.00		3.60		3.286e-02		-52.849
6		0.00		3.20		3.282e-02		-51.783
6		0.00		2.80		3.312e-02		-53.591
6		0.00		2.40		3.307e-02		-53.252
6		0.00		2.00		3.206e-02		-54.274
6		0.00		1.60		2.999e-02		-54.532
6		0.00		1.20		2.922e-02		-56.916
6		0.00		0.80		2.928e-02		-55.700
6		0.00		0.40		2.889e-02		-55.179
6		0.00		0.00		2.935e-02		-53.749
6		0.00		-0.40		2.817e-02		-53.749
6		0.00		-0.80		2.679e-02		-54.626
6		0.00		-1.20		2.577e-02		-54.022
6		0.00		-1.60		2.354e-02		-53.485
6		0.00		-2.00		2.077e-02		-53.538
6		0.00		-2.40		1.738e-02		-53.479
6		0.00		-2.80		1.271e-02		-50.733
6		0.00		-3.20		9.159e-03		-56.688
6		0.00		-3.60		6.517e-03		-52.927
6		0.00		-4.00		4.686e-03		1.224
6		0.00		-4.40		4.888e-03		65.066
6		0.00		-4.80		7.101e-03		95.163
6		0.00		-5.20		1.022e-02		111.349
6		0.00		-5.60		1.263e-02		116.074
6		0.00		-6.00		1.594e-02		116.924
6		0.00		-6.40		1.940e-02		115.589
6		0.00		-6.80		2.397e-02		120.676
6		0.00		-7.20		2.545e-02		119.204
6		0.00		-7.60		2.852e-02		119.452
6		0.00		-8.00		3.186e-02		120.695
6		0.00		-8.40		3.296e-02		123.263
6		0.00		-8.80		3.334e-02		125.135
6		0.00		-9.20		3.672e-02		127.122
6		0.00		-9.60		3.606e-02		127.818
6		0.00		-10.00		3.730e-02		127.646
6		0.00		-9.60		3.683e-02		128.021
6		0.00		-9.20		3.852e-02		124.718
6		0.00		-8.80		3.674e-02		124.860
6		0.00		-8.40		3.537e-02		123.567
6		0.00		-8.00		3.325e-02		121.071
6		0.00		-7.60		3.230e-02		121.602
6		0.00		-7.20		2.853e-02		122.422
6		0.00		-6.80		2.743e-02		120.458
6		0.00		-6.40		2.364e-02		124.131
6		0.00		-6.00		2.276e-02		125.961
6		0.00		-5.60		2.061e-02		127.268
6		0.00		-5.20		1.836e-02		126.961
6		0.00		-4.80		1.664e-02		125.241
6		0.00		-4.40		1.457e-02		118.930
6		0.00		-4.00		1.306e-02		118.975
6		0.00		-3.60		1.087e-02		115.435
6		0.00		-3.20		9.775e-03		114.819
6		0.00		-2.80		8.498e-03		114.538
6		0.00		-2.40		6.857e-03		110.107
6		0.00		-2.00		5.493e-03		95.605
6		0.00		-1.60		4.237e-03		83.239
6		0.00		-1.20		2.960e-03		48.383
6		0.00		-0.80		2.328e-03		28.301
6		0.00		-0.40		2.665e-03		-11.328
7		0.00		0.00		3.461e-03		-31.198
7		0.00		0.40		4.278e-03		-49.677
7		0.00		0.80		5.723e-03		-56.197
7		0.00		1.20		6.526e-03		-52.112
7		0.00		1.60		7.764e-03		-54.607
7		0.00		2.00		9.125e-03		-53.439
7		0.00		2.40		9.410e-03		-54.825
7		0.00		2.80		1.056e-02		-59.178
7		0.00		3.20		1.203e-02		-55.670
7		0.00		3.60		1.669e-02		-55.012
7		0.00		4.00		2.307e-02		-52.894
7		0.00		4.40		2.977e-02		-53.422
7		0.00		4.80		3.396e-02		-52.336
7		0.00		5.20		3.775e-02		-52.081
7		0.00		5.60		3.645e-02		-52.368
7		0.00		6.00		4.282e-02		-52.305
7		0.00		6.40		4.267e-02		-51.337
7		0.00		6.80		4.325e-02		-51.952
7		0.00		7.20		4.559e-02		-53.277
7		0.00		7.60		4.772e-02		-54.288
7		0.00		8.00		4.537e-02		-54.347
7		0.00		8.40		4.525e-02		-53.580
7		0.00		8.80		4.481e-02		-56.243
7		0.00		9.20		4.455e-02		-52.312
7		0.00		9.60		4.202e-02		-50.133
7		0.00		10.00		4.250e-02		-50.094
7		0.00		9.60		4.479e-02		-49.850
7		0.00		9.20		4.492e-02		-50.127
7		0.00		8.80		4.451e-02		-50.023
7		0.00		8.40		4.586e-02		-50.072
7		0.00		8.00		4.578e-02		-50.458
7		0.00		7.60		4.487e-02		-49.567
7		0.00		7.20		4.452e-02		-51.323
7		0.00		6.80		4.127e-02		-51.202
7		0.00		6.40		4.139e-02		-52.227
7		0.00		6.00		3.973e-02		-52.148
7		0.00		5.60		3.807e-02		-51.808
7		0.00		5.20		3.795e-02		-53.054
7		0.00		4.80		3.695e-02		-55.123
7		0.00		4.40		3.687e-02		-54.917
7		0.00		4.00		3.683e-02		-54.825
7		0.00		3.60		3.617e-02		-53.246
7		0.00		3.20		3.562e-02		-52.533
7		0.00		2.80		3.575e-02		-51.365
7		0.00		2.40		3.650e-02		-51.253
7		0.00		2.00		3.750e-02		-51.614
7		0.00		1.60		3.653e-02		-51.789
7		0.00		1.20		3.636e-02		-51.441
7		0.00		0.80		3.585e-02		-51.105
7		0.00		0.40		3.567e-02		-50.838
7		0.00		0.00		3.482e-02		-51.941
7		0.00		-0.40		3.218e-02		-50.197
7		0.00		-0.80		2.985e-02		-50.906
7		0.00		-1.20		2.757e-02		-50.557
7		0.00		-1.60		2.519e-02		-52.209
7		0.00		-2.00		2.105e-02		-51.039
7		0.00		-2.40		1.755e-02		-54.381
7		0.00		-2.80		1.374e-02		-52.613
7		0.00		-3.20		1.138e-02		-50.827
7		0.00		-3.60		6.889e-03		-54.461
7		0.00		-4.00		4.711e-03		-30.560
7		0.00		-4.40		4.117e-03		53.100
7		0.00		-4.80		5.916e-03		87.363
7		0.00		-5.20		8.203e-03		100.702
7		0.00		-5.60		1.164e-02		115.967
7		0.00		-6.00		1.500e-02		117.762
7		0.00		-6.40		1.779e-02		123.220
7		0.00		-6.80		2.114e-02		125.192
7		0.00		-7.20		2.575e-02		125.779
7		0.00		-7.60		2.647e-02		126.101
7		0.00		-8.00		3.069e-02		128.555
7		0.00		-8.40		3.276e-02		129.534
7		0.00		-8.80		3.487e-02		129.102
7		0.00		-9.20		3.557e-02		128.555
7		0.00		-9.60		3.667e-02		128.277
7		0.00		-10.00		3.726e-02		127.676
7		0.00		-9.60		3.765e-02		128.811
7		0.00		-9.20		3.477e-02		127.813
7		0.00		-8.80		3.599e-02		128.165
7		0.00		-8.40		3.283e-02		127.631
7		0.00		-8.00		3.244e-02		126.796
7		0.00		-7.60		3.156e-02		126.816
7		0.00		-7.20		2.995e-02		124.494
7		0.00		-6.80		2.835e-02		124.033
7		0.00		-6.40		2.583e-02		125.479
7		0.00		-6.00		2.324e-02		123.785
7		0.00		-5.60		2.108e-02		123.008
7		0.00		-5.20		1.926e-02		122.932
7		0.00		-4.80		1.770e-02		123.688
7		0.00		-4.40		1.528e-02		123.952
7		0.00		-4.00		1.317e-02		124.995
7		0.00		-3.60		1.166e-02		124.629
7		0.00		-3.20		9.607e-03		120.563
7		0.00		-2.80		7.748e-03		120.605
7		0.00		-2.40		6.104e-03		113.059
7		0.00		-2.00		4.747e-03		101.147
7		0.00		-1.60		3.544e-03		81.055
7		0.00		-1.20		2.728e-03		22.863
7		0.00		-0.80		2.697e-03		-14.836
7		0.00		-0.40		3.057e-03		-56.185
8		0.00		0.00		4.438e-03		-53.123
8		0.00		0.40		5.594e-03		-57.265
8		0.00		0.80		7.258e-03		-56.384
8		0.00		1.20		8.348e-03		-52.727
8		0.00		1.60		9.479e-03		-55.386
8		0.00		2.00		1.100e-02		-52.216
8		0.00		2.40		1.245e-02		-51.668
8		0.00		2.80		1.356e-02		-51.863
8		0.00		3.20		1.504e-02		-51.039
8		0.00		3.60		2.069e-02		-53.314
8		0.00		4.00		2.812e-02		-53.579
8		0.00		4.40		3.195e-02		-52.674
8		0.00		4.80		3.511e-02		-52.104
8		0.00		5.20		3.970e-02		-52.833
8		0.00		5.60		4.157e-02		-52.352
8		0.00		6.00		4.287e-02		-52.669
8		0.00		6.40		4.537e-02		-52.411
8		0.00		6.80		4.586e-02		-51.911
8		0.00		7.20		4.296e-02		-51.414
8		0.00		7.60		4.322e-02		-52.271
8		0.00		8.00		4.588e-02		-53.572
8		0.00		8.40		4.612e-02		-54.252
8		0.00		8.80		4.846e-02		-53.948
8		0.00		9.20		4.818e-02		-53.663
8		0.00		9.60		4.622e-02		-52.218
8		0.00		10.00		4.844e-02		-51.943
8		0.00		9.60		4.744e-02		-50.738
8		0.00		9.20		4.594e-02		-50.513
8		0.00		8.80		4.694e-02		-50.518
8		0.00		8.40		4.522e-02		-50.600
8		0.00		8.00		4.609e-02		-51.247
8		0.00		7.60		4.625e-02		-50.932
8		0.00		7.20		4.511e-02		-50.967
8		0.00		6.80		4.130e-02		-52.486
8		0.00		6.40		4.283e-02		-53.108
8		0.00		6.00		3.978e-02		-53.501
8		0.00		5.60		3.610e-02		-55.088
8		0.00		5.20		3.744e-02		-55.414
8		0.00		4.80		3.854e-02		-55.383
8		0.00		4.40		3.861e-02		-52.777
8		0.00		4.00		3.747e-02		-51.843
8		0.00		3.60		3.803e-02		-52.452
8		0.00		3.20		3.703e-02		-50.990
8		0.00		2.80		3.792e-02		-51.473
8		0.00		2.40		3.719e-02		-50.715
8		0.00		2.00		3.761e-02		-50.774
8		0.00		1.60		3.785e-02		-51.988
8		0.00		1.20		3.658e-02		-50.663
8		0.00		0.80		3.704e-02		-51.648
8		0.00		0.40		3.523e-02		-51.748
8		0.00		0.00		3.318e-02		-51.906
8		0.00		-0.40		3.147e-02		-53.117
8		0.00		-0.80		2.829e-02		-54.479
8		0.00		-1.20		2.549e-02		-54.148
8		0.00		-1.60		2.355e-02		-55.431
8		0.00		-2.00		1.988e-02		-57.232
8		0.00		-2.40		1.620e-02		-53.308
8		0.00		-2.80		1.409e-02		-54.436
8		0.00		-3.20		1.074e-02		-61.494
8		0.00		-3.60		7.944e-03		-60.274
8		0.00		-4.00		4.792e-03		-22.651
8		0.00		-4.40		4.510e-03		35.084
8		0.00		-4.80		6.070e-03		80.749
8		0.00		-5.20		8.367e-03		107.336
8		0.00		-5.60		1.388e-02		123.000
8		0.00		-6.00		1.786e-02		122.371
8		0.00		-6.40		2.104e-02		125.566
8		0.00		-6.80		2.314e-02		123.700
8		0.00		-7.20		2.750e-02		123.089
8		0.00		-7.60		2.951e-02		121.825
8		0.00		-8.00		3.190e-02		121.434
8		0.00		-8.40		3.430e-02		121.357
8		0.00		-8.80		3.466e-02		120.589
8		0.00		-9.20		3.605e-02		120.658
8		0.00		-9.60		3.680e-02		121.285
8		0.00		-10.00		3.962e-02		124.837
8		0.00		-9.60		3.852e-02		124.881
8		0.00		-9.20		3.783e-02		125.292
8		0.00		-8.80		3.592e-02		127.564
8		0.00		-8.40		3.553e-02		126.618
8		0.00		-8.00		3.284e-02		126.741
8		0.00		-7.60		3.168e-02		127.590
8		0.00		-7.20		3.006e-02		128.969
8		0.00		-6.80		2.798e-02		130.296
8		0.00		-6.40		2.635e-02		128.888
8		0.00		-6.00		2.252e-02		130.111
8		0.00		-5.60		2.143e-02		128.436
8		0.00		-5.20		1.945e-02		128.686
8		0.00		-4.80		1.685e-02		128.232
8		0.00		-4.40		1.476e-02		127.566
8		0.00		-4.00		1.302e-02		122.804
8		0.00		-3.60		1.072e-02		125.783
8		0.00		-3.20		9.062e-03		118.674
8		0.00		-2.80		7.168e-03		114.260
8		0.00		-2.40		5.401e-03		104.215
8		0.00		-2.00		4.413e-03		80.539
8		0.00		-1.60		3.174e-03		47.385
8		0.00		-1.20		2.631e-03		21.668
8		0.00		-0.80		2.921e-03		-29.530
8		0.00		-0.40		4.036e-03		-50.223
