# Date of analysis: 2023-10-05 17;23
# 
# Loop index	Read Volt (V)	Write Volt (V)	Amplitude (a.u)	Phase (°)	
1		0.00		0.00		1.083e-02		-49.879
1		0.00		0.40		1.058e-02		-45.523
1		0.00		0.80		1.055e-02		-48.481
1		0.00		1.20		1.036e-02		-47.847
1		0.00		1.60		1.023e-02		-44.183
1		0.00		2.00		1.040e-02		-48.147
1		0.00		2.40		1.034e-02		-51.638
1		0.00		2.80		1.067e-02		-46.838
1		0.00		3.20		1.099e-02		-44.898
1		0.00		3.60		1.136e-02		-48.313
1		0.00		4.00		1.215e-02		-49.954
1		0.00		4.40		1.281e-02		-50.051
1		0.00		4.80		1.311e-02		-45.286
1		0.00		5.20		1.400e-02		-49.909
1		0.00		5.60		1.467e-02		-47.806
1		0.00		6.00		1.490e-02		-48.668
1		0.00		6.40		1.599e-02		-49.040
1		0.00		6.80		1.704e-02		-49.978
1		0.00		7.20		1.759e-02		-51.435
1		0.00		7.60		1.851e-02		-51.108
1		0.00		8.00		1.973e-02		-50.106
1		0.00		8.40		2.051e-02		-49.257
1		0.00		8.80		2.250e-02		-50.551
1		0.00		9.20		2.406e-02		-51.355
1		0.00		9.60		2.599e-02		-51.302
1		0.00		10.00		2.750e-02		-52.596
1		0.00		9.60		2.922e-02		-51.693
1		0.00		9.20		3.051e-02		-51.641
1		0.00		8.80		3.104e-02		-51.910
1		0.00		8.40		3.096e-02		-51.668
1		0.00		8.00		3.034e-02		-50.320
1		0.00		7.60		2.985e-02		-49.359
1		0.00		7.20		3.000e-02		-51.266
1		0.00		6.80		2.950e-02		-51.610
1		0.00		6.40		2.905e-02		-49.322
1		0.00		6.00		2.958e-02		-50.583
1		0.00		5.60		2.984e-02		-52.194
1		0.00		5.20		2.969e-02		-53.877
1		0.00		4.80		2.960e-02		-50.725
1		0.00		4.40		2.915e-02		-51.173
1		0.00		4.00		2.838e-02		-50.297
1		0.00		3.60		2.762e-02		-50.754
1		0.00		3.20		2.735e-02		-51.155
1		0.00		2.80		2.734e-02		-51.428
1		0.00		2.40		2.753e-02		-52.073
1		0.00		2.00		2.745e-02		-50.461
1		0.00		1.60		2.797e-02		-54.218
1		0.00		1.20		2.745e-02		-53.189
1		0.00		0.80		2.767e-02		-50.617
1		0.00		0.40		2.685e-02		-51.563
1		0.00		0.00		2.705e-02		-51.713
1		0.00		-0.40		2.726e-02		-50.593
1		0.00		-0.80		2.667e-02		-49.470
1		0.00		-1.20		2.653e-02		-51.196
1		0.00		-1.60		2.585e-02		-50.936
1		0.00		-2.00		2.700e-02		-51.087
1		0.00		-2.40		2.711e-02		-51.131
1		0.00		-2.80		2.585e-02		-50.856
1		0.00		-3.20		2.475e-02		-50.073
1		0.00		-3.60		2.411e-02		-50.597
1		0.00		-4.00		2.276e-02		-49.874
1		0.00		-4.40		2.209e-02		-50.720
1		0.00		-4.80		2.068e-02		-49.814
1		0.00		-5.20		1.912e-02		-50.161
1		0.00		-5.60		1.779e-02		-48.340
1		0.00		-6.00		1.613e-02		-51.495
1		0.00		-6.40		1.415e-02		-47.883
1		0.00		-6.80		1.033e-02		-43.873
1		0.00		-7.20		5.811e-03		-37.326
1		0.00		-7.60		3.703e-03		-39.710
1		0.00		-8.00		1.690e-03		20.529
1		0.00		-8.40		3.572e-03		96.496
1		0.00		-8.80		5.697e-03		110.368
1		0.00		-9.20		8.459e-03		114.640
1		0.00		-9.60		1.017e-02		117.674
1		0.00		-10.00		1.214e-02		124.527
1		0.00		-9.60		1.262e-02		122.165
1		0.00		-9.20		1.354e-02		123.938
1		0.00		-8.80		1.345e-02		124.998
1		0.00		-8.40		1.349e-02		126.561
1		0.00		-8.00		1.297e-02		122.247
1		0.00		-7.60		1.318e-02		119.908
1		0.00		-7.20		1.228e-02		120.576
1		0.00		-6.80		1.203e-02		121.776
1		0.00		-6.40		1.212e-02		122.312
1		0.00		-6.00		1.143e-02		121.829
1		0.00		-5.60		1.122e-02		122.606
1		0.00		-5.20		1.092e-02		123.543
1		0.00		-4.80		1.041e-02		122.571
1		0.00		-4.40		9.958e-03		123.215
1		0.00		-4.00		9.590e-03		121.354
1		0.00		-3.60		9.466e-03		119.284
1		0.00		-3.20		9.039e-03		122.536
1		0.00		-2.80		8.870e-03		125.844
1		0.00		-2.40		8.605e-03		116.541
1		0.00		-2.00		8.475e-03		121.129
1		0.00		-1.60		8.468e-03		121.072
1		0.00		-1.20		8.136e-03		119.961
1		0.00		-0.80		8.359e-03		120.816
1		0.00		-0.40		8.078e-03		121.895
2		0.00		0.00		8.024e-03		122.249
2		0.00		0.40		7.738e-03		121.655
2		0.00		0.80		7.160e-03		125.089
2		0.00		1.20		7.044e-03		121.729
2		0.00		1.60		6.842e-03		118.855
2		0.00		2.00		6.083e-03		115.009
2		0.00		2.40		5.366e-03		118.806
2		0.00		2.80		4.261e-03		113.332
2		0.00		3.20		3.494e-03		101.418
2		0.00		3.60		2.898e-03		105.833
2		0.00		4.00		2.315e-03		70.780
2		0.00		4.40		1.776e-03		28.551
2		0.00		4.80		1.764e-03		-3.164
2		0.00		5.20		2.158e-03		-37.886
2		0.00		5.60		2.610e-03		-48.782
2		0.00		6.00		3.274e-03		-39.759
2		0.00		6.40		5.251e-03		-48.779
2		0.00		6.80		5.778e-03		-50.077
2		0.00		7.20		7.030e-03		-48.282
2		0.00		7.60		7.761e-03		-50.158
2		0.00		8.00		9.642e-03		-45.357
2		0.00		8.40		9.939e-03		-51.639
2		0.00		8.80		1.188e-02		-46.342
2		0.00		9.20		1.360e-02		-47.388
2		0.00		9.60		1.586e-02		-53.391
2		0.00		10.00		1.850e-02		-53.085
2		0.00		9.60		2.059e-02		-51.968
2		0.00		9.20		2.173e-02		-52.878
2		0.00		8.80		2.216e-02		-52.144
2		0.00		8.40		2.236e-02		-51.690
2		0.00		8.00		2.224e-02		-51.504
2		0.00		7.60		2.221e-02		-51.223
2		0.00		7.20		2.200e-02		-53.279
2		0.00		6.80		2.198e-02		-49.723
2		0.00		6.40		2.189e-02		-51.004
2		0.00		6.00		2.119e-02		-51.593
2		0.00		5.60		2.127e-02		-50.663
2		0.00		5.20		2.159e-02		-51.188
2		0.00		4.80		2.138e-02		-50.982
2		0.00		4.40		2.128e-02		-51.578
2		0.00		4.00		2.091e-02		-51.416
2		0.00		3.60		2.110e-02		-49.958
2		0.00		3.20		2.073e-02		-51.289
2		0.00		2.80		2.031e-02		-50.312
2		0.00		2.40		2.044e-02		-50.650
2		0.00		2.00		1.978e-02		-51.036
2		0.00		1.60		2.002e-02		-50.430
2		0.00		1.20		1.936e-02		-50.648
2		0.00		0.80		1.964e-02		-51.730
2		0.00		0.40		2.042e-02		-50.888
2		0.00		0.00		2.008e-02		-51.287
2		0.00		-0.40		2.011e-02		-53.365
2		0.00		-0.80		1.981e-02		-49.780
2		0.00		-1.20		1.920e-02		-52.089
2		0.00		-1.60		1.872e-02		-50.883
2		0.00		-2.00		1.873e-02		-49.674
2		0.00		-2.40		1.803e-02		-50.752
2		0.00		-2.80		1.795e-02		-50.072
2		0.00		-3.20		1.734e-02		-51.993
2		0.00		-3.60		1.698e-02		-50.736
2		0.00		-4.00		1.650e-02		-48.477
2		0.00		-4.40		1.541e-02		-50.153
2		0.00		-4.80		1.480e-02		-47.815
2		0.00		-5.20		1.337e-02		-48.284
2		0.00		-5.60		1.208e-02		-48.824
2		0.00		-6.00		1.067e-02		-49.185
2		0.00		-6.40		9.338e-03		-50.323
2		0.00		-6.80		7.641e-03		-38.903
2		0.00		-7.20		5.811e-03		-36.059
2		0.00		-7.60		3.736e-03		-48.999
2		0.00		-8.00		2.146e-03		3.225
2		0.00		-8.40		3.219e-03		90.844
2		0.00		-8.80		5.236e-03		111.010
2		0.00		-9.20		7.034e-03		119.259
2		0.00		-9.60		8.439e-03		121.790
2		0.00		-10.00		1.184e-02		122.066
2		0.00		-9.60		1.219e-02		123.385
2		0.00		-9.20		1.206e-02		122.000
2		0.00		-8.80		1.254e-02		123.999
2		0.00		-8.40		1.208e-02		123.888
2		0.00		-8.00		1.216e-02		120.715
2		0.00		-7.60		1.225e-02		123.854
2		0.00		-7.20		1.179e-02		123.730
2		0.00		-6.80		1.114e-02		122.743
2		0.00		-6.40		1.114e-02		126.546
2		0.00		-6.00		1.050e-02		122.889
2		0.00		-5.60		1.025e-02		121.060
2		0.00		-5.20		9.942e-03		120.067
2		0.00		-4.80		1.015e-02		124.751
2		0.00		-4.40		9.691e-03		122.104
2		0.00		-4.00		9.749e-03		121.429
2		0.00		-3.60		9.455e-03		122.297
2		0.00		-3.20		9.162e-03		123.551
2		0.00		-2.80		9.097e-03		119.446
2		0.00		-2.40		9.309e-03		124.462
2		0.00		-2.00		8.879e-03		123.940
2		0.00		-1.60		8.387e-03		121.845
2		0.00		-1.20		8.545e-03		120.054
2		0.00		-0.80		8.424e-03		117.057
2		0.00		-0.40		8.438e-03		122.381
3		0.00		0.00		8.033e-03		124.641
3		0.00		0.40		7.829e-03		122.520
3		0.00		0.80		7.417e-03		120.553
3		0.00		1.20		7.100e-03		125.152
3		0.00		1.60		6.441e-03		121.307
3		0.00		2.00		6.110e-03		121.494
3		0.00		2.40		5.477e-03		115.962
3		0.00		2.80		4.612e-03		112.451
3		0.00		3.20		4.118e-03		112.254
3		0.00		3.60		3.259e-03		99.437
3		0.00		4.00		2.276e-03		72.719
3		0.00		4.40		1.777e-03		34.590
3		0.00		4.80		1.758e-03		12.381
3		0.00		5.20		2.002e-03		-31.049
3		0.00		5.60		2.378e-03		-50.709
3		0.00		6.00		3.691e-03		-52.667
3		0.00		6.40		4.416e-03		-55.132
3		0.00		6.80		5.497e-03		-53.097
3		0.00		7.20		6.211e-03		-44.218
3		0.00		7.60		7.678e-03		-50.391
3		0.00		8.00		8.767e-03		-52.363
3		0.00		8.40		9.493e-03		-47.631
3		0.00		8.80		1.141e-02		-48.454
3		0.00		9.20		1.280e-02		-44.427
3		0.00		9.60		1.477e-02		-49.863
3		0.00		10.00		1.710e-02		-50.383
3		0.00		9.60		1.806e-02		-50.482
3		0.00		9.20		1.937e-02		-50.647
3		0.00		8.80		2.008e-02		-50.668
3		0.00		8.40		2.041e-02		-51.348
3		0.00		8.00		2.070e-02		-54.805
3		0.00		7.60		2.066e-02		-50.225
3		0.00		7.20		2.009e-02		-50.602
3		0.00		6.80		2.025e-02		-51.637
3		0.00		6.40		1.984e-02		-47.821
3		0.00		6.00		1.994e-02		-50.522
3		0.00		5.60		1.948e-02		-48.307
3		0.00		5.20		1.921e-02		-50.001
3		0.00		4.80		1.901e-02		-49.282
3		0.00		4.40		1.903e-02		-48.820
3		0.00		4.00		1.894e-02		-51.569
3		0.00		3.60		1.872e-02		-53.182
3		0.00		3.20		1.865e-02		-49.008
3		0.00		2.80		1.848e-02		-48.515
3		0.00		2.40		1.854e-02		-48.548
3		0.00		2.00		1.793e-02		-51.428
3		0.00		1.60		1.818e-02		-50.932
3		0.00		1.20		1.779e-02		-51.113
3		0.00		0.80		1.761e-02		-52.173
3		0.00		0.40		1.730e-02		-47.773
3		0.00		0.00		1.700e-02		-49.248
3		0.00		-0.40		1.723e-02		-50.142
3		0.00		-0.80		1.701e-02		-51.707
3		0.00		-1.20		1.645e-02		-51.550
3		0.00		-1.60		1.675e-02		-49.098
3		0.00		-2.00		1.668e-02		-52.343
3		0.00		-2.40		1.650e-02		-47.935
3		0.00		-2.80		1.606e-02		-48.068
3		0.00		-3.20		1.544e-02		-49.553
3		0.00		-3.60		1.501e-02		-47.783
3		0.00		-4.00		1.422e-02		-49.458
3		0.00		-4.40		1.394e-02		-47.352
3		0.00		-4.80		1.300e-02		-49.028
3		0.00		-5.20		1.189e-02		-47.362
3		0.00		-5.60		1.067e-02		-45.947
3		0.00		-6.00		9.489e-03		-44.852
3		0.00		-6.40		8.488e-03		-45.268
3		0.00		-6.80		6.908e-03		-42.877
3		0.00		-7.20		5.641e-03		-42.528
3		0.00		-7.60		4.217e-03		-30.791
3		0.00		-8.00		2.167e-03		-36.646
3		0.00		-8.40		1.924e-03		47.304
3		0.00		-8.80		4.581e-03		109.988
3		0.00		-9.20		7.367e-03		120.462
3		0.00		-9.60		1.028e-02		120.702
3		0.00		-10.00		1.225e-02		123.021
3		0.00		-9.60		1.313e-02		126.041
3		0.00		-9.20		1.348e-02		123.618
3		0.00		-8.80		1.389e-02		124.167
3		0.00		-8.40		1.318e-02		125.661
3		0.00		-8.00		1.303e-02		125.323
3		0.00		-7.60		1.274e-02		121.036
3		0.00		-7.20		1.250e-02		122.536
3		0.00		-6.80		1.217e-02		127.563
3		0.00		-6.40		1.248e-02		123.925
3		0.00		-6.00		1.184e-02		123.089
3		0.00		-5.60		1.161e-02		123.089
3		0.00		-5.20		1.162e-02		125.358
3		0.00		-4.80		1.099e-02		125.102
3		0.00		-4.40		1.054e-02		120.270
3		0.00		-4.00		1.055e-02		123.109
3		0.00		-3.60		1.007e-02		120.402
3		0.00		-3.20		1.004e-02		127.318
3		0.00		-2.80		9.825e-03		126.141
3		0.00		-2.40		9.540e-03		124.620
3		0.00		-2.00		9.414e-03		123.665
3		0.00		-1.60		9.061e-03		125.898
3		0.00		-1.20		9.137e-03		123.532
3		0.00		-0.80		8.717e-03		121.736
3		0.00		-0.40		8.769e-03		124.846
4		0.00		0.00		8.839e-03		123.471
4		0.00		0.40		8.612e-03		118.364
4		0.00		0.80		8.447e-03		121.452
4		0.00		1.20		8.610e-03		123.283
4		0.00		1.60		7.433e-03		125.360
4		0.00		2.00		7.015e-03		122.359
4		0.00		2.40		6.376e-03		126.981
4		0.00		2.80		5.635e-03		129.860
4		0.00		3.20		4.746e-03		118.612
4		0.00		3.60		4.441e-03		118.869
4		0.00		4.00		2.952e-03		101.143
4		0.00		4.40		2.417e-03		81.318
4		0.00		4.80		1.795e-03		48.089
4		0.00		5.20		1.994e-03		2.963
4		0.00		5.60		2.071e-03		-43.701
4		0.00		6.00		2.647e-03		-50.508
4		0.00		6.40		3.528e-03		-54.084
4		0.00		6.80		4.416e-03		-61.139
4		0.00		7.20		5.473e-03		-54.119
4		0.00		7.60		7.131e-03		-49.483
4		0.00		8.00		8.200e-03		-43.818
4		0.00		8.40		9.250e-03		-44.655
4		0.00		8.80		1.056e-02		-51.553
4		0.00		9.20		1.194e-02		-44.336
4		0.00		9.60		1.358e-02		-47.026
4		0.00		10.00		1.591e-02		-53.328
4		0.00		9.60		1.669e-02		-50.005
4		0.00		9.20		1.717e-02		-51.624
4		0.00		8.80		1.793e-02		-49.355
4		0.00		8.40		1.789e-02		-50.170
4		0.00		8.00		1.788e-02		-52.889
4		0.00		7.60		1.783e-02		-49.947
4		0.00		7.20		1.769e-02		-48.951
4		0.00		6.80		1.772e-02		-45.682
4		0.00		6.40		1.763e-02		-50.518
4		0.00		6.00		1.772e-02		-51.032
4		0.00		5.60		1.766e-02		-48.905
4		0.00		5.20		1.747e-02		-48.920
4		0.00		4.80		1.722e-02		-48.309
4		0.00		4.40		1.706e-02		-50.003
4		0.00		4.00		1.714e-02		-50.542
4		0.00		3.60		1.674e-02		-51.724
4		0.00		3.20		1.643e-02		-50.492
4		0.00		2.80		1.653e-02		-49.727
4		0.00		2.40		1.648e-02		-49.433
4		0.00		2.00		1.631e-02		-49.206
4		0.00		1.60		1.596e-02		-49.417
4		0.00		1.20		1.636e-02		-50.229
4		0.00		0.80		1.625e-02		-49.460
4		0.00		0.40		1.604e-02		-49.679
4		0.00		0.00		1.613e-02		-50.318
4		0.00		-0.40		1.635e-02		-49.111
4		0.00		-0.80		1.545e-02		-48.810
4		0.00		-1.20		1.562e-02		-47.261
4		0.00		-1.60		1.551e-02		-47.252
4		0.00		-2.00		1.524e-02		-48.719
4		0.00		-2.40		1.488e-02		-50.038
4		0.00		-2.80		1.456e-02		-45.632
4		0.00		-3.20		1.389e-02		-47.043
4		0.00		-3.60		1.327e-02		-49.839
4		0.00		-4.00		1.340e-02		-48.507
4		0.00		-4.40		1.286e-02		-45.328
4		0.00		-4.80		1.206e-02		-48.509
4		0.00		-5.20		1.027e-02		-49.203
4		0.00		-5.60		9.459e-03		-46.842
4		0.00		-6.00		8.696e-03		-49.212
4		0.00		-6.40		7.702e-03		-43.986
4		0.00		-6.80		6.806e-03		-38.817
4		0.00		-7.20		5.448e-03		-41.171
4		0.00		-7.60		3.366e-03		-65.193
4		0.00		-8.00		2.155e-03		-6.414
4		0.00		-8.40		1.823e-03		18.291
4		0.00		-8.80		4.035e-03		107.500
4		0.00		-9.20		6.356e-03		117.277
4		0.00		-9.60		9.074e-03		119.592
4		0.00		-10.00		1.007e-02		122.172
4		0.00		-9.60		1.166e-02		126.540
4		0.00		-9.20		1.209e-02		124.254
4		0.00		-8.80		1.220e-02		125.222
4		0.00		-8.40		1.212e-02		125.840
4		0.00		-8.00		1.188e-02		126.426
4		0.00		-7.60		1.126e-02		124.311
4		0.00		-7.20		1.132e-02		124.685
4		0.00		-6.80		1.096e-02		126.431
4		0.00		-6.40		1.079e-02		121.262
4		0.00		-6.00		1.026e-02		121.905
4		0.00		-5.60		1.052e-02		122.580
4		0.00		-5.20		1.001e-02		122.928
4		0.00		-4.80		9.687e-03		123.857
4		0.00		-4.40		9.419e-03		125.092
4		0.00		-4.00		9.418e-03		120.861
4		0.00		-3.60		9.524e-03		122.529
4		0.00		-3.20		9.580e-03		124.945
4		0.00		-2.80		9.393e-03		123.325
4		0.00		-2.40		9.312e-03		121.248
4		0.00		-2.00		9.323e-03		122.427
4		0.00		-1.60		9.252e-03		121.106
4		0.00		-1.20		8.874e-03		122.662
4		0.00		-0.80		8.948e-03		118.424
4		0.00		-0.40		8.896e-03		123.394
5		0.00		0.00		8.979e-03		123.950
5		0.00		0.40		8.439e-03		122.995
5		0.00		0.80		8.286e-03		121.345
5		0.00		1.20		8.197e-03		122.538
5		0.00		1.60		7.928e-03		119.750
5		0.00		2.00		6.961e-03		122.560
5		0.00		2.40		6.132e-03		123.420
5		0.00		2.80		5.217e-03		109.964
5		0.00		3.20		4.447e-03		116.672
5		0.00		3.60		3.528e-03		104.747
5		0.00		4.00		3.125e-03		86.604
5		0.00		4.40		2.337e-03		69.754
5		0.00		4.80		2.000e-03		37.420
5		0.00		5.20		1.703e-03		-10.721
5		0.00		5.60		1.877e-03		-45.231
5		0.00		6.00		2.730e-03		-54.086
5		0.00		6.40		3.319e-03		-64.197
5		0.00		6.80		4.208e-03		-52.417
5		0.00		7.20		5.536e-03		-48.575
5		0.00		7.60		6.604e-03		-47.818
5		0.00		8.00		7.974e-03		-52.431
5		0.00		8.40		9.473e-03		-51.828
5		0.00		8.80		9.844e-03		-50.348
5		0.00		9.20		1.154e-02		-49.233
5		0.00		9.60		1.268e-02		-50.158
5		0.00		10.00		1.504e-02		-51.208
5		0.00		9.60		1.583e-02		-49.393
5		0.00		9.20		1.683e-02		-48.933
5		0.00		8.80		1.707e-02		-52.374
5		0.00		8.40		1.715e-02		-47.537
5		0.00		8.00		1.695e-02		-52.194
5		0.00		7.60		1.683e-02		-50.342
5		0.00		7.20		1.735e-02		-50.993
5		0.00		6.80		1.745e-02		-48.492
5		0.00		6.40		1.724e-02		-50.179
5		0.00		6.00		1.750e-02		-47.538
5		0.00		5.60		1.723e-02		-50.473
5		0.00		5.20		1.714e-02		-50.818
5		0.00		4.80		1.666e-02		-47.014
5		0.00		4.40		1.659e-02		-49.837
5		0.00		4.00		1.648e-02		-50.557
5		0.00		3.60		1.653e-02		-49.342
5		0.00		3.20		1.577e-02		-49.864
5		0.00		2.80		1.552e-02		-51.407
5		0.00		2.40		1.579e-02		-51.661
5		0.00		2.00		1.541e-02		-49.998
5		0.00		1.60		1.548e-02		-50.879
5		0.00		1.20		1.479e-02		-49.419
5		0.00		0.80		1.543e-02		-48.463
5		0.00		0.40		1.516e-02		-51.186
5		0.00		0.00		1.556e-02		-48.577
5		0.00		-0.40		1.515e-02		-48.295
5		0.00		-0.80		1.561e-02		-48.416
5		0.00		-1.20		1.558e-02		-50.349
5		0.00		-1.60		1.505e-02		-50.804
5		0.00		-2.00		1.480e-02		-44.320
5		0.00		-2.40		1.478e-02		-47.610
5		0.00		-2.80		1.413e-02		-45.822
5		0.00		-3.20		1.347e-02		-45.191
5		0.00		-3.60		1.311e-02		-48.728
5		0.00		-4.00		1.269e-02		-50.550
5		0.00		-4.40		1.234e-02		-48.033
5		0.00		-4.80		1.119e-02		-44.979
5		0.00		-5.20		1.087e-02		-46.190
5		0.00		-5.60		9.965e-03		-43.839
5		0.00		-6.00		9.098e-03		-49.871
5		0.00		-6.40		8.077e-03		-44.163
5		0.00		-6.80		6.506e-03		-50.271
5		0.00		-7.20		5.199e-03		-41.819
5		0.00		-7.60		3.913e-03		-42.637
5		0.00		-8.00		2.639e-03		-24.717
5		0.00		-8.40		2.048e-03		18.860
5		0.00		-8.80		3.507e-03		96.316
5		0.00		-9.20		4.886e-03		113.752
5		0.00		-9.60		6.634e-03		114.123
5		0.00		-10.00		8.837e-03		126.388
5		0.00		-9.60		1.033e-02		125.528
5		0.00		-9.20		1.022e-02		122.119
5		0.00		-8.80		1.102e-02		123.785
5		0.00		-8.40		1.143e-02		123.845
5		0.00		-8.00		1.120e-02		123.720
5		0.00		-7.60		1.083e-02		123.382
5		0.00		-7.20		1.053e-02		120.748
5		0.00		-6.80		1.061e-02		121.494
5		0.00		-6.40		9.974e-03		123.380
5		0.00		-6.00		9.875e-03		123.556
5		0.00		-5.60		9.650e-03		125.454
5		0.00		-5.20		9.540e-03		123.111
5		0.00		-4.80		9.347e-03		123.473
5		0.00		-4.40		9.192e-03		123.357
5		0.00		-4.00		8.829e-03		122.128
5		0.00		-3.60		8.839e-03		119.706
5		0.00		-3.20		8.873e-03		121.013
5		0.00		-2.80		8.988e-03		119.249
5		0.00		-2.40		8.726e-03		120.301
5		0.00		-2.00		8.487e-03		121.413
5		0.00		-1.60		8.507e-03		124.576
5		0.00		-1.20		8.611e-03		123.295
5		0.00		-0.80		8.573e-03		124.227
5		0.00		-0.40		8.183e-03		124.375
6		0.00		0.00		8.438e-03		127.801
6		0.00		0.40		8.431e-03		127.196
6		0.00		0.80		8.102e-03		126.844
6		0.00		1.20		7.509e-03		126.684
6		0.00		1.60		7.053e-03		121.233
6		0.00		2.00		6.789e-03		124.449
6		0.00		2.40		6.225e-03		118.318
6		0.00		2.80		5.447e-03		117.969
6		0.00		3.20		4.892e-03		117.227
6		0.00		3.60		3.955e-03		111.825
6		0.00		4.00		3.339e-03		102.855
6		0.00		4.40		2.718e-03		94.187
6		0.00		4.80		1.980e-03		56.263
6		0.00		5.20		1.862e-03		15.482
6		0.00		5.60		1.631e-03		-12.444
6		0.00		6.00		2.502e-03		-43.965
6		0.00		6.40		3.276e-03		-56.371
6		0.00		6.80		4.046e-03		-45.605
6		0.00		7.20		5.464e-03		-38.255
6		0.00		7.60		6.109e-03		-51.770
6		0.00		8.00		7.103e-03		-50.707
6		0.00		8.40		8.412e-03		-48.882
6		0.00		8.80		9.219e-03		-46.939
6		0.00		9.20		1.049e-02		-51.928
6		0.00		9.60		1.176e-02		-47.153
6		0.00		10.00		1.420e-02		-51.037
6		0.00		9.60		1.470e-02		-51.531
6		0.00		9.20		1.547e-02		-48.732
6		0.00		8.80		1.613e-02		-53.456
6		0.00		8.40		1.636e-02		-53.725
6		0.00		8.00		1.638e-02		-50.920
6		0.00		7.60		1.644e-02		-50.503
6		0.00		7.20		1.647e-02		-53.530
6		0.00		6.80		1.706e-02		-49.351
6		0.00		6.40		1.680e-02		-49.200
6		0.00		6.00		1.636e-02		-50.625
6		0.00		5.60		1.623e-02		-51.969
6		0.00		5.20		1.639e-02		-50.597
6		0.00		4.80		1.585e-02		-49.149
6		0.00		4.40		1.599e-02		-46.762
6		0.00		4.00		1.572e-02		-47.605
6		0.00		3.60		1.528e-02		-49.744
6		0.00		3.20		1.533e-02		-45.692
6		0.00		2.80		1.527e-02		-49.192
6		0.00		2.40		1.499e-02		-48.528
6		0.00		2.00		1.500e-02		-47.298
6		0.00		1.60		1.501e-02		-49.788
6		0.00		1.20		1.467e-02		-46.405
6		0.00		0.80		1.456e-02		-48.630
6		0.00		0.40		1.467e-02		-47.884
6		0.00		0.00		1.432e-02		-48.780
6		0.00		-0.40		1.459e-02		-48.347
6		0.00		-0.80		1.434e-02		-48.806
6		0.00		-1.20		1.434e-02		-47.784
6		0.00		-1.60		1.392e-02		-50.743
6		0.00		-2.00		1.382e-02		-48.658
6		0.00		-2.40		1.377e-02		-49.918
6		0.00		-2.80		1.359e-02		-47.813
6		0.00		-3.20		1.291e-02		-45.256
6		0.00		-3.60		1.276e-02		-44.319
6		0.00		-4.00		1.243e-02		-52.098
6		0.00		-4.40		1.172e-02		-52.533
6		0.00		-4.80		1.133e-02		-51.663
6		0.00		-5.20		1.054e-02		-47.172
6		0.00		-5.60		9.589e-03		-44.516
6		0.00		-6.00		8.705e-03		-48.663
6		0.00		-6.40		7.328e-03		-47.513
6		0.00		-6.80		6.194e-03		-50.913
6		0.00		-7.20		4.727e-03		-41.552
6		0.00		-7.60		3.050e-03		-42.389
6		0.00		-8.00		2.603e-03		-29.576
6		0.00		-8.40		1.577e-03		7.153
6		0.00		-8.80		3.803e-03		107.334
6		0.00		-9.20		5.434e-03		118.734
6		0.00		-9.60		7.187e-03		122.204
6		0.00		-10.00		9.251e-03		120.088
6		0.00		-9.60		1.057e-02		126.131
6		0.00		-9.20		1.111e-02		125.374
6		0.00		-8.80		1.098e-02		121.634
6		0.00		-8.40		1.088e-02		122.533
6		0.00		-8.00		1.072e-02		120.124
6		0.00		-7.60		1.104e-02		122.958
6		0.00		-7.20		1.088e-02		121.614
6		0.00		-6.80		1.030e-02		126.209
6		0.00		-6.40		1.035e-02		123.400
6		0.00		-6.00		9.973e-03		123.180
6		0.00		-5.60		1.014e-02		125.099
6		0.00		-5.20		1.013e-02		125.088
6		0.00		-4.80		9.884e-03		127.274
6		0.00		-4.40		9.618e-03		125.891
6		0.00		-4.00		9.467e-03		123.613
6		0.00		-3.60		9.122e-03		126.033
6		0.00		-3.20		8.830e-03		121.775
6		0.00		-2.80		8.629e-03		119.411
6		0.00		-2.40		8.720e-03		116.075
6		0.00		-2.00		8.697e-03		122.136
6		0.00		-1.60		8.486e-03		119.389
6		0.00		-1.20		8.716e-03		124.310
6		0.00		-0.80		8.231e-03		122.295
6		0.00		-0.40		8.288e-03		123.249
7		0.00		0.00		8.291e-03		124.548
7		0.00		0.40		8.024e-03		125.205
7		0.00		0.80		7.961e-03		123.774
7		0.00		1.20		7.557e-03		119.850
7		0.00		1.60		7.146e-03		126.076
7		0.00		2.00		6.609e-03		116.859
7		0.00		2.40		5.923e-03		121.782
7		0.00		2.80		5.145e-03		123.255
7		0.00		3.20		4.688e-03		116.284
7		0.00		3.60		3.509e-03		110.385
7		0.00		4.00		3.555e-03		100.677
7		0.00		4.40		2.689e-03		80.002
7		0.00		4.80		1.991e-03		41.243
7		0.00		5.20		1.929e-03		4.505
7		0.00		5.60		1.705e-03		-17.705
7		0.00		6.00		2.110e-03		-39.454
7		0.00		6.40		2.945e-03		-62.398
7		0.00		6.80		3.326e-03		-55.894
7		0.00		7.20		4.134e-03		-45.357
7		0.00		7.60		5.388e-03		-47.957
7		0.00		8.00		6.302e-03		-41.927
7		0.00		8.40		7.275e-03		-46.276
7		0.00		8.80		8.873e-03		-48.416
7		0.00		9.20		1.013e-02		-51.123
7		0.00		9.60		1.138e-02		-49.042
7		0.00		10.00		1.276e-02		-52.071
7		0.00		9.60		1.459e-02		-52.387
7		0.00		9.20		1.507e-02		-48.911
7		0.00		8.80		1.509e-02		-50.361
7		0.00		8.40		1.530e-02		-49.632
7		0.00		8.00		1.519e-02		-49.356
7		0.00		7.60		1.569e-02		-50.084
7		0.00		7.20		1.545e-02		-47.879
7		0.00		6.80		1.566e-02		-49.365
7		0.00		6.40		1.544e-02		-50.223
7		0.00		6.00		1.519e-02		-48.990
7		0.00		5.60		1.541e-02		-49.142
7		0.00		5.20		1.518e-02		-49.568
7		0.00		4.80		1.515e-02		-47.346
7		0.00		4.40		1.475e-02		-47.813
7		0.00		4.00		1.482e-02		-46.902
7		0.00		3.60		1.442e-02		-47.814
7		0.00		3.20		1.411e-02		-47.968
7		0.00		2.80		1.404e-02		-47.968
7		0.00		2.40		1.407e-02		-48.305
7		0.00		2.00		1.370e-02		-47.745
7		0.00		1.60		1.423e-02		-48.125
7		0.00		1.20		1.405e-02		-46.899
7		0.00		0.80		1.403e-02		-49.822
7		0.00		0.40		1.406e-02		-50.951
7		0.00		0.00		1.373e-02		-48.866
7		0.00		-0.40		1.369e-02		-49.678
7		0.00		-0.80		1.377e-02		-47.993
7		0.00		-1.20		1.380e-02		-46.377
7		0.00		-1.60		1.351e-02		-46.708
7		0.00		-2.00		1.325e-02		-48.170
7		0.00		-2.40		1.299e-02		-45.833
7		0.00		-2.80		1.241e-02		-46.008
7		0.00		-3.20		1.178e-02		-47.229
7		0.00		-3.60		1.133e-02		-47.603
7		0.00		-4.00		1.139e-02		-49.484
7		0.00		-4.40		1.046e-02		-45.061
7		0.00		-4.80		1.027e-02		-51.098
7		0.00		-5.20		9.435e-03		-47.673
7		0.00		-5.60		9.236e-03		-43.768
7		0.00		-6.00		8.271e-03		-48.843
7		0.00		-6.40		7.176e-03		-40.318
7		0.00		-6.80		6.074e-03		-43.144
7		0.00		-7.20		5.084e-03		-41.465
7		0.00		-7.60		3.740e-03		-41.906
7		0.00		-8.00		2.334e-03		-32.246
7		0.00		-8.40		1.911e-03		40.197
7		0.00		-8.80		3.176e-03		88.734
7		0.00		-9.20		4.558e-03		119.557
7		0.00		-9.60		6.426e-03		118.194
7		0.00		-10.00		8.195e-03		121.242
7		0.00		-9.60		9.110e-03		123.111
7		0.00		-9.20		9.793e-03		121.492
7		0.00		-8.80		9.815e-03		123.627
7		0.00		-8.40		9.736e-03		123.890
7		0.00		-8.00		9.867e-03		124.323
7		0.00		-7.60		9.522e-03		124.298
7		0.00		-7.20		9.804e-03		125.056
7		0.00		-6.80		9.550e-03		123.604
7		0.00		-6.40		9.576e-03		122.445
7		0.00		-6.00		9.187e-03		126.027
7		0.00		-5.60		8.798e-03		117.034
7		0.00		-5.20		8.516e-03		123.175
7		0.00		-4.80		8.396e-03		125.674
7		0.00		-4.40		8.448e-03		120.789
7		0.00		-4.00		8.719e-03		125.365
7		0.00		-3.60		8.290e-03		126.821
7		0.00		-3.20		8.502e-03		123.735
7		0.00		-2.80		8.157e-03		124.023
7		0.00		-2.40		8.271e-03		118.641
7		0.00		-2.00		8.032e-03		121.240
7		0.00		-1.60		8.149e-03		123.008
7		0.00		-1.20		7.736e-03		120.475
7		0.00		-0.80		7.665e-03		123.107
7		0.00		-0.40		7.645e-03		121.651
8		0.00		0.00		7.687e-03		119.938
8		0.00		0.40		7.238e-03		121.795
8		0.00		0.80		7.227e-03		124.000
8		0.00		1.20		6.704e-03		119.874
8		0.00		1.60		6.367e-03		122.855
8		0.00		2.00		5.929e-03		121.190
8		0.00		2.40		5.556e-03		117.649
8		0.00		2.80		4.793e-03		121.271
8		0.00		3.20		4.290e-03		118.342
8		0.00		3.60		3.463e-03		115.227
8		0.00		4.00		2.923e-03		113.897
8		0.00		4.40		2.171e-03		77.335
8		0.00		4.80		1.777e-03		26.492
8		0.00		5.20		1.662e-03		2.522
8		0.00		5.60		1.915e-03		-26.586
8		0.00		6.00		2.482e-03		-39.357
8		0.00		6.40		3.602e-03		-49.060
8		0.00		6.80		3.612e-03		-28.161
8		0.00		7.20		4.896e-03		-46.978
8		0.00		7.60		5.782e-03		-51.371
8		0.00		8.00		6.921e-03		-50.091
8		0.00		8.40		8.202e-03		-44.195
8		0.00		8.80		9.464e-03		-49.379
8		0.00		9.20		1.081e-02		-50.379
8		0.00		9.60		1.212e-02		-49.314
8		0.00		10.00		1.346e-02		-50.692
8		0.00		9.60		1.419e-02		-49.797
8		0.00		9.20		1.425e-02		-47.737
8		0.00		8.80		1.535e-02		-50.753
8		0.00		8.40		1.532e-02		-49.271
8		0.00		8.00		1.524e-02		-50.945
8		0.00		7.60		1.560e-02		-48.897
8		0.00		7.20		1.568e-02		-47.810
8		0.00		6.80		1.574e-02		-49.387
8		0.00		6.40		1.581e-02		-53.924
8		0.00		6.00		1.563e-02		-49.435
8		0.00		5.60		1.554e-02		-49.067
8		0.00		5.20		1.561e-02		-50.133
8		0.00		4.80		1.515e-02		-47.929
8		0.00		4.40		1.490e-02		-48.852
8		0.00		4.00		1.519e-02		-48.645
8		0.00		3.60		1.486e-02		-47.009
8		0.00		3.20		1.450e-02		-49.713
8		0.00		2.80		1.429e-02		-48.059
8		0.00		2.40		1.425e-02		-48.437
8		0.00		2.00		1.402e-02		-48.438
8		0.00		1.60		1.402e-02		-48.683
8		0.00		1.20		1.398e-02		-48.718
8		0.00		0.80		1.387e-02		-48.820
8		0.00		0.40		1.393e-02		-47.642
8		0.00		0.00		1.409e-02		-50.156
8		0.00		-0.40		1.396e-02		-51.234
8		0.00		-0.80		1.403e-02		-48.173
8		0.00		-1.20		1.423e-02		-46.974
8		0.00		-1.60		1.388e-02		-49.192
8		0.00		-2.00		1.347e-02		-50.021
8		0.00		-2.40		1.288e-02		-50.069
8		0.00		-2.80		1.260e-02		-45.175
8		0.00		-3.20		1.195e-02		-45.893
8		0.00		-3.60		1.218e-02		-45.468
8		0.00		-4.00		1.143e-02		-43.918
8		0.00		-4.40		1.099e-02		-45.386
8		0.00		-4.80		1.025e-02		-41.861
8		0.00		-5.20		9.625e-03		-42.778
8		0.00		-5.60		9.044e-03		-44.709
8		0.00		-6.00		7.905e-03		-45.929
8		0.00		-6.40		6.965e-03		-49.286
8		0.00		-6.80		6.333e-03		-48.242
8		0.00		-7.20		5.129e-03		-38.222
8		0.00		-7.60		3.232e-03		-32.678
8		0.00		-8.00		2.294e-03		6.976
8		0.00		-8.40		1.776e-03		22.228
8		0.00		-8.80		2.378e-03		75.926
8		0.00		-9.20		3.785e-03		111.019
8		0.00		-9.60		5.956e-03		124.380
8		0.00		-10.00		9.102e-03		119.932
8		0.00		-9.60		9.462e-03		124.406
8		0.00		-9.20		1.120e-02		122.891
8		0.00		-8.80		1.128e-02		127.092
8		0.00		-8.40		1.122e-02		126.586
8		0.00		-8.00		1.110e-02		124.948
8		0.00		-7.60		1.068e-02		120.587
8		0.00		-7.20		1.031e-02		129.326
8		0.00		-6.80		1.088e-02		122.734
8		0.00		-6.40		1.011e-02		126.231
8		0.00		-6.00		1.010e-02		125.583
8		0.00		-5.60		9.796e-03		122.545
8		0.00		-5.20		9.126e-03		121.483
8		0.00		-4.80		9.273e-03		127.413
8		0.00		-4.40		9.014e-03		122.452
8		0.00		-4.00		8.769e-03		124.150
8		0.00		-3.60		8.883e-03		127.551
8		0.00		-3.20		8.789e-03		127.006
8		0.00		-2.80		8.590e-03		120.455
8		0.00		-2.40		8.566e-03		126.011
8		0.00		-2.00		8.688e-03		125.640
8		0.00		-1.60		8.470e-03		121.955
8		0.00		-1.20		7.974e-03		122.075
8		0.00		-0.80		7.914e-03		123.550
8		0.00		-0.40		8.148e-03		122.191
