# Date of analysis: 2023-10-05 17;23
# 
# Loop index	Read Volt (V)	Write Volt (V)	Amplitude (a.u)	Phase (°)	
1		0.00		0.00		1.790e-02		-45.310
1		0.00		0.40		1.374e-02		-43.069
1		0.00		0.80		9.257e-03		-40.757
1		0.00		1.20		6.053e-03		-46.433
1		0.00		1.60		3.214e-03		-24.642
1		0.00		2.00		3.453e-03		18.225
1		0.00		2.40		4.433e-03		62.743
1		0.00		2.80		6.912e-03		80.731
1		0.00		3.20		8.904e-03		88.619
1		0.00		3.60		9.481e-03		93.100
1		0.00		4.00		1.050e-02		88.306
1		0.00		4.40		1.316e-02		102.751
1		0.00		4.80		1.510e-02		108.797
1		0.00		5.20		1.544e-02		108.901
1		0.00		5.60		1.742e-02		111.931
1		0.00		6.00		1.883e-02		114.681
1		0.00		6.40		1.926e-02		115.404
1		0.00		6.80		2.101e-02		112.473
1		0.00		7.20		2.131e-02		101.406
1		0.00		7.60		2.314e-02		94.811
1		0.00		8.00		2.269e-02		76.706
1		0.00		8.40		2.238e-02		86.077
1		0.00		8.80		2.211e-02		95.055
1		0.00		9.20		2.406e-02		105.811
1		0.00		9.60		2.583e-02		108.342
1		0.00		10.00		2.507e-02		109.627
1		0.00		9.60		2.675e-02		114.187
1		0.00		9.20		2.832e-02		112.252
1		0.00		8.80		2.886e-02		107.881
1		0.00		8.40		3.109e-02		111.298
1		0.00		8.00		2.763e-02		101.208
1		0.00		7.60		2.603e-02		95.245
1		0.00		7.20		2.538e-02		101.625
1		0.00		6.80		2.347e-02		106.995
1		0.00		6.40		2.324e-02		107.285
1		0.00		6.00		2.107e-02		111.848
1		0.00		5.60		2.183e-02		112.432
1		0.00		5.20		2.050e-02		113.435
1		0.00		4.80		1.937e-02		103.168
1		0.00		4.40		1.902e-02		102.534
1		0.00		4.00		1.624e-02		94.039
1		0.00		3.60		1.407e-02		86.728
1		0.00		3.20		1.043e-02		72.295
1		0.00		2.80		7.878e-03		62.301
1		0.00		2.40		6.508e-03		46.748
1		0.00		2.00		5.634e-03		22.735
1		0.00		1.60		5.108e-03		13.300
1		0.00		1.20		7.029e-03		-12.332
1		0.00		0.80		8.844e-03		-30.221
1		0.00		0.40		1.175e-02		-36.217
1		0.00		0.00		1.503e-02		-44.372
1		0.00		-0.40		1.988e-02		-44.732
1		0.00		-0.80		2.372e-02		-44.091
1		0.00		-1.20		2.665e-02		-47.894
1		0.00		-1.60		2.857e-02		-48.218
1		0.00		-2.00		3.005e-02		-48.345
1		0.00		-2.40		3.122e-02		-50.883
1		0.00		-2.80		3.325e-02		-52.335
1		0.00		-3.20		3.609e-02		-49.229
1		0.00		-3.60		3.869e-02		-47.968
1		0.00		-4.00		4.020e-02		-45.612
1		0.00		-4.40		4.295e-02		-39.258
1		0.00		-4.80		4.331e-02		-40.762
1		0.00		-5.20		4.447e-02		-39.207
1		0.00		-5.60		4.366e-02		-37.221
1		0.00		-6.00		4.406e-02		-34.850
1		0.00		-6.40		4.584e-02		-37.324
1		0.00		-6.80		4.777e-02		-47.121
1		0.00		-7.20		5.001e-02		-41.629
1		0.00		-7.60		5.006e-02		-33.103
1		0.00		-8.00		4.708e-02		-33.450
1		0.00		-8.40		4.305e-02		-35.193
1		0.00		-8.80		3.923e-02		-29.042
1		0.00		-9.20		3.831e-02		-28.206
1		0.00		-9.60		3.319e-02		-20.213
1		0.00		-10.00		3.016e-02		-24.437
1		0.00		-9.60		3.292e-02		-17.636
1		0.00		-9.20		3.537e-02		-37.635
1		0.00		-8.80		3.857e-02		-39.593
1		0.00		-8.40		4.172e-02		-43.279
1		0.00		-8.00		4.195e-02		-37.027
1		0.00		-7.60		3.994e-02		-37.082
1		0.00		-7.20		3.840e-02		-38.391
1		0.00		-6.80		3.434e-02		-36.452
1		0.00		-6.40		3.293e-02		-32.782
1		0.00		-6.00		3.177e-02		-32.652
1		0.00		-5.60		2.963e-02		-35.091
1		0.00		-5.20		2.944e-02		-46.301
1		0.00		-4.80		2.851e-02		-48.243
1		0.00		-4.40		2.685e-02		-47.590
1		0.00		-4.00		2.575e-02		-52.064
1		0.00		-3.60		2.261e-02		-51.178
1		0.00		-3.20		1.818e-02		-53.267
1		0.00		-2.80		1.695e-02		-53.299
1		0.00		-2.40		1.590e-02		-51.880
1		0.00		-2.00		1.561e-02		-50.128
1		0.00		-1.60		1.310e-02		-51.677
1		0.00		-1.20		1.130e-02		-49.503
1		0.00		-0.80		9.764e-03		-59.083
1		0.00		-0.40		8.196e-03		-60.657
2		0.00		0.00		4.693e-03		-14.360
2		0.00		0.40		7.936e-03		59.123
2		0.00		0.80		1.052e-02		77.317
2		0.00		1.20		1.391e-02		83.799
2		0.00		1.60		1.834e-02		91.626
2		0.00		2.00		1.890e-02		87.738
2		0.00		2.40		2.057e-02		89.145
2		0.00		2.80		1.926e-02		89.044
2		0.00		3.20		2.104e-02		92.295
2		0.00		3.60		2.128e-02		98.081
2		0.00		4.00		2.519e-02		100.653
2		0.00		4.40		2.919e-02		104.711
2		0.00		4.80		3.403e-02		112.453
2		0.00		5.20		3.535e-02		113.211
2		0.00		5.60		3.386e-02		115.630
2		0.00		6.00		3.251e-02		107.817
2		0.00		6.40		3.191e-02		104.732
2		0.00		6.80		3.242e-02		98.031
2		0.00		7.20		2.863e-02		103.531
2		0.00		7.60		2.516e-02		99.836
2		0.00		8.00		2.634e-02		103.958
2		0.00		8.40		3.064e-02		102.175
2		0.00		8.80		3.018e-02		114.885
2		0.00		9.20		3.112e-02		119.715
2		0.00		9.60		3.089e-02		113.919
2		0.00		10.00		2.745e-02		117.659
2		0.00		9.60		2.802e-02		109.869
2		0.00		9.20		2.902e-02		93.107
2		0.00		8.80		2.988e-02		95.580
2		0.00		8.40		2.731e-02		98.248
2		0.00		8.00		2.282e-02		104.802
2		0.00		7.60		2.230e-02		110.897
2		0.00		7.20		2.466e-02		114.593
2		0.00		6.80		2.124e-02		115.013
2		0.00		6.40		1.863e-02		120.730
2		0.00		6.00		1.808e-02		121.109
2		0.00		5.60		1.645e-02		125.413
2		0.00		5.20		1.390e-02		117.199
2		0.00		4.80		1.239e-02		104.926
2		0.00		4.40		9.445e-03		91.434
2		0.00		4.00		7.817e-03		84.225
2		0.00		3.60		6.294e-03		54.582
2		0.00		3.20		4.974e-03		35.355
2		0.00		2.80		4.437e-03		-12.862
2		0.00		2.40		4.572e-03		-45.249
2		0.00		2.00		5.573e-03		-61.962
2		0.00		1.60		8.148e-03		-62.338
2		0.00		1.20		1.166e-02		-56.071
2		0.00		0.80		1.416e-02		-51.508
2		0.00		0.40		1.788e-02		-47.381
2		0.00		0.00		2.116e-02		-47.513
2		0.00		-0.40		2.450e-02		-46.879
2		0.00		-0.80		2.814e-02		-47.703
2		0.00		-1.20		3.116e-02		-47.491
2		0.00		-1.60		3.291e-02		-45.471
2		0.00		-2.00		3.478e-02		-43.692
2		0.00		-2.40		3.563e-02		-42.572
2		0.00		-2.80		3.594e-02		-48.565
2		0.00		-3.20		3.707e-02		-52.538
2		0.00		-3.60		3.862e-02		-48.167
2		0.00		-4.00		3.885e-02		-44.306
2		0.00		-4.40		4.093e-02		-40.525
2		0.00		-4.80		3.975e-02		-39.044
2		0.00		-5.20		4.095e-02		-38.314
2		0.00		-5.60		4.117e-02		-39.038
2		0.00		-6.00		3.982e-02		-33.775
2		0.00		-6.40		4.041e-02		-29.847
2		0.00		-6.80		3.973e-02		-26.712
2		0.00		-7.20		4.035e-02		-23.100
2		0.00		-7.60		4.125e-02		-22.297
2		0.00		-8.00		4.053e-02		-25.169
2		0.00		-8.40		4.181e-02		-37.550
2		0.00		-8.80		4.438e-02		-36.292
2		0.00		-9.20		3.960e-02		-38.656
2		0.00		-9.60		3.535e-02		-42.170
2		0.00		-10.00		3.047e-02		-41.950
2		0.00		-9.60		3.266e-02		-47.771
2		0.00		-9.20		3.472e-02		-46.767
2		0.00		-8.80		3.855e-02		-43.348
2		0.00		-8.40		4.010e-02		-43.467
2		0.00		-8.00		4.260e-02		-41.718
2		0.00		-7.60		4.114e-02		-42.957
2		0.00		-7.20		3.946e-02		-39.102
2		0.00		-6.80		3.933e-02		-40.029
2		0.00		-6.40		3.731e-02		-40.767
2		0.00		-6.00		3.623e-02		-39.334
2		0.00		-5.60		3.517e-02		-39.432
2		0.00		-5.20		3.314e-02		-40.648
2		0.00		-4.80		3.190e-02		-40.700
2		0.00		-4.40		3.082e-02		-38.233
2		0.00		-4.00		2.888e-02		-39.810
2		0.00		-3.60		2.776e-02		-42.223
2		0.00		-3.20		2.613e-02		-42.920
2		0.00		-2.80		2.462e-02		-42.783
2		0.00		-2.40		2.272e-02		-41.995
2		0.00		-2.00		2.103e-02		-41.374
2		0.00		-1.60		1.919e-02		-43.129
2		0.00		-1.20		1.624e-02		-38.135
2		0.00		-0.80		1.388e-02		-42.612
2		0.00		-0.40		1.209e-02		-40.236
3		0.00		0.00		9.255e-03		-42.215
3		0.00		0.40		7.425e-03		-43.542
3		0.00		0.80		5.117e-03		-38.327
3		0.00		1.20		3.393e-03		-55.244
3		0.00		1.60		2.299e-03		-50.257
3		0.00		2.00		1.802e-03		-9.227
3		0.00		2.40		2.629e-03		51.733
3		0.00		2.80		3.952e-03		90.229
3		0.00		3.20		4.827e-03		88.209
3		0.00		3.60		6.175e-03		115.255
3		0.00		4.00		6.838e-03		109.824
3		0.00		4.40		7.943e-03		114.325
3		0.00		4.80		8.984e-03		119.596
3		0.00		5.20		9.545e-03		106.536
3		0.00		5.60		1.017e-02		110.272
3		0.00		6.00		1.101e-02		107.115
3		0.00		6.40		1.120e-02		100.671
3		0.00		6.80		1.237e-02		109.129
3		0.00		7.20		1.216e-02		104.668
3		0.00		7.60		1.272e-02		98.077
3		0.00		8.00		1.368e-02		92.535
3		0.00		8.40		1.447e-02		95.874
3		0.00		8.80		1.310e-02		87.400
3		0.00		9.20		1.286e-02		77.971
3		0.00		9.60		1.263e-02		88.047
3		0.00		10.00		1.131e-02		67.429
3		0.00		9.60		1.209e-02		85.091
3		0.00		9.20		1.153e-02		81.368
3		0.00		8.80		1.177e-02		84.924
3		0.00		8.40		1.029e-02		75.768
3		0.00		8.00		9.883e-03		80.428
3		0.00		7.60		9.155e-03		78.543
3		0.00		7.20		9.055e-03		99.733
3		0.00		6.80		8.282e-03		114.899
3		0.00		6.40		7.670e-03		106.093
3		0.00		6.00		6.832e-03		98.758
3		0.00		5.60		6.158e-03		84.827
3		0.00		5.20		5.250e-03		80.375
3		0.00		4.80		4.139e-03		66.133
3		0.00		4.40		3.219e-03		32.625
3		0.00		4.00		3.064e-03		2.027
3		0.00		3.60		2.719e-03		-7.581
3		0.00		3.20		3.360e-03		-72.317
3		0.00		2.80		4.776e-03		-71.952
3		0.00		2.40		6.770e-03		-62.812
3		0.00		2.00		9.078e-03		-55.334
3		0.00		1.60		1.077e-02		-59.279
3		0.00		1.20		1.367e-02		-54.885
3		0.00		0.80		1.539e-02		-55.276
3		0.00		0.40		1.786e-02		-57.053
3		0.00		0.00		2.059e-02		-54.051
3		0.00		-0.40		2.268e-02		-52.715
3		0.00		-0.80		2.519e-02		-52.167
3		0.00		-1.20		2.734e-02		-50.674
3		0.00		-1.60		2.941e-02		-51.719
3		0.00		-2.00		2.953e-02		-52.707
3		0.00		-2.40		3.100e-02		-51.290
3		0.00		-2.80		3.208e-02		-49.330
3		0.00		-3.20		3.247e-02		-51.182
3		0.00		-3.60		3.438e-02		-52.795
3		0.00		-4.00		3.523e-02		-58.331
3		0.00		-4.40		3.653e-02		-58.617
3		0.00		-4.80		3.750e-02		-53.227
3		0.00		-5.20		3.865e-02		-52.068
3		0.00		-5.60		3.997e-02		-53.681
3		0.00		-6.00		4.112e-02		-50.403
3		0.00		-6.40		4.199e-02		-49.798
3		0.00		-6.80		4.234e-02		-45.430
3		0.00		-7.20		4.417e-02		-46.788
3		0.00		-7.60		4.599e-02		-43.918
3		0.00		-8.00		4.453e-02		-45.172
3		0.00		-8.40		4.408e-02		-48.663
3		0.00		-8.80		4.003e-02		-45.093
3		0.00		-9.20		3.752e-02		-46.228
3		0.00		-9.60		3.384e-02		-46.372
3		0.00		-10.00		2.788e-02		-46.389
3		0.00		-9.60		3.187e-02		-42.716
3		0.00		-9.20		3.484e-02		-39.472
3		0.00		-8.80		3.655e-02		-34.145
3		0.00		-8.40		3.813e-02		-33.852
3		0.00		-8.00		3.888e-02		-37.548
3		0.00		-7.60		3.876e-02		-37.382
3		0.00		-7.20		3.677e-02		-39.869
3		0.00		-6.80		3.664e-02		-43.118
3		0.00		-6.40		3.626e-02		-43.762
3		0.00		-6.00		3.478e-02		-46.584
3		0.00		-5.60		3.406e-02		-47.712
3		0.00		-5.20		3.179e-02		-49.042
3		0.00		-4.80		3.017e-02		-48.855
3		0.00		-4.40		2.799e-02		-51.306
3		0.00		-4.00		2.522e-02		-54.283
3		0.00		-3.60		2.324e-02		-57.048
3		0.00		-3.20		2.128e-02		-54.651
3		0.00		-2.80		1.987e-02		-55.279
3		0.00		-2.40		1.885e-02		-53.986
3		0.00		-2.00		1.678e-02		-53.929
3		0.00		-1.60		1.457e-02		-51.161
3		0.00		-1.20		1.293e-02		-49.877
3		0.00		-0.80		1.100e-02		-53.908
3		0.00		-0.40		8.963e-03		-47.655
4		0.00		0.00		7.098e-03		-45.000
4		0.00		0.40		5.104e-03		-45.622
4		0.00		0.80		3.953e-03		-48.510
4		0.00		1.20		2.639e-03		-39.087
4		0.00		1.60		2.605e-03		2.317
4		0.00		2.00		3.184e-03		59.121
4		0.00		2.40		4.469e-03		79.769
4		0.00		2.80		6.214e-03		108.997
4		0.00		3.20		6.804e-03		99.147
4		0.00		3.60		7.964e-03		117.631
4		0.00		4.00		8.530e-03		113.099
4		0.00		4.40		9.842e-03		125.689
4		0.00		4.80		1.117e-02		123.695
4		0.00		5.20		1.170e-02		131.994
4		0.00		5.60		1.285e-02		134.346
4		0.00		6.00		1.359e-02		129.292
4		0.00		6.40		1.355e-02		133.519
4		0.00		6.80		1.450e-02		137.787
4		0.00		7.20		1.398e-02		138.079
4		0.00		7.60		1.532e-02		129.592
4		0.00		8.00		1.586e-02		109.688
4		0.00		8.40		1.658e-02		111.441
4		0.00		8.80		1.739e-02		114.555
4		0.00		9.20		1.880e-02		114.368
4		0.00		9.60		1.919e-02		118.973
4		0.00		10.00		1.994e-02		118.970
4		0.00		9.60		2.054e-02		121.679
4		0.00		9.20		1.904e-02		117.987
4		0.00		8.80		1.788e-02		121.211
4		0.00		8.40		1.671e-02		128.297
4		0.00		8.00		1.684e-02		129.130
4		0.00		7.60		1.645e-02		131.469
4		0.00		7.20		1.577e-02		120.820
4		0.00		6.80		1.425e-02		110.951
4		0.00		6.40		1.285e-02		109.429
4		0.00		6.00		1.182e-02		115.135
4		0.00		5.60		1.026e-02		107.645
4		0.00		5.20		8.988e-03		114.902
4		0.00		4.80		7.737e-03		110.527
4		0.00		4.40		7.427e-03		97.156
4		0.00		4.00		6.418e-03		73.017
4		0.00		3.60		4.665e-03		59.540
4		0.00		3.20		4.612e-03		18.188
4		0.00		2.80		4.297e-03		-27.068
4		0.00		2.40		5.170e-03		-78.545
4		0.00		2.00		5.863e-03		-66.732
4		0.00		1.60		7.439e-03		-63.127
4		0.00		1.20		9.478e-03		-61.205
4		0.00		0.80		1.132e-02		-60.908
4		0.00		0.40		1.368e-02		-59.652
4		0.00		0.00		1.568e-02		-57.737
4		0.00		-0.40		1.849e-02		-54.942
4		0.00		-0.80		2.108e-02		-53.375
4		0.00		-1.20		2.386e-02		-54.328
4		0.00		-1.60		2.649e-02		-49.829
4		0.00		-2.00		2.861e-02		-48.834
4		0.00		-2.40		3.168e-02		-46.783
4		0.00		-2.80		3.295e-02		-48.401
4		0.00		-3.20		3.360e-02		-48.653
4		0.00		-3.60		3.576e-02		-49.797
4		0.00		-4.00		3.579e-02		-52.190
4		0.00		-4.40		3.637e-02		-52.820
4		0.00		-4.80		3.668e-02		-51.178
4		0.00		-5.20		3.681e-02		-56.249
4		0.00		-5.60		3.811e-02		-56.839
4		0.00		-6.00		4.112e-02		-51.828
4		0.00		-6.40		4.139e-02		-51.964
4		0.00		-6.80		4.326e-02		-51.045
4		0.00		-7.20		4.503e-02		-47.619
4		0.00		-7.60		4.421e-02		-41.696
4		0.00		-8.00		4.331e-02		-38.434
4		0.00		-8.40		4.153e-02		-38.688
4		0.00		-8.80		3.880e-02		-40.576
4		0.00		-9.20		3.716e-02		-41.612
4		0.00		-9.60		3.450e-02		-38.057
4		0.00		-10.00		2.910e-02		-47.326
4		0.00		-9.60		3.118e-02		-44.102
4		0.00		-9.20		3.350e-02		-46.490
4		0.00		-8.80		3.694e-02		-51.545
4		0.00		-8.40		3.836e-02		-53.607
4		0.00		-8.00		4.023e-02		-50.524
4		0.00		-7.60		3.988e-02		-50.361
4		0.00		-7.20		3.919e-02		-49.532
4		0.00		-6.80		3.854e-02		-49.657
4		0.00		-6.40		3.694e-02		-44.658
4		0.00		-6.00		3.514e-02		-39.600
4		0.00		-5.60		3.380e-02		-39.858
4		0.00		-5.20		3.153e-02		-41.748
4		0.00		-4.80		3.057e-02		-47.318
4		0.00		-4.40		2.879e-02		-50.858
4		0.00		-4.00		2.692e-02		-50.355
4		0.00		-3.60		2.536e-02		-52.064
4		0.00		-3.20		2.265e-02		-53.058
4		0.00		-2.80		2.099e-02		-53.343
4		0.00		-2.40		1.868e-02		-54.599
4		0.00		-2.00		1.668e-02		-56.540
4		0.00		-1.60		1.427e-02		-56.462
4		0.00		-1.20		1.212e-02		-58.315
4		0.00		-0.80		1.079e-02		-51.461
4		0.00		-0.40		8.511e-03		-52.157
5		0.00		0.00		6.522e-03		-54.607
5		0.00		0.40		5.241e-03		-58.532
5		0.00		0.80		3.505e-03		-62.927
5		0.00		1.20		2.687e-03		-48.253
5		0.00		1.60		2.595e-03		4.883
5		0.00		2.00		3.181e-03		59.280
5		0.00		2.40		4.919e-03		102.428
5		0.00		2.80		6.271e-03		97.942
5		0.00		3.20		7.549e-03		110.039
5		0.00		3.60		8.916e-03		118.105
5		0.00		4.00		1.024e-02		110.845
5		0.00		4.40		1.190e-02		118.346
5		0.00		4.80		1.195e-02		116.799
5		0.00		5.20		1.286e-02		116.065
5		0.00		5.60		1.346e-02		121.447
5		0.00		6.00		1.409e-02		128.367
5		0.00		6.40		1.448e-02		124.813
5		0.00		6.80		1.503e-02		127.033
5		0.00		7.20		1.582e-02		124.815
5		0.00		7.60		1.706e-02		130.246
5		0.00		8.00		1.804e-02		127.228
5		0.00		8.40		1.885e-02		131.537
5		0.00		8.80		1.886e-02		129.147
5		0.00		9.20		1.946e-02		126.965
5		0.00		9.60		2.050e-02		125.586
5		0.00		10.00		1.918e-02		126.556
5		0.00		9.60		1.931e-02		124.207
5		0.00		9.20		1.907e-02		132.648
5		0.00		8.80		1.851e-02		138.876
5		0.00		8.40		1.792e-02		139.411
5		0.00		8.00		1.862e-02		136.796
5		0.00		7.60		1.684e-02		137.819
5		0.00		7.20		1.509e-02		134.036
5		0.00		6.80		1.446e-02		133.069
5		0.00		6.40		1.305e-02		132.797
5		0.00		6.00		1.203e-02		121.170
5		0.00		5.60		1.030e-02		114.014
5		0.00		5.20		8.775e-03		89.671
5		0.00		4.80		8.063e-03		83.967
5		0.00		4.40		6.978e-03		76.798
5		0.00		4.00		5.694e-03		66.383
5		0.00		3.60		5.120e-03		47.214
5		0.00		3.20		4.400e-03		44.043
5		0.00		2.80		3.894e-03		-30.223
5		0.00		2.40		4.408e-03		-61.496
5		0.00		2.00		5.733e-03		-84.387
5		0.00		1.60		7.875e-03		-68.608
5		0.00		1.20		9.760e-03		-63.793
5		0.00		0.80		1.164e-02		-60.447
5		0.00		0.40		1.450e-02		-58.812
5		0.00		0.00		1.683e-02		-56.361
5		0.00		-0.40		1.994e-02		-51.963
5		0.00		-0.80		2.228e-02		-51.346
5		0.00		-1.20		2.444e-02		-50.306
5		0.00		-1.60		2.732e-02		-47.232
5		0.00		-2.00		2.969e-02		-49.105
5		0.00		-2.40		3.055e-02		-49.992
5		0.00		-2.80		3.206e-02		-51.470
5		0.00		-3.20		3.363e-02		-51.540
5		0.00		-3.60		3.554e-02		-48.506
5		0.00		-4.00		3.554e-02		-52.384
5		0.00		-4.40		3.698e-02		-54.105
5		0.00		-4.80		3.785e-02		-54.184
5		0.00		-5.20		3.943e-02		-54.686
5		0.00		-5.60		3.970e-02		-55.865
5		0.00		-6.00		4.018e-02		-57.225
5		0.00		-6.40		4.219e-02		-54.247
5		0.00		-6.80		4.280e-02		-53.815
5		0.00		-7.20		4.387e-02		-50.685
5		0.00		-7.60		4.535e-02		-51.812
5		0.00		-8.00		4.446e-02		-53.766
5		0.00		-8.40		4.291e-02		-53.052
5		0.00		-8.80		4.071e-02		-48.903
5		0.00		-9.20		3.765e-02		-50.376
5		0.00		-9.60		3.393e-02		-47.471
5		0.00		-10.00		2.973e-02		-46.251
5		0.00		-9.60		3.352e-02		-47.385
5		0.00		-9.20		3.544e-02		-44.277
5		0.00		-8.80		3.840e-02		-45.156
5		0.00		-8.40		4.096e-02		-45.813
5		0.00		-8.00		4.296e-02		-44.380
5		0.00		-7.60		4.195e-02		-42.352
5		0.00		-7.20		4.015e-02		-40.820
5		0.00		-6.80		3.911e-02		-46.657
5		0.00		-6.40		3.826e-02		-48.529
5		0.00		-6.00		3.649e-02		-50.123
5		0.00		-5.60		3.399e-02		-52.567
5		0.00		-5.20		3.135e-02		-55.258
5		0.00		-4.80		2.873e-02		-55.808
5		0.00		-4.40		2.663e-02		-55.082
5		0.00		-4.00		2.504e-02		-56.912
5		0.00		-3.60		2.330e-02		-55.607
5		0.00		-3.20		2.037e-02		-53.523
5		0.00		-2.80		1.899e-02		-53.007
5		0.00		-2.40		1.754e-02		-56.678
5		0.00		-2.00		1.565e-02		-53.503
5		0.00		-1.60		1.369e-02		-53.610
5		0.00		-1.20		1.137e-02		-52.179
5		0.00		-0.80		9.500e-03		-51.555
5		0.00		-0.40		7.851e-03		-54.757
6		0.00		0.00		6.265e-03		-56.281
6		0.00		0.40		4.805e-03		-63.571
6		0.00		0.80		3.514e-03		-60.392
6		0.00		1.20		2.871e-03		-28.625
6		0.00		1.60		2.935e-03		17.680
6		0.00		2.00		3.802e-03		62.107
6		0.00		2.40		5.521e-03		109.898
6		0.00		2.80		6.405e-03		116.976
6		0.00		3.20		7.858e-03		131.055
6		0.00		3.60		9.018e-03		138.196
6		0.00		4.00		9.920e-03		138.783
6		0.00		4.40		1.059e-02		138.578
6		0.00		4.80		1.178e-02		136.875
6		0.00		5.20		1.172e-02		134.534
6		0.00		5.60		1.287e-02		138.169
6		0.00		6.00		1.377e-02		132.960
6		0.00		6.40		1.402e-02		130.328
6		0.00		6.80		1.443e-02		127.357
6		0.00		7.20		1.406e-02		119.249
6		0.00		7.60		1.541e-02		112.555
6		0.00		8.00		1.651e-02		112.959
6		0.00		8.40		1.579e-02		116.927
6		0.00		8.80		1.699e-02		122.430
6		0.00		9.20		1.816e-02		119.142
6		0.00		9.60		1.832e-02		122.333
6		0.00		10.00		1.865e-02		119.801
6		0.00		9.60		1.896e-02		123.363
6		0.00		9.20		2.002e-02		129.098
6		0.00		8.80		1.983e-02		131.531
6		0.00		8.40		1.748e-02		121.387
6		0.00		8.00		1.729e-02		123.560
6		0.00		7.60		1.637e-02		125.662
6		0.00		7.20		1.494e-02		132.778
6		0.00		6.80		1.402e-02		129.436
6		0.00		6.40		1.226e-02		134.798
6		0.00		6.00		1.109e-02		136.587
6		0.00		5.60		9.967e-03		123.632
6		0.00		5.20		9.060e-03		104.446
6		0.00		4.80		7.541e-03		96.164
6		0.00		4.40		6.380e-03		82.664
6		0.00		4.00		5.660e-03		60.154
6		0.00		3.60		4.471e-03		48.270
6		0.00		3.20		4.378e-03		-4.864
6		0.00		2.80		4.067e-03		-40.547
6		0.00		2.40		4.888e-03		-68.845
6		0.00		2.00		6.124e-03		-79.383
6		0.00		1.60		7.703e-03		-72.677
6		0.00		1.20		9.819e-03		-68.449
6		0.00		0.80		1.243e-02		-60.108
6		0.00		0.40		1.460e-02		-55.837
6		0.00		0.00		1.699e-02		-55.143
6		0.00		-0.40		1.988e-02		-54.782
6		0.00		-0.80		2.302e-02		-51.865
6		0.00		-1.20		2.534e-02		-49.878
6		0.00		-1.60		2.747e-02		-53.308
6		0.00		-2.00		2.938e-02		-49.064
6		0.00		-2.40		3.181e-02		-49.111
6		0.00		-2.80		3.395e-02		-50.901
6		0.00		-3.20		3.436e-02		-53.517
6		0.00		-3.60		3.490e-02		-55.310
6		0.00		-4.00		3.604e-02		-57.888
6		0.00		-4.40		3.741e-02		-58.101
6		0.00		-4.80		3.846e-02		-58.610
6		0.00		-5.20		3.979e-02		-57.241
6		0.00		-5.60		4.059e-02		-56.093
6		0.00		-6.00		4.138e-02		-53.656
6		0.00		-6.40		4.346e-02		-50.350
6		0.00		-6.80		4.489e-02		-51.211
6		0.00		-7.20		4.517e-02		-52.341
6		0.00		-7.60		4.526e-02		-50.764
6		0.00		-8.00		4.652e-02		-47.871
6		0.00		-8.40		4.670e-02		-45.535
6		0.00		-8.80		4.328e-02		-44.060
6		0.00		-9.20		3.935e-02		-45.825
6		0.00		-9.60		3.349e-02		-48.783
6		0.00		-10.00		2.918e-02		-49.303
6		0.00		-9.60		3.366e-02		-44.662
6		0.00		-9.20		3.755e-02		-37.181
6		0.00		-8.80		3.937e-02		-41.122
6		0.00		-8.40		3.873e-02		-46.382
6		0.00		-8.00		3.944e-02		-48.582
6		0.00		-7.60		3.906e-02		-49.353
6		0.00		-7.20		3.796e-02		-51.713
6		0.00		-6.80		3.766e-02		-52.067
6		0.00		-6.40		3.401e-02		-51.163
6		0.00		-6.00		3.239e-02		-49.305
6		0.00		-5.60		3.106e-02		-46.869
6		0.00		-5.20		2.868e-02		-48.530
6		0.00		-4.80		2.721e-02		-48.953
6		0.00		-4.40		2.535e-02		-50.101
6		0.00		-4.00		2.351e-02		-48.116
6		0.00		-3.60		2.232e-02		-48.874
6		0.00		-3.20		1.986e-02		-47.719
6		0.00		-2.80		1.785e-02		-45.336
6		0.00		-2.40		1.692e-02		-44.016
6		0.00		-2.00		1.501e-02		-45.299
6		0.00		-1.60		1.268e-02		-43.814
6		0.00		-1.20		1.076e-02		-48.627
6		0.00		-0.80		9.232e-03		-43.547
6		0.00		-0.40		7.292e-03		-43.252
7		0.00		0.00		4.940e-03		-50.715
7		0.00		0.40		3.501e-03		-54.263
7		0.00		0.80		2.895e-03		-26.929
7		0.00		1.20		3.183e-03		12.026
7		0.00		1.60		4.170e-03		72.391
7		0.00		2.00		5.340e-03		97.585
7		0.00		2.40		7.070e-03		116.460
7		0.00		2.80		8.455e-03		131.980
7		0.00		3.20		1.086e-02		131.291
7		0.00		3.60		1.161e-02		131.437
7		0.00		4.00		1.200e-02		129.258
7		0.00		4.40		1.313e-02		126.396
7		0.00		4.80		1.467e-02		122.941
7		0.00		5.20		1.468e-02		113.719
7		0.00		5.60		1.466e-02		109.608
7		0.00		6.00		1.505e-02		101.632
7		0.00		6.40		1.543e-02		106.404
7		0.00		6.80		1.550e-02		109.725
7		0.00		7.20		1.738e-02		121.368
7		0.00		7.60		1.759e-02		120.039
7		0.00		8.00		1.805e-02		124.402
7		0.00		8.40		1.995e-02		127.607
7		0.00		8.80		2.079e-02		126.604
7		0.00		9.20		2.150e-02		136.442
7		0.00		9.60		2.107e-02		133.217
7		0.00		10.00		2.057e-02		131.839
7		0.00		9.60		2.097e-02		125.235
7		0.00		9.20		2.038e-02		118.130
7		0.00		8.80		1.909e-02		112.449
7		0.00		8.40		1.801e-02		109.149
7		0.00		8.00		1.763e-02		114.065
7		0.00		7.60		1.729e-02		117.873
7		0.00		7.20		1.586e-02		118.306
7		0.00		6.80		1.550e-02		125.343
7		0.00		6.40		1.527e-02		122.590
7		0.00		6.00		1.395e-02		127.361
7		0.00		5.60		1.287e-02		137.878
7		0.00		5.20		1.171e-02		127.463
7		0.00		4.80		1.060e-02		104.602
7		0.00		4.40		9.347e-03		89.257
7		0.00		4.00		7.361e-03		72.910
7		0.00		3.60		6.262e-03		55.683
7		0.00		3.20		5.804e-03		37.799
7		0.00		2.80		4.695e-03		-19.080
7		0.00		2.40		4.732e-03		-44.663
7		0.00		2.00		5.594e-03		-73.864
7		0.00		1.60		7.099e-03		-67.562
7		0.00		1.20		8.487e-03		-58.638
7		0.00		0.80		1.212e-02		-61.141
7		0.00		0.40		1.494e-02		-52.764
7		0.00		0.00		1.714e-02		-53.124
7		0.00		-0.40		2.017e-02		-51.087
7		0.00		-0.80		2.449e-02		-50.988
7		0.00		-1.20		2.684e-02		-52.465
7		0.00		-1.60		2.978e-02		-51.784
7		0.00		-2.00		3.269e-02		-52.578
7		0.00		-2.40		3.451e-02		-52.628
7		0.00		-2.80		3.639e-02		-50.895
7		0.00		-3.20		3.773e-02		-50.472
7		0.00		-3.60		3.820e-02		-55.118
7		0.00		-4.00		3.958e-02		-55.715
7		0.00		-4.40		4.013e-02		-57.561
7		0.00		-4.80		4.061e-02		-57.483
7		0.00		-5.20		4.188e-02		-57.505
7		0.00		-5.60		4.247e-02		-56.850
7		0.00		-6.00		4.304e-02		-55.334
7		0.00		-6.40		4.475e-02		-53.487
7		0.00		-6.80		4.482e-02		-53.699
7		0.00		-7.20		4.568e-02		-52.688
7		0.00		-7.60		4.648e-02		-51.848
7		0.00		-8.00		4.575e-02		-48.693
7		0.00		-8.40		4.600e-02		-46.613
7		0.00		-8.80		4.356e-02		-43.086
7		0.00		-9.20		3.980e-02		-44.156
7		0.00		-9.60		3.545e-02		-48.736
7		0.00		-10.00		3.088e-02		-44.466
7		0.00		-9.60		3.460e-02		-43.322
7		0.00		-9.20		3.972e-02		-45.354
7		0.00		-8.80		4.152e-02		-44.283
7		0.00		-8.40		4.217e-02		-46.634
7		0.00		-8.00		4.204e-02		-49.878
7		0.00		-7.60		4.262e-02		-54.086
7		0.00		-7.20		4.053e-02		-55.133
7		0.00		-6.80		4.065e-02		-54.579
7		0.00		-6.40		3.949e-02		-51.233
7		0.00		-6.00		3.783e-02		-51.363
7		0.00		-5.60		3.602e-02		-50.073
7		0.00		-5.20		3.483e-02		-50.386
7		0.00		-4.80		3.270e-02		-49.398
7		0.00		-4.40		3.053e-02		-50.877
7		0.00		-4.00		2.923e-02		-51.613
7		0.00		-3.60		2.693e-02		-52.522
7		0.00		-3.20		2.428e-02		-53.222
7		0.00		-2.80		2.199e-02		-53.233
7		0.00		-2.40		2.011e-02		-56.484
7		0.00		-2.00		1.794e-02		-56.058
7		0.00		-1.60		1.500e-02		-58.328
7		0.00		-1.20		1.316e-02		-56.259
7		0.00		-0.80		1.080e-02		-50.892
7		0.00		-0.40		9.344e-03		-54.088
8		0.00		0.00		7.731e-03		-55.971
8		0.00		0.40		6.127e-03		-60.114
8		0.00		0.80		4.448e-03		-70.853
8		0.00		1.20		2.957e-03		-68.268
8		0.00		1.60		2.615e-03		-12.351
8		0.00		2.00		3.493e-03		64.127
8		0.00		2.40		4.821e-03		86.365
8		0.00		2.80		5.702e-03		102.882
8		0.00		3.20		7.423e-03		114.334
8		0.00		3.60		8.335e-03		128.291
8		0.00		4.00		1.032e-02		135.559
8		0.00		4.40		1.150e-02		132.181
8		0.00		4.80		1.252e-02		133.156
8		0.00		5.20		1.267e-02		136.664
8		0.00		5.60		1.311e-02		130.718
8		0.00		6.00		1.407e-02		126.348
8		0.00		6.40		1.507e-02		121.395
8		0.00		6.80		1.615e-02		121.685
8		0.00		7.20		1.515e-02		125.811
8		0.00		7.60		1.610e-02		129.361
8		0.00		8.00		1.791e-02		128.528
8		0.00		8.40		2.012e-02		128.695
8		0.00		8.80		2.069e-02		132.305
8		0.00		9.20		2.084e-02		129.128
8		0.00		9.60		1.982e-02		132.482
8		0.00		10.00		1.930e-02		131.237
8		0.00		9.60		1.989e-02		127.271
8		0.00		9.20		1.986e-02		123.069
8		0.00		8.80		1.910e-02		128.739
8		0.00		8.40		1.899e-02		125.137
8		0.00		8.00		1.919e-02		128.609
8		0.00		7.60		1.774e-02		121.771
8		0.00		7.20		1.657e-02		127.338
8		0.00		6.80		1.576e-02		132.668
8		0.00		6.40		1.538e-02		134.614
8		0.00		6.00		1.360e-02		134.141
8		0.00		5.60		1.202e-02		137.928
8		0.00		5.20		9.597e-03		121.559
8		0.00		4.80		8.088e-03		94.887
8		0.00		4.40		6.776e-03		83.803
8		0.00		4.00		5.991e-03		71.028
8		0.00		3.60		4.997e-03		56.572
8		0.00		3.20		4.157e-03		24.277
8		0.00		2.80		3.819e-03		-24.737
8		0.00		2.40		4.600e-03		-80.717
8		0.00		2.00		6.105e-03		-83.308
8		0.00		1.60		8.386e-03		-68.798
8		0.00		1.20		1.071e-02		-61.781
8		0.00		0.80		1.329e-02		-58.113
8		0.00		0.40		1.632e-02		-57.147
8		0.00		0.00		1.951e-02		-57.369
8		0.00		-0.40		2.219e-02		-56.299
8		0.00		-0.80		2.499e-02		-56.682
8		0.00		-1.20		2.684e-02		-55.600
8		0.00		-1.60		2.779e-02		-55.829
8		0.00		-2.00		2.850e-02		-56.612
8		0.00		-2.40		3.033e-02		-58.426
8		0.00		-2.80		3.181e-02		-60.571
8		0.00		-3.20		3.404e-02		-60.015
8		0.00		-3.60		3.638e-02		-57.300
8		0.00		-4.00		3.806e-02		-55.980
8		0.00		-4.40		3.820e-02		-50.274
8		0.00		-4.80		4.050e-02		-49.507
8		0.00		-5.20		4.263e-02		-49.001
8		0.00		-5.60		4.480e-02		-52.236
8		0.00		-6.00		4.566e-02		-51.402
8		0.00		-6.40		4.473e-02		-54.523
8		0.00		-6.80		4.420e-02		-56.448
8		0.00		-7.20		4.429e-02		-59.298
8		0.00		-7.60		4.622e-02		-56.053
8		0.00		-8.00		4.668e-02		-53.466
8		0.00		-8.40		4.510e-02		-49.695
8		0.00		-8.80		4.233e-02		-44.880
8		0.00		-9.20		3.740e-02		-41.643
8		0.00		-9.60		3.415e-02		-49.023
8		0.00		-10.00		3.107e-02		-43.982
8		0.00		-9.60		3.623e-02		-40.132
8		0.00		-9.20		3.769e-02		-40.143
8		0.00		-8.80		3.881e-02		-50.777
8		0.00		-8.40		4.053e-02		-54.139
8		0.00		-8.00		4.235e-02		-54.258
8		0.00		-7.60		4.325e-02		-52.788
8		0.00		-7.20		4.300e-02		-49.199
8		0.00		-6.80		4.191e-02		-45.923
8		0.00		-6.40		4.053e-02		-43.223
8		0.00		-6.00		3.885e-02		-45.134
8		0.00		-5.60		3.593e-02		-48.299
8		0.00		-5.20		3.312e-02		-49.295
8		0.00		-4.80		2.997e-02		-54.173
8		0.00		-4.40		2.768e-02		-50.660
8		0.00		-4.00		2.515e-02		-51.263
8		0.00		-3.60		2.320e-02		-49.075
8		0.00		-3.20		2.062e-02		-48.143
8		0.00		-2.80		1.955e-02		-48.135
8		0.00		-2.40		1.817e-02		-50.745
8		0.00		-2.00		1.660e-02		-48.788
8		0.00		-1.60		1.400e-02		-51.893
8		0.00		-1.20		1.200e-02		-46.901
8		0.00		-0.80		9.811e-03		-51.455
8		0.00		-0.40		7.789e-03		-53.802
