# Date of analysis: 2024-03-08 10;59
# Segment other properties: height: -81.54655734856023, diff height: 522.3596929080425, deflection: 33.12898776398797, deflection error: 2.4406491845865586, adhesion: 39.237828955248396, phase offset: 0
# 
# Loop index	Read Volt (V)	Write Volt (V)	Amplitude (a.u)	Phase (deg)	Sigma Amp (a.u)	Sigma Pha (deg)	
1		0.00		0.00		8.996e-03		-43.589		2.239e-03		14.333
1		0.00		0.40		9.221e-03		-45.419		1.533e-03		14.758
1		0.00		0.80		8.758e-03		-43.740		1.966e-03		16.710
1		0.00		1.20		9.541e-03		-44.140		2.073e-03		12.159
1		0.00		1.60		9.055e-03		-43.609		1.716e-03		14.089
1		0.00		2.00		8.893e-03		-44.190		2.221e-03		14.483
1		0.00		2.40		9.358e-03		-47.048		1.746e-03		11.341
1		0.00		2.80		9.298e-03		-44.862		1.923e-03		14.707
1		0.00		3.20		9.613e-03		-43.847		1.808e-03		10.917
1		0.00		3.60		9.656e-03		-46.555		1.723e-03		12.393
1		0.00		4.00		1.008e-02		-44.831		2.195e-03		12.491
1		0.00		4.40		1.140e-02		-48.456		1.971e-03		10.464
1		0.00		4.80		1.212e-02		-47.214		2.388e-03		10.241
1		0.00		5.20		1.240e-02		-47.602		2.267e-03		9.984
1		0.00		5.60		1.369e-02		-49.724		2.183e-03		10.440
1		0.00		6.00		1.422e-02		-47.899		3.168e-03		11.506
1		0.00		6.40		1.501e-02		-49.038		2.243e-03		7.966
1		0.00		6.80		1.560e-02		-49.271		3.138e-03		10.149
1		0.00		7.20		1.642e-02		-48.734		2.891e-03		9.821
1		0.00		7.60		1.827e-02		-49.213		2.589e-03		8.551
1		0.00		8.00		1.734e-02		-49.483		3.718e-03		9.722
1		0.00		8.40		1.937e-02		-51.172		3.367e-03		8.328
1		0.00		8.80		2.006e-02		-50.260		4.695e-03		10.064
1		0.00		9.20		2.127e-02		-50.599		3.600e-03		8.994
1		0.00		9.60		2.217e-02		-50.964		4.087e-03		8.184
1		0.00		10.00		2.301e-02		-49.888		4.996e-03		8.418
1		0.00		9.60		2.481e-02		-50.822		4.097e-03		7.517
1		0.00		9.20		2.426e-02		-51.094		5.525e-03		9.291
1		0.00		8.80		2.485e-02		-52.879		4.506e-03		6.556
1		0.00		8.40		2.492e-02		-51.402		4.772e-03		8.458
1		0.00		8.00		2.437e-02		-52.472		5.171e-03		9.043
1		0.00		7.60		2.564e-02		-50.296		4.182e-03		7.789
1		0.00		7.20		2.421e-02		-50.629		5.360e-03		8.804
1		0.00		6.80		2.533e-02		-51.838		4.015e-03		8.518
1		0.00		6.40		2.478e-02		-50.997		4.463e-03		8.142
1		0.00		6.00		2.370e-02		-51.290		4.442e-03		9.067
1		0.00		5.60		2.482e-02		-49.987		3.760e-03		7.122
1		0.00		5.20		2.358e-02		-51.255		4.879e-03		8.018
1		0.00		4.80		2.375e-02		-49.471		3.481e-03		8.812
1		0.00		4.40		2.337e-02		-49.742		4.168e-03		8.653
1		0.00		4.00		2.323e-02		-50.516		3.908e-03		8.078
1		0.00		3.60		2.364e-02		-49.068		3.879e-03		7.327
1		0.00		3.20		2.260e-02		-49.262		4.735e-03		9.520
1		0.00		2.80		2.318e-02		-48.025		3.562e-03		8.251
1		0.00		2.40		2.243e-02		-50.003		4.227e-03		9.899
1		0.00		2.00		2.289e-02		-49.795		4.094e-03		8.150
1		0.00		1.60		2.272e-02		-49.506		3.491e-03		7.507
1		0.00		1.20		2.205e-02		-49.594		4.694e-03		8.735
1		0.00		0.80		2.302e-02		-49.298		3.539e-03		7.943
1		0.00		0.40		2.157e-02		-50.468		4.569e-03		10.149
1		0.00		0.00		2.257e-02		-49.573		3.887e-03		7.989
1		0.00		-0.40		2.215e-02		-49.611		3.697e-03		8.290
1		0.00		-0.80		2.098e-02		-49.953		4.679e-03		9.427
1		0.00		-1.20		2.189e-02		-48.166		3.290e-03		7.907
1		0.00		-1.60		2.063e-02		-49.025		4.045e-03		10.362
1		0.00		-2.00		2.082e-02		-51.390		3.896e-03		9.059
1		0.00		-2.40		2.006e-02		-49.030		3.489e-03		8.960
1		0.00		-2.80		1.953e-02		-51.349		4.131e-03		10.955
1		0.00		-3.20		2.031e-02		-50.490		3.114e-03		7.722
1		0.00		-3.60		1.891e-02		-48.607		3.856e-03		9.569
1		0.00		-4.00		1.846e-02		-50.291		2.977e-03		8.485
1		0.00		-4.40		1.787e-02		-49.958		3.133e-03		8.468
1		0.00		-4.80		1.629e-02		-50.588		3.175e-03		8.831
1		0.00		-5.20		1.671e-02		-49.540		2.811e-03		10.393
1		0.00		-5.60		1.544e-02		-47.296		3.288e-03		8.876
1		0.00		-6.00		1.437e-02		-46.625		2.497e-03		10.916
1		0.00		-6.40		1.413e-02		-47.446		2.470e-03		9.995
1		0.00		-6.80		1.228e-02		-47.692		2.542e-03		10.672
1		0.00		-7.20		1.185e-02		-48.496		1.794e-03		10.668
1		0.00		-7.60		9.740e-03		-46.087		2.189e-03		13.266
1		0.00		-8.00		8.720e-03		-45.918		1.855e-03		12.898
1		0.00		-8.40		6.613e-03		-48.576		1.599e-03		15.091
1		0.00		-8.80		5.601e-03		-35.687		1.555e-03		18.924
1		0.00		-9.20		3.799e-03		-37.873		1.266e-03		23.076
1		0.00		-9.60		2.332e-03		-31.319		9.958e-04		56.545
1		0.00		-10.00		1.804e-03		13.562		8.233e-04		56.289
1		0.00		-9.60		2.165e-03		37.946		1.035e-03		65.671
1		0.00		-9.20		2.212e-03		61.043		9.024e-04		49.147
1		0.00		-8.80		2.165e-03		60.580		1.042e-03		51.864
1		0.00		-8.40		2.437e-03		61.634		9.411e-04		45.826
1		0.00		-8.00		2.825e-03		87.545		1.160e-03		50.440
1		0.00		-7.60		2.580e-03		71.125		1.008e-03		57.007
1		0.00		-7.20		2.498e-03		67.756		1.113e-03		50.424
1		0.00		-6.80		2.736e-03		82.088		1.100e-03		44.142
1		0.00		-6.40		2.595e-03		71.416		9.330e-04		55.665
1		0.00		-6.00		2.396e-03		69.347		1.044e-03		58.214
1		0.00		-5.60		2.478e-03		68.040		9.465e-04		57.413
1		0.00		-5.20		2.424e-03		68.955		1.057e-03		55.732
1		0.00		-4.80		2.156e-03		67.298		9.524e-04		45.512
1		0.00		-4.40		2.313e-03		66.651		8.992e-04		52.219
1		0.00		-4.00		2.275e-03		65.523		9.955e-04		50.118
1		0.00		-3.60		2.191e-03		55.572		9.513e-04		50.455
1		0.00		-3.20		2.110e-03		56.969		8.573e-04		51.570
1		0.00		-2.80		2.163e-03		62.267		8.751e-04		55.806
1		0.00		-2.40		2.001e-03		47.926		7.140e-04		56.892
1		0.00		-2.00		2.231e-03		57.197		9.382e-04		56.028
1		0.00		-1.60		2.141e-03		50.778		7.482e-04		54.512
1		0.00		-1.20		2.129e-03		46.792		9.279e-04		64.391
1		0.00		-0.80		2.169e-03		46.761		9.163e-04		66.337
1		0.00		-0.40		2.175e-03		49.678		9.546e-04		64.905
2		0.00		0.00		2.102e-03		51.992		9.997e-04		66.516
2		0.00		0.40		1.994e-03		44.584		8.549e-04		51.639
2		0.00		0.80		1.863e-03		44.532		8.036e-04		55.341
2		0.00		1.20		2.053e-03		41.317		7.472e-04		59.012
2		0.00		1.60		2.115e-03		36.778		8.730e-04		56.042
2		0.00		2.00		2.128e-03		38.263		9.838e-04		69.218
2		0.00		2.40		1.723e-03		6.286		7.201e-04		62.335
2		0.00		2.80		1.983e-03		10.540		8.876e-04		50.046
2		0.00		3.20		2.333e-03		-30.467		9.580e-04		44.615
2		0.00		3.60		2.834e-03		-20.009		1.179e-03		34.660
2		0.00		4.00		3.138e-03		-49.506		9.825e-04		36.973
2		0.00		4.40		4.071e-03		-40.930		1.166e-03		24.621
2		0.00		4.80		4.788e-03		-36.252		1.297e-03		20.502
2		0.00		5.20		5.540e-03		-39.614		1.227e-03		20.146
2		0.00		5.60		6.263e-03		-45.304		1.497e-03		15.493
2		0.00		6.00		6.725e-03		-43.346		1.615e-03		16.619
2		0.00		6.40		8.094e-03		-47.054		1.518e-03		14.870
2		0.00		6.80		8.217e-03		-47.648		1.784e-03		12.582
2		0.00		7.20		9.409e-03		-50.706		1.587e-03		12.937
2		0.00		7.60		1.009e-02		-47.598		1.948e-03		12.116
2		0.00		8.00		1.042e-02		-50.428		1.979e-03		9.934
2		0.00		8.40		1.145e-02		-49.093		1.869e-03		12.629
2		0.00		8.80		1.279e-02		-49.742		2.668e-03		10.986
2		0.00		9.20		1.448e-02		-49.970		2.742e-03		9.976
2		0.00		9.60		1.521e-02		-50.215		2.731e-03		9.849
2		0.00		10.00		1.669e-02		-50.555		3.675e-03		10.312
2		0.00		9.60		1.835e-02		-51.126		3.086e-03		8.433
2		0.00		9.20		1.867e-02		-51.415		3.735e-03		9.957
2		0.00		8.80		1.896e-02		-52.327		3.986e-03		8.532
2		0.00		8.40		1.936e-02		-53.076		3.440e-03		8.971
2		0.00		8.00		1.938e-02		-50.978		4.635e-03		9.822
2		0.00		7.60		2.006e-02		-50.692		3.632e-03		8.214
2		0.00		7.20		1.934e-02		-50.942		3.747e-03		8.690
2		0.00		6.80		1.875e-02		-50.400		4.408e-03		9.039
2		0.00		6.40		1.991e-02		-50.630		2.891e-03		8.618
2		0.00		6.00		1.928e-02		-50.925		3.917e-03		10.076
2		0.00		5.60		1.951e-02		-49.792		3.278e-03		8.764
2		0.00		5.20		1.946e-02		-49.840		3.011e-03		9.175
2		0.00		4.80		1.853e-02		-50.392		3.809e-03		10.384
2		0.00		4.40		1.922e-02		-50.923		2.865e-03		8.350
2		0.00		4.00		1.862e-02		-49.200		3.496e-03		9.944
2		0.00		3.60		1.814e-02		-50.706		3.596e-03		10.035
2		0.00		3.20		1.851e-02		-49.086		2.834e-03		7.788
2		0.00		2.80		1.784e-02		-50.081		3.699e-03		8.585
2		0.00		2.40		1.810e-02		-50.124		2.954e-03		9.305
2		0.00		2.00		1.772e-02		-50.903		3.044e-03		8.929
2		0.00		1.60		1.750e-02		-45.290		3.761e-03		8.580
2		0.00		1.20		1.821e-02		-49.962		2.879e-03		9.010
2		0.00		0.80		1.788e-02		-48.378		3.655e-03		10.956
2		0.00		0.40		1.762e-02		-48.187		3.077e-03		10.583
2		0.00		0.00		1.765e-02		-50.699		3.105e-03		9.031
2		0.00		-0.40		1.695e-02		-52.259		3.574e-03		10.427
2		0.00		-0.80		1.743e-02		-50.100		2.852e-03		10.272
2		0.00		-1.20		1.701e-02		-50.139		3.284e-03		10.776
2		0.00		-1.60		1.679e-02		-48.442		3.687e-03		10.297
2		0.00		-2.00		1.688e-02		-47.884		2.794e-03		9.892
2		0.00		-2.40		1.514e-02		-47.020		3.431e-03		11.044
2		0.00		-2.80		1.560e-02		-48.197		2.658e-03		9.066
2		0.00		-3.20		1.503e-02		-48.490		2.668e-03		9.919
2		0.00		-3.60		1.422e-02		-46.310		3.139e-03		11.526
2		0.00		-4.00		1.412e-02		-47.752		2.081e-03		10.287
2		0.00		-4.40		1.329e-02		-47.167		2.676e-03		9.659
2		0.00		-4.80		1.269e-02		-46.682		2.494e-03		11.692
2		0.00		-5.20		1.287e-02		-48.396		2.031e-03		9.284
2		0.00		-5.60		1.145e-02		-46.548		2.439e-03		12.169
2		0.00		-6.00		1.066e-02		-43.829		1.959e-03		12.757
2		0.00		-6.40		9.777e-03		-45.107		1.875e-03		12.943
2		0.00		-6.80		8.613e-03		-46.820		2.057e-03		15.552
2		0.00		-7.20		7.939e-03		-35.829		1.425e-03		16.633
2		0.00		-7.60		6.339e-03		-50.558		1.702e-03		24.972
2		0.00		-8.00		5.259e-03		-31.387		1.458e-03		20.785
2		0.00		-8.40		4.114e-03		-39.520		1.376e-03		26.454
2		0.00		-8.80		2.812e-03		-55.550		1.055e-03		33.429
2		0.00		-9.20		1.836e-03		-3.572		7.995e-04		52.924
2		0.00		-9.60		1.866e-03		28.034		8.025e-04		63.614
2		0.00		-10.00		2.343e-03		55.347		9.573e-04		55.606
2		0.00		-9.60		2.734e-03		81.795		1.094e-03		38.915
2		0.00		-9.20		2.681e-03		76.017		1.181e-03		47.965
2		0.00		-8.80		3.139e-03		87.502		1.225e-03		45.588
2		0.00		-8.40		3.417e-03		107.354		1.127e-03		29.931
2		0.00		-8.00		3.313e-03		95.952		1.217e-03		42.859
2		0.00		-7.60		3.698e-03		98.252		1.413e-03		37.325
2		0.00		-7.20		3.731e-03		104.270		1.122e-03		24.255
2		0.00		-6.80		3.288e-03		96.127		1.395e-03		41.332
2		0.00		-6.40		3.129e-03		94.586		1.243e-03		45.674
2		0.00		-6.00		2.979e-03		96.858		1.257e-03		37.555
2		0.00		-5.60		3.007e-03		80.093		1.353e-03		59.210
2		0.00		-5.20		3.005e-03		80.703		1.193e-03		44.560
2		0.00		-4.80		2.664e-03		83.260		1.071e-03		58.703
2		0.00		-4.40		2.545e-03		77.825		8.379e-04		44.496
2		0.00		-4.00		2.760e-03		73.800		1.168e-03		53.490
2		0.00		-3.60		2.890e-03		93.831		1.007e-03		39.935
2		0.00		-3.20		2.834e-03		86.425		1.080e-03		41.047
2		0.00		-2.80		2.653e-03		79.503		1.123e-03		44.931
2		0.00		-2.40		2.642e-03		83.492		9.929e-04		47.349
2		0.00		-2.00		2.726e-03		73.064		1.009e-03		49.274
2		0.00		-1.60		2.675e-03		93.016		1.028e-03		41.881
2		0.00		-1.20		2.565e-03		87.762		1.126e-03		43.991
2		0.00		-0.80		2.699e-03		82.740		1.017e-03		48.491
2		0.00		-0.40		2.348e-03		68.721		1.094e-03		55.495
3		0.00		0.00		2.808e-03		85.590		1.166e-03		49.570
3		0.00		0.40		2.545e-03		66.489		1.270e-03		68.469
3		0.00		0.80		2.733e-03		78.964		1.097e-03		52.060
3		0.00		1.20		2.259e-03		77.636		9.673e-04		47.080
3		0.00		1.60		2.597e-03		80.660		9.656e-04		46.064
3		0.00		2.00		2.326e-03		66.471		8.181e-04		53.360
3		0.00		2.40		2.295e-03		51.253		1.128e-03		61.424
3		0.00		2.80		1.994e-03		34.167		7.826e-04		64.278
3		0.00		3.20		1.876e-03		13.362		7.602e-04		58.490
3		0.00		3.60		2.349e-03		-11.822		9.509e-04		55.744
3		0.00		4.00		2.179e-03		-38.187		9.689e-04		45.852
3		0.00		4.40		3.119e-03		-32.017		1.069e-03		29.625
3		0.00		4.80		3.915e-03		-36.860		1.152e-03		25.268
3		0.00		5.20		4.339e-03		-49.399		1.166e-03		24.963
3		0.00		5.60		5.288e-03		-41.161		1.619e-03		17.215
3		0.00		6.00		6.170e-03		-51.463		1.333e-03		18.196
3		0.00		6.40		6.801e-03		-44.181		1.348e-03		17.049
3		0.00		6.80		7.481e-03		-48.669		1.554e-03		16.337
3		0.00		7.20		8.424e-03		-47.605		1.568e-03		14.858
3		0.00		7.60		8.298e-03		-52.847		1.847e-03		13.886
3		0.00		8.00		9.725e-03		-43.006		1.897e-03		13.745
3		0.00		8.40		1.055e-02		-48.095		1.750e-03		10.841
3		0.00		8.80		1.157e-02		-46.044		2.684e-03		11.641
3		0.00		9.20		1.233e-02		-49.011		2.094e-03		9.724
3		0.00		9.60		1.419e-02		-51.038		2.212e-03		9.926
3		0.00		10.00		1.503e-02		-48.820		3.621e-03		9.326
3		0.00		9.60		1.613e-02		-50.202		2.985e-03		9.015
3		0.00		9.20		1.726e-02		-50.546		2.848e-03		9.540
3		0.00		8.80		1.696e-02		-51.127		3.941e-03		8.912
3		0.00		8.40		1.709e-02		-49.446		3.001e-03		7.538
3		0.00		8.00		1.778e-02		-51.372		3.076e-03		7.856
3		0.00		7.60		1.716e-02		-52.267		3.874e-03		10.426
3		0.00		7.20		1.740e-02		-49.876		3.281e-03		9.246
3		0.00		6.80		1.719e-02		-50.504		2.904e-03		8.054
3		0.00		6.40		1.706e-02		-49.908		3.897e-03		10.937
3		0.00		6.00		1.738e-02		-51.510		3.166e-03		8.723
3		0.00		5.60		1.740e-02		-47.824		2.620e-03		9.333
3		0.00		5.20		1.695e-02		-51.120		3.566e-03		11.222
3		0.00		4.80		1.701e-02		-48.558		3.103e-03		10.022
3		0.00		4.40		1.703e-02		-48.871		2.564e-03		9.647
3		0.00		4.00		1.678e-02		-51.346		3.128e-03		9.554
3		0.00		3.60		1.616e-02		-49.463		3.255e-03		10.957
3		0.00		3.20		1.697e-02		-48.662		2.564e-03		9.060
3		0.00		2.80		1.640e-02		-46.364		2.794e-03		9.511
3		0.00		2.40		1.613e-02		-48.420		3.238e-03		10.040
3		0.00		2.00		1.636e-02		-47.938		2.595e-03		8.069
3		0.00		1.60		1.652e-02		-51.512		2.386e-03		7.636
3		0.00		1.20		1.619e-02		-48.581		2.810e-03		9.036
3		0.00		0.80		1.562e-02		-48.529		3.178e-03		10.243
3		0.00		0.40		1.621e-02		-53.071		2.489e-03		11.278
3		0.00		0.00		1.607e-02		-51.933		3.146e-03		9.222
3		0.00		-0.40		1.548e-02		-48.882		3.291e-03		9.908
3		0.00		-0.80		1.559e-02		-50.431		2.737e-03		9.998
3		0.00		-1.20		1.606e-02		-46.423		2.367e-03		8.185
3		0.00		-1.60		1.508e-02		-45.098		3.157e-03		9.281
3		0.00		-2.00		1.437e-02		-45.575		2.926e-03		10.135
3		0.00		-2.40		1.473e-02		-45.700		2.093e-03		8.906
3		0.00		-2.80		1.422e-02		-47.735		2.519e-03		8.737
3		0.00		-3.20		1.338e-02		-48.257		3.187e-03		12.794
3		0.00		-3.60		1.309e-02		-45.769		2.502e-03		11.101
3		0.00		-4.00		1.232e-02		-47.513		2.141e-03		12.184
3		0.00		-4.40		1.240e-02		-44.644		2.338e-03		10.211
3		0.00		-4.80		1.146e-02		-48.309		2.342e-03		10.147
3		0.00		-5.20		1.115e-02		-44.526		1.793e-03		9.239
3		0.00		-5.60		1.070e-02		-48.930		1.832e-03		11.646
3		0.00		-6.00		9.492e-03		-49.321		2.109e-03		12.574
3		0.00		-6.40		8.936e-03		-45.493		1.985e-03		11.910
3		0.00		-6.80		7.615e-03		-41.443		1.569e-03		16.242
3		0.00		-7.20		7.034e-03		-47.364		1.420e-03		13.191
3		0.00		-7.60		6.253e-03		-48.093		1.605e-03		15.745
3		0.00		-8.00		5.414e-03		-37.899		1.391e-03		18.562
3		0.00		-8.40		3.883e-03		-47.932		1.260e-03		22.341
3		0.00		-8.80		3.440e-03		-37.657		1.111e-03		26.486
3		0.00		-9.20		2.412e-03		-48.189		1.027e-03		52.628
3		0.00		-9.60		2.250e-03		7.826		9.962e-04		54.228
3		0.00		-10.00		1.781e-03		10.104		6.469e-04		63.249
3		0.00		-9.60		2.136e-03		38.097		9.478e-04		64.718
3		0.00		-9.20		2.151e-03		44.269		9.023e-04		64.425
3		0.00		-8.80		2.522e-03		66.858		1.107e-03		50.016
3		0.00		-8.40		2.575e-03		80.299		1.001e-03		51.686
3		0.00		-8.00		2.568e-03		75.742		1.091e-03		54.836
3		0.00		-7.60		2.550e-03		81.085		1.035e-03		51.151
3		0.00		-7.20		2.641e-03		73.797		1.111e-03		59.645
3		0.00		-6.80		2.728e-03		79.126		1.197e-03		56.166
3		0.00		-6.40		2.676e-03		78.406		9.631e-04		45.967
3		0.00		-6.00		2.403e-03		71.327		8.886e-04		50.820
3		0.00		-5.60		2.561e-03		80.484		1.058e-03		43.781
3		0.00		-5.20		2.366e-03		64.812		1.000e-03		53.834
3		0.00		-4.80		2.171e-03		57.270		9.269e-04		63.522
3		0.00		-4.40		2.308e-03		44.920		9.594e-04		67.168
3		0.00		-4.00		2.340e-03		65.344		9.990e-04		48.977
3		0.00		-3.60		2.059e-03		45.018		8.714e-04		57.484
3		0.00		-3.20		2.154e-03		64.299		8.759e-04		56.122
3		0.00		-2.80		2.213e-03		58.449		9.264e-04		55.492
3		0.00		-2.40		2.245e-03		66.634		7.749e-04		46.739
3		0.00		-2.00		2.329e-03		61.255		9.939e-04		52.433
3		0.00		-1.60		2.262e-03		68.052		9.703e-04		63.156
3		0.00		-1.20		2.178e-03		62.675		9.262e-04		49.707
3		0.00		-0.80		2.309e-03		50.757		1.017e-03		59.150
3		0.00		-0.40		2.499e-03		68.301		1.060e-03		51.483
4		0.00		0.00		2.454e-03		84.575		9.430e-04		41.342
4		0.00		0.40		2.460e-03		74.690		1.080e-03		53.917
4		0.00		0.80		2.122e-03		64.720		9.264e-04		58.463
4		0.00		1.20		2.189e-03		52.311		9.004e-04		59.943
4		0.00		1.60		2.015e-03		60.474		7.808e-04		53.118
4		0.00		2.00		2.137e-03		53.386		9.103e-04		52.311
4		0.00		2.40		2.021e-03		26.087		9.710e-04		58.767
4		0.00		2.80		1.724e-03		17.760		7.158e-04		64.095
4		0.00		3.20		2.082e-03		1.058		9.099e-04		54.572
4		0.00		3.60		2.031e-03		-11.356		8.110e-04		45.644
4		0.00		4.00		2.626e-03		-30.392		9.557e-04		35.660
4		0.00		4.40		3.465e-03		-35.819		1.141e-03		32.571
4		0.00		4.80		3.891e-03		-45.919		1.253e-03		22.220
4		0.00		5.20		5.068e-03		-42.875		1.397e-03		23.492
4		0.00		5.60		5.908e-03		-50.071		1.416e-03		19.140
4		0.00		6.00		6.343e-03		-47.024		1.272e-03		16.768
4		0.00		6.40		7.065e-03		-47.922		1.539e-03		15.783
4		0.00		6.80		7.553e-03		-42.304		1.907e-03		18.735
4		0.00		7.20		8.392e-03		-45.425		1.835e-03		13.240
4		0.00		7.60		9.269e-03		-51.369		1.848e-03		13.974
4		0.00		8.00		9.367e-03		-49.379		1.577e-03		13.354
4		0.00		8.40		1.039e-02		-47.658		2.226e-03		11.956
4		0.00		8.80		1.100e-02		-52.738		2.481e-03		13.882
4		0.00		9.20		1.183e-02		-51.083		2.340e-03		10.123
4		0.00		9.60		1.392e-02		-52.405		2.421e-03		9.222
4		0.00		10.00		1.525e-02		-47.253		2.799e-03		8.543
4		0.00		9.60		1.594e-02		-48.651		3.434e-03		11.506
4		0.00		9.20		1.589e-02		-49.923		3.481e-03		10.746
4		0.00		8.80		1.712e-02		-48.868		2.616e-03		8.187
4		0.00		8.40		1.810e-02		-51.603		2.581e-03		9.676
4		0.00		8.00		1.757e-02		-48.887		2.989e-03		8.685
4		0.00		7.60		1.744e-02		-48.756		3.336e-03		11.949
4		0.00		7.20		1.686e-02		-50.041		3.445e-03		10.526
4		0.00		6.80		1.734e-02		-52.475		2.501e-03		8.112
4		0.00		6.40		1.731e-02		-51.839		2.741e-03		9.364
4		0.00		6.00		1.665e-02		-50.806		2.981e-03		9.799
4		0.00		5.60		1.648e-02		-51.132		3.443e-03		12.529
4		0.00		5.20		1.673e-02		-51.006		3.175e-03		9.282
4		0.00		4.80		1.694e-02		-49.808		2.606e-03		8.610
4		0.00		4.40		1.667e-02		-49.901		2.236e-03		8.685
4		0.00		4.00		1.642e-02		-48.854		3.224e-03		8.545
4		0.00		3.60		1.614e-02		-48.517		3.452e-03		9.703
4		0.00		3.20		1.596e-02		-51.765		3.043e-03		10.187
4		0.00		2.80		1.647e-02		-47.603		2.204e-03		8.989
4		0.00		2.40		1.631e-02		-49.835		2.700e-03		9.337
4		0.00		2.00		1.595e-02		-50.221		3.018e-03		10.750
4		0.00		1.60		1.579e-02		-48.726		3.276e-03		11.620
4		0.00		1.20		1.573e-02		-49.542		2.714e-03		11.266
4		0.00		0.80		1.632e-02		-47.572		2.456e-03		8.623
4		0.00		0.40		1.618e-02		-49.891		2.705e-03		9.230
4		0.00		0.00		1.621e-02		-49.232		3.058e-03		10.211
4		0.00		-0.40		1.579e-02		-46.797		2.932e-03		10.887
4		0.00		-0.80		1.611e-02		-48.989		2.478e-03		8.276
4		0.00		-1.20		1.587e-02		-47.761		2.589e-03		9.269
4		0.00		-1.60		1.530e-02		-45.970		2.947e-03		12.393
4		0.00		-2.00		1.487e-02		-45.799		3.217e-03		8.563
4		0.00		-2.40		1.467e-02		-46.128		2.150e-03		10.310
4		0.00		-2.80		1.491e-02		-48.285		2.199e-03		10.413
4		0.00		-3.20		1.460e-02		-44.740		2.348e-03		10.629
4		0.00		-3.60		1.341e-02		-47.853		2.546e-03		10.164
4		0.00		-4.00		1.265e-02		-47.660		2.672e-03		9.644
4		0.00		-4.40		1.233e-02		-42.246		1.957e-03		9.625
4		0.00		-4.80		1.199e-02		-49.389		2.187e-03		12.701
4		0.00		-5.20		1.121e-02		-48.392		2.414e-03		10.190
4		0.00		-5.60		1.038e-02		-51.659		2.445e-03		11.582
4		0.00		-6.00		9.968e-03		-46.663		2.307e-03		12.054
4		0.00		-6.40		9.486e-03		-49.192		1.500e-03		12.863
4		0.00		-6.80		7.803e-03		-48.913		1.624e-03		12.845
4		0.00		-7.20		6.732e-03		-42.148		1.542e-03		19.661
4		0.00		-7.60		5.816e-03		-45.862		1.658e-03		20.352
4		0.00		-8.00		5.174e-03		-34.507		1.521e-03		16.244
4		0.00		-8.40		4.145e-03		-50.671		1.257e-03		25.297
4		0.00		-8.80		3.394e-03		-51.972		1.159e-03		27.470
4		0.00		-9.20		2.617e-03		-42.554		1.095e-03		38.833
4		0.00		-9.60		2.102e-03		-22.324		9.163e-04		54.353
4		0.00		-10.00		1.668e-03		15.197		6.236e-04		58.576
4		0.00		-9.60		1.995e-03		54.941		8.228e-04		53.351
4		0.00		-9.20		2.445e-03		69.376		1.130e-03		62.547
4		0.00		-8.80		2.394e-03		70.510		1.075e-03		44.837
4		0.00		-8.40		2.440e-03		61.882		9.501e-04		65.829
4		0.00		-8.00		2.719e-03		80.724		1.130e-03		46.212
4		0.00		-7.60		2.722e-03		84.652		1.131e-03		47.584
4		0.00		-7.20		3.016e-03		91.484		1.130e-03		50.854
4		0.00		-6.80		2.545e-03		87.137		1.065e-03		49.757
4		0.00		-6.40		2.642e-03		80.634		1.090e-03		42.817
4		0.00		-6.00		2.664e-03		79.579		1.122e-03		49.446
4		0.00		-5.60		2.925e-03		89.801		1.062e-03		49.130
4		0.00		-5.20		2.861e-03		79.390		1.139e-03		55.624
4		0.00		-4.80		2.669e-03		78.909		1.130e-03		57.754
4		0.00		-4.40		2.807e-03		85.854		1.133e-03		43.248
4		0.00		-4.00		2.670e-03		93.346		1.045e-03		38.164
4		0.00		-3.60		2.724e-03		90.512		1.001e-03		31.766
4		0.00		-3.20		2.639e-03		78.705		1.169e-03		54.433
4		0.00		-2.80		2.211e-03		68.977		1.027e-03		50.842
4		0.00		-2.40		2.397e-03		78.358		9.420e-04		41.798
4		0.00		-2.00		2.269e-03		74.873		1.176e-03		54.061
4		0.00		-1.60		2.449e-03		80.713		1.050e-03		44.817
4		0.00		-1.20		2.373e-03		82.741		9.798e-04		49.270
4		0.00		-0.80		2.637e-03		72.955		1.028e-03		50.124
4		0.00		-0.40		2.319e-03		66.360		1.047e-03		64.624
5		0.00		0.00		2.493e-03		72.209		1.048e-03		60.445
5		0.00		0.40		2.676e-03		70.201		1.127e-03		47.792
5		0.00		0.80		2.515e-03		67.720		1.069e-03		65.004
5		0.00		1.20		2.365e-03		70.641		9.399e-04		44.979
5		0.00		1.60		2.050e-03		62.200		8.506e-04		55.921
5		0.00		2.00		2.323e-03		72.975		9.689e-04		45.654
5		0.00		2.40		1.945e-03		44.017		9.340e-04		72.413
5		0.00		2.80		1.896e-03		21.673		7.634e-04		65.696
5		0.00		3.20		1.901e-03		-13.651		7.422e-04		58.570
5		0.00		3.60		2.080e-03		-18.484		8.514e-04		59.326
5		0.00		4.00		2.287e-03		-34.459		9.649e-04		39.993
5		0.00		4.40		2.645e-03		-41.708		9.989e-04		42.765
5		0.00		4.80		3.502e-03		-49.738		1.042e-03		29.714
5		0.00		5.20		4.082e-03		-36.265		1.355e-03		28.896
5		0.00		5.60		4.958e-03		-37.417		1.430e-03		21.086
5		0.00		6.00		5.372e-03		-48.204		1.537e-03		19.764
5		0.00		6.40		6.269e-03		-50.812		1.243e-03		17.042
5		0.00		6.80		7.083e-03		-42.508		1.694e-03		14.154
5		0.00		7.20		7.307e-03		-43.455		1.568e-03		14.024
5		0.00		7.60		8.094e-03		-46.922		1.932e-03		16.646
5		0.00		8.00		9.250e-03		-44.736		1.980e-03		13.931
5		0.00		8.40		9.549e-03		-50.506		1.779e-03		12.325
5		0.00		8.80		1.071e-02		-47.735		2.106e-03		11.521
5		0.00		9.20		1.169e-02		-48.796		2.781e-03		11.834
5		0.00		9.60		1.263e-02		-52.145		2.783e-03		9.501
5		0.00		10.00		1.451e-02		-49.058		2.344e-03		8.704
5		0.00		9.60		1.516e-02		-51.211		2.759e-03		9.695
5		0.00		9.20		1.483e-02		-51.967		3.431e-03		10.438
5		0.00		8.80		1.500e-02		-50.551		3.669e-03		11.635
5		0.00		8.40		1.598e-02		-48.599		2.769e-03		8.660
5		0.00		8.00		1.601e-02		-47.459		2.699e-03		7.884
5		0.00		7.60		1.576e-02		-50.987		3.260e-03		9.635
5		0.00		7.20		1.545e-02		-52.293		3.899e-03		12.117
5		0.00		6.80		1.527e-02		-53.049		3.163e-03		9.308
5		0.00		6.40		1.595e-02		-50.658		2.786e-03		9.018
5		0.00		6.00		1.532e-02		-50.605		3.106e-03		8.911
5		0.00		5.60		1.582e-02		-49.909		3.614e-03		9.557
5		0.00		5.20		1.565e-02		-49.331		3.592e-03		9.522
5		0.00		4.80		1.546e-02		-50.263		2.877e-03		9.348
5		0.00		4.40		1.603e-02		-51.950		2.920e-03		9.031
5		0.00		4.00		1.527e-02		-47.907		3.171e-03		9.314
5		0.00		3.60		1.519e-02		-49.407		3.529e-03		11.066
5		0.00		3.20		1.498e-02		-48.774		3.213e-03		9.598
5		0.00		2.80		1.540e-02		-48.806		2.595e-03		8.634
5		0.00		2.40		1.547e-02		-51.205		2.793e-03		9.333
5		0.00		2.00		1.485e-02		-49.122		3.006e-03		10.574
5		0.00		1.60		1.506e-02		-49.056		3.549e-03		9.976
5		0.00		1.20		1.514e-02		-45.523		3.151e-03		10.107
5		0.00		0.80		1.531e-02		-48.958		2.579e-03		9.163
5		0.00		0.40		1.498e-02		-48.368		2.894e-03		10.940
5		0.00		0.00		1.432e-02		-47.278		3.254e-03		9.647
5		0.00		-0.40		1.408e-02		-49.207		3.656e-03		13.285
5		0.00		-0.80		1.411e-02		-48.514		3.105e-03		11.020
5		0.00		-1.20		1.423e-02		-52.885		2.742e-03		11.161
5		0.00		-1.60		1.402e-02		-46.931		2.648e-03		9.724
5		0.00		-2.00		1.336e-02		-49.535		3.344e-03		11.274
5		0.00		-2.40		1.292e-02		-45.800		3.540e-03		11.472
5		0.00		-2.80		1.296e-02		-48.587		2.873e-03		9.834
5		0.00		-3.20		1.264e-02		-48.573		2.311e-03		9.933
5		0.00		-3.60		1.185e-02		-48.092		2.736e-03		12.691
5		0.00		-4.00		1.139e-02		-49.078		2.733e-03		12.170
5		0.00		-4.40		1.112e-02		-47.219		2.443e-03		10.083
5		0.00		-4.80		1.083e-02		-48.512		1.982e-03		9.679
5		0.00		-5.20		1.064e-02		-46.160		1.882e-03		11.507
5		0.00		-5.60		9.835e-03		-46.923		2.136e-03		10.814
5		0.00		-6.00		8.741e-03		-47.684		2.147e-03		12.051
5		0.00		-6.40		7.887e-03		-50.102		1.826e-03		12.801
5		0.00		-6.80		7.632e-03		-46.615		1.490e-03		15.173
5		0.00		-7.20		6.595e-03		-42.094		1.514e-03		15.900
5		0.00		-7.60		5.643e-03		-50.956		1.581e-03		23.648
5		0.00		-8.00		4.898e-03		-39.129		1.476e-03		19.564
5		0.00		-8.40		3.905e-03		-33.543		1.129e-03		23.295
5		0.00		-8.80		3.370e-03		-41.988		1.175e-03		25.147
5		0.00		-9.20		2.917e-03		-43.004		1.204e-03		31.607
5		0.00		-9.60		2.092e-03		-18.330		9.475e-04		51.473
5		0.00		-10.00		1.787e-03		-20.401		8.532e-04		65.521
5		0.00		-9.60		2.022e-03		23.747		8.622e-04		66.602
5		0.00		-9.20		1.868e-03		25.071		8.703e-04		56.111
5		0.00		-8.80		1.769e-03		37.533		7.185e-04		60.339
5		0.00		-8.40		1.931e-03		44.515		7.829e-04		60.432
5		0.00		-8.00		1.813e-03		49.574		9.165e-04		69.384
5		0.00		-7.60		1.883e-03		46.469		7.968e-04		67.025
5		0.00		-7.20		2.137e-03		59.878		8.787e-04		63.150
5		0.00		-6.80		2.178e-03		71.983		9.384e-04		52.934
5		0.00		-6.40		1.987e-03		45.855		8.171e-04		66.876
5		0.00		-6.00		2.013e-03		60.062		8.490e-04		57.517
5		0.00		-5.60		2.005e-03		33.197		9.046e-04		71.069
5		0.00		-5.20		2.467e-03		57.229		9.463e-04		56.403
5		0.00		-4.80		2.192e-03		43.629		1.001e-03		61.366
5		0.00		-4.40		2.308e-03		61.691		9.475e-04		55.978
5		0.00		-4.00		1.975e-03		44.674		8.814e-04		61.805
5		0.00		-3.60		2.345e-03		47.478		9.138e-04		55.267
5		0.00		-3.20		2.071e-03		52.654		8.786e-04		59.906
5		0.00		-2.80		2.017e-03		65.814		7.410e-04		50.306
5		0.00		-2.40		2.004e-03		53.855		8.220e-04		62.540
5		0.00		-2.00		2.076e-03		61.231		9.568e-04		49.530
5		0.00		-1.60		2.081e-03		47.126		9.106e-04		66.041
5		0.00		-1.20		1.964e-03		39.280		9.477e-04		59.802
5		0.00		-0.80		2.183e-03		53.149		9.329e-04		63.378
5		0.00		-0.40		2.010e-03		48.356		7.192e-04		68.936
6		0.00		0.00		2.042e-03		57.973		9.652e-04		62.025
6		0.00		0.40		2.112e-03		49.144		8.993e-04		58.861
6		0.00		0.80		1.974e-03		45.362		7.986e-04		64.529
6		0.00		1.20		1.870e-03		46.405		8.462e-04		56.538
6		0.00		1.60		2.020e-03		29.501		7.533e-04		72.833
6		0.00		2.00		1.874e-03		36.199		7.885e-04		59.014
6		0.00		2.40		1.985e-03		41.092		7.843e-04		52.754
6		0.00		2.80		1.837e-03		37.850		7.431e-04		62.742
6		0.00		3.20		1.977e-03		1.948		8.742e-04		56.098
6		0.00		3.60		2.017e-03		-26.480		7.977e-04		60.292
6		0.00		4.00		2.307e-03		-15.853		1.054e-03		55.210
6		0.00		4.40		2.885e-03		-29.220		1.136e-03		36.874
6		0.00		4.80		3.247e-03		-46.520		1.155e-03		30.438
6		0.00		5.20		3.835e-03		-44.450		1.336e-03		28.158
6		0.00		5.60		4.939e-03		-43.899		1.407e-03		20.029
6		0.00		6.00		5.507e-03		-47.189		1.305e-03		16.671
6		0.00		6.40		6.539e-03		-46.092		1.395e-03		17.037
6		0.00		6.80		6.766e-03		-45.198		1.553e-03		12.267
6		0.00		7.20		7.691e-03		-42.994		1.775e-03		12.953
6		0.00		7.60		8.124e-03		-45.238		1.961e-03		13.462
6		0.00		8.00		9.204e-03		-48.363		2.196e-03		11.780
6		0.00		8.40		1.005e-02		-47.103		1.892e-03		12.171
6		0.00		8.80		1.085e-02		-46.673		2.059e-03		12.057
6		0.00		9.20		1.194e-02		-50.146		2.257e-03		11.182
6		0.00		9.60		1.301e-02		-49.461		2.845e-03		12.567
6		0.00		10.00		1.365e-02		-48.640		3.070e-03		9.987
6		0.00		9.60		1.462e-02		-49.408		3.155e-03		9.461
6		0.00		9.20		1.512e-02		-48.635		2.576e-03		9.426
6		0.00		8.80		1.585e-02		-49.170		2.332e-03		8.348
6		0.00		8.40		1.588e-02		-48.962		2.582e-03		8.474
6		0.00		8.00		1.578e-02		-49.722		2.912e-03		8.663
6		0.00		7.60		1.511e-02		-49.867		3.507e-03		11.526
6		0.00		7.20		1.514e-02		-48.923		3.400e-03		9.961
6		0.00		6.80		1.553e-02		-49.469		3.139e-03		8.677
6		0.00		6.40		1.569e-02		-48.421		2.662e-03		8.880
6		0.00		6.00		1.572e-02		-49.215		2.695e-03		9.075
6		0.00		5.60		1.553e-02		-51.532		2.788e-03		8.532
6		0.00		5.20		1.509e-02		-50.890		3.417e-03		11.562
6		0.00		4.80		1.466e-02		-49.163		3.591e-03		10.713
6		0.00		4.40		1.473e-02		-50.013		3.463e-03		9.281
6		0.00		4.00		1.485e-02		-49.552		2.689e-03		9.291
6		0.00		3.60		1.476e-02		-49.503		2.720e-03		9.824
6		0.00		3.20		1.480e-02		-46.829		2.854e-03		8.288
6		0.00		2.80		1.447e-02		-49.586		3.165e-03		10.344
6		0.00		2.40		1.405e-02		-46.620		3.477e-03		10.945
6		0.00		2.00		1.375e-02		-49.357		3.395e-03		11.779
6		0.00		1.60		1.393e-02		-47.746		2.927e-03		10.155
6		0.00		1.20		1.397e-02		-52.149		2.546e-03		8.188
6		0.00		0.80		1.435e-02		-48.950		2.171e-03		10.633
6		0.00		0.40		1.428e-02		-46.915		2.638e-03		10.801
6		0.00		0.00		1.384e-02		-48.579		2.972e-03		10.291
6		0.00		-0.40		1.405e-02		-50.049		2.942e-03		9.654
6		0.00		-0.80		1.377e-02		-47.596		2.947e-03		9.816
6		0.00		-1.20		1.406e-02		-48.834		2.443e-03		10.188
6		0.00		-1.60		1.404e-02		-45.092		2.380e-03		9.337
6		0.00		-2.00		1.322e-02		-47.208		2.439e-03		9.652
6		0.00		-2.40		1.312e-02		-50.387		2.802e-03		11.053
6		0.00		-2.80		1.251e-02		-44.049		2.696e-03		10.642
6		0.00		-3.20		1.228e-02		-45.871		2.266e-03		9.904
6		0.00		-3.60		1.194e-02		-44.954		2.240e-03		10.873
6		0.00		-4.00		1.123e-02		-46.995		2.079e-03		11.336
6		0.00		-4.40		1.062e-02		-47.671		2.139e-03		10.350
6		0.00		-4.80		1.041e-02		-44.036		2.652e-03		11.416
6		0.00		-5.20		9.612e-03		-45.739		2.247e-03		10.951
6		0.00		-5.60		9.813e-03		-47.909		2.142e-03		9.784
6		0.00		-6.00		9.225e-03		-43.808		1.658e-03		14.679
6		0.00		-6.40		8.427e-03		-42.417		1.754e-03		11.632
6		0.00		-6.80		7.610e-03		-49.319		1.913e-03		14.954
6		0.00		-7.20		6.605e-03		-39.230		1.725e-03		15.810
6		0.00		-7.60		5.799e-03		-38.110		1.567e-03		15.737
6		0.00		-8.00		5.416e-03		-40.245		1.311e-03		21.295
6		0.00		-8.40		4.246e-03		-52.575		1.133e-03		23.864
6		0.00		-8.80		3.577e-03		-39.487		1.177e-03		25.582
6		0.00		-9.20		3.045e-03		-44.439		1.207e-03		32.000
6		0.00		-9.60		2.422e-03		-20.401		9.419e-04		51.725
6		0.00		-10.00		1.848e-03		1.096		7.560e-04		56.161
6		0.00		-9.60		1.939e-03		17.574		7.802e-04		56.063
6		0.00		-9.20		1.891e-03		22.537		7.590e-04		61.750
6		0.00		-8.80		2.009e-03		16.765		8.096e-04		59.607
6		0.00		-8.40		2.273e-03		48.326		7.916e-04		60.663
6		0.00		-8.00		1.875e-03		36.324		7.920e-04		66.749
6		0.00		-7.60		2.218e-03		40.026		9.400e-04		60.454
6		0.00		-7.20		2.067e-03		29.107		9.802e-04		67.445
6		0.00		-6.80		2.101e-03		47.526		8.876e-04		56.669
6		0.00		-6.40		1.817e-03		56.581		8.718e-04		71.506
6		0.00		-6.00		1.909e-03		35.193		8.398e-04		69.218
6		0.00		-5.60		1.955e-03		44.944		7.506e-04		72.629
6		0.00		-5.20		1.876e-03		44.535		8.101e-04		56.280
6		0.00		-4.80		1.967e-03		33.874		8.298e-04		60.992
6		0.00		-4.40		2.035e-03		35.001		8.445e-04		75.172
6		0.00		-4.00		2.162e-03		47.293		9.159e-04		61.201
6		0.00		-3.60		2.211e-03		48.517		9.196e-04		54.639
6		0.00		-3.20		1.972e-03		44.071		7.948e-04		65.777
6		0.00		-2.80		2.262e-03		69.179		9.123e-04		55.429
6		0.00		-2.40		2.123e-03		54.580		8.518e-04		63.883
6		0.00		-2.00		2.302e-03		70.289		9.844e-04		51.918
6		0.00		-1.60		2.221e-03		63.596		9.017e-04		58.565
6		0.00		-1.20		2.210e-03		57.470		9.960e-04		57.690
6		0.00		-0.80		2.094e-03		55.989		8.805e-04		58.538
6		0.00		-0.40		1.919e-03		51.237		8.526e-04		63.219
7		0.00		0.00		2.201e-03		55.244		8.485e-04		52.578
7		0.00		0.40		1.978e-03		50.953		7.916e-04		65.815
7		0.00		0.80		2.111e-03		67.565		7.855e-04		42.876
7		0.00		1.20		2.053e-03		50.873		8.701e-04		68.345
7		0.00		1.60		2.065e-03		31.539		8.318e-04		63.930
7		0.00		2.00		2.044e-03		54.858		7.888e-04		58.745
7		0.00		2.40		1.997e-03		27.324		9.126e-04		59.493
7		0.00		2.80		1.903e-03		6.153		7.743e-04		66.589
7		0.00		3.20		1.831e-03		-3.037		8.336e-04		57.539
7		0.00		3.60		2.145e-03		-11.927		8.431e-04		56.116
7		0.00		4.00		2.061e-03		-22.618		8.181e-04		52.017
7		0.00		4.40		3.121e-03		-29.350		1.102e-03		33.696
7		0.00		4.80		3.569e-03		-41.614		1.097e-03		22.462
7		0.00		5.20		4.259e-03		-41.646		1.151e-03		20.691
7		0.00		5.60		5.037e-03		-39.243		1.373e-03		17.586
7		0.00		6.00		6.196e-03		-40.776		1.592e-03		15.854
7		0.00		6.40		6.942e-03		-48.983		1.732e-03		17.924
7		0.00		6.80		7.386e-03		-43.934		1.547e-03		14.218
7		0.00		7.20		8.130e-03		-46.228		1.365e-03		16.478
7		0.00		7.60		9.223e-03		-44.616		1.499e-03		12.305
7		0.00		8.00		9.749e-03		-47.473		1.653e-03		12.244
7		0.00		8.40		1.044e-02		-48.577		2.049e-03		10.756
7		0.00		8.80		1.097e-02		-48.838		2.453e-03		12.083
7		0.00		9.20		1.200e-02		-47.323		2.479e-03		11.654
7		0.00		9.60		1.353e-02		-47.143		2.380e-03		9.828
7		0.00		10.00		1.448e-02		-48.871		2.370e-03		10.187
7		0.00		9.60		1.531e-02		-52.164		3.030e-03		9.455
7		0.00		9.20		1.516e-02		-49.319		3.443e-03		11.197
7		0.00		8.80		1.575e-02		-49.134		3.487e-03		10.993
7		0.00		8.40		1.616e-02		-48.229		2.823e-03		9.726
7		0.00		8.00		1.675e-02		-49.929		2.746e-03		9.346
7		0.00		7.60		1.643e-02		-48.777		2.610e-03		8.997
7		0.00		7.20		1.621e-02		-47.652		2.677e-03		8.062
7		0.00		6.80		1.588e-02		-45.417		3.020e-03		9.922
7		0.00		6.40		1.588e-02		-51.217		3.318e-03		9.668
7		0.00		6.00		1.594e-02		-51.213		2.744e-03		9.197
7		0.00		5.60		1.609e-02		-48.263		2.401e-03		8.980
7		0.00		5.20		1.611e-02		-49.604		2.375e-03		10.256
7		0.00		4.80		1.592e-02		-50.798		2.691e-03		8.385
7		0.00		4.40		1.553e-02		-48.362		2.648e-03		9.221
7		0.00		4.00		1.520e-02		-46.279		2.923e-03		9.143
7		0.00		3.60		1.518e-02		-47.560		2.978e-03		9.341
7		0.00		3.20		1.543e-02		-47.068		2.212e-03		10.095
7		0.00		2.80		1.512e-02		-48.144		2.283e-03		9.088
7		0.00		2.40		1.513e-02		-47.953		2.010e-03		7.884
7		0.00		2.00		1.492e-02		-48.690		3.082e-03		11.684
7		0.00		1.60		1.470e-02		-50.654		3.111e-03		9.594
7		0.00		1.20		1.476e-02		-46.556		3.071e-03		9.648
7		0.00		0.80		1.501e-02		-47.949		2.352e-03		9.797
7		0.00		0.40		1.497e-02		-51.444		2.015e-03		9.477
7		0.00		0.00		1.471e-02		-45.876		2.423e-03		10.896
7		0.00		-0.40		1.488e-02		-46.294		2.566e-03		8.602
7		0.00		-0.80		1.465e-02		-50.360		2.976e-03		9.939
7		0.00		-1.20		1.477e-02		-46.109		2.868e-03		8.836
7		0.00		-1.60		1.479e-02		-45.458		2.533e-03		9.219
7		0.00		-2.00		1.503e-02		-47.787		2.054e-03		8.516
7		0.00		-2.40		1.483e-02		-46.652		2.177e-03		9.092
7		0.00		-2.80		1.388e-02		-46.252		2.322e-03		9.240
7		0.00		-3.20		1.347e-02		-47.082		2.671e-03		10.319
7		0.00		-3.60		1.305e-02		-45.726		2.375e-03		11.622
7		0.00		-4.00		1.213e-02		-44.456		2.160e-03		10.590
7		0.00		-4.40		1.202e-02		-46.592		1.894e-03		9.785
7		0.00		-4.80		1.196e-02		-49.931		1.677e-03		9.199
7		0.00		-5.20		1.169e-02		-45.444		1.572e-03		12.112
7		0.00		-5.60		1.077e-02		-48.811		1.985e-03		10.409
7		0.00		-6.00		9.917e-03		-44.090		2.114e-03		9.885
7		0.00		-6.40		9.101e-03		-46.216		1.974e-03		10.704
7		0.00		-6.80		8.059e-03		-41.690		1.812e-03		15.564
7		0.00		-7.20		7.281e-03		-44.623		1.537e-03		15.326
7		0.00		-7.60		6.118e-03		-43.637		1.525e-03		15.643
7		0.00		-8.00		5.620e-03		-43.901		1.290e-03		20.656
7		0.00		-8.40		4.696e-03		-41.627		1.427e-03		23.415
7		0.00		-8.80		4.077e-03		-35.470		1.171e-03		25.069
7		0.00		-9.20		3.118e-03		-57.460		1.026e-03		25.722
7		0.00		-9.60		2.563e-03		-34.331		1.003e-03		46.486
7		0.00		-10.00		2.095e-03		-15.479		9.888e-04		50.118
7		0.00		-9.60		1.819e-03		-1.909		6.823e-04		60.885
7		0.00		-9.20		1.973e-03		24.610		9.009e-04		66.269
7		0.00		-8.80		1.898e-03		29.042		7.463e-04		63.157
7		0.00		-8.40		1.829e-03		45.261		7.049e-04		64.433
7		0.00		-8.00		1.839e-03		1.768		8.377e-04		67.411
7		0.00		-7.60		1.778e-03		26.693		7.169e-04		59.808
7		0.00		-7.20		1.865e-03		16.040		7.689e-04		59.773
7		0.00		-6.80		2.023e-03		29.706		8.355e-04		65.870
7		0.00		-6.40		2.030e-03		18.144		8.803e-04		65.646
7		0.00		-6.00		1.949e-03		39.050		7.539e-04		65.533
7		0.00		-5.60		2.047e-03		37.834		8.591e-04		63.463
7		0.00		-5.20		1.925e-03		38.162		8.647e-04		63.656
7		0.00		-4.80		1.898e-03		34.613		6.682e-04		58.929
7		0.00		-4.40		1.728e-03		12.136		6.886e-04		66.694
7		0.00		-4.00		1.778e-03		-2.238		7.318e-04		56.050
7		0.00		-3.60		1.713e-03		31.449		7.272e-04		56.162
7		0.00		-3.20		1.846e-03		31.262		8.077e-04		64.460
7		0.00		-2.80		1.818e-03		23.943		7.829e-04		61.864
7		0.00		-2.40		1.945e-03		30.940		8.208e-04		60.203
7		0.00		-2.00		1.852e-03		17.327		8.369e-04		66.851
7		0.00		-1.60		1.887e-03		15.087		8.696e-04		71.947
7		0.00		-1.20		2.081e-03		26.132		8.007e-04		74.006
7		0.00		-0.80		1.936e-03		39.339		7.843e-04		67.312
7		0.00		-0.40		2.192e-03		50.560		8.269e-04		61.483
8		0.00		0.00		1.862e-03		35.664		8.748e-04		63.655
8		0.00		0.40		2.065e-03		51.887		8.560e-04		55.798
8		0.00		0.80		2.128e-03		49.669		8.466e-04		60.244
8		0.00		1.20		1.976e-03		35.889		8.853e-04		65.392
8		0.00		1.60		2.007e-03		36.478		8.350e-04		63.857
8		0.00		2.00		1.899e-03		29.304		6.896e-04		67.155
8		0.00		2.40		1.880e-03		5.433		7.476e-04		57.381
8		0.00		2.80		1.914e-03		24.324		8.150e-04		53.093
8		0.00		3.20		1.970e-03		11.349		7.929e-04		57.332
8		0.00		3.60		2.313e-03		-19.934		9.326e-04		46.325
8		0.00		4.00		2.659e-03		-40.679		1.106e-03		37.221
8		0.00		4.40		3.275e-03		-38.148		9.449e-04		37.567
8		0.00		4.80		3.813e-03		-31.122		1.072e-03		26.222
8		0.00		5.20		4.766e-03		-42.748		1.122e-03		15.891
8		0.00		5.60		4.791e-03		-40.538		1.553e-03		18.011
8		0.00		6.00		5.959e-03		-47.225		1.822e-03		17.058
8		0.00		6.40		6.748e-03		-49.235		1.537e-03		16.151
8		0.00		6.80		7.323e-03		-51.754		1.555e-03		14.421
8		0.00		7.20		8.418e-03		-47.995		1.494e-03		12.606
8		0.00		7.60		9.329e-03		-46.251		1.748e-03		12.087
8		0.00		8.00		9.344e-03		-42.891		2.039e-03		13.292
8		0.00		8.40		9.893e-03		-53.606		2.063e-03		13.224
8		0.00		8.80		1.093e-02		-48.490		1.790e-03		12.474
8		0.00		9.20		1.248e-02		-47.392		1.838e-03		9.315
8		0.00		9.60		1.323e-02		-48.657		2.207e-03		10.577
8		0.00		10.00		1.375e-02		-49.563		2.712e-03		12.526
8		0.00		9.60		1.466e-02		-48.541		3.167e-03		9.326
8		0.00		9.20		1.537e-02		-49.269		2.979e-03		9.639
8		0.00		8.80		1.595e-02		-49.804		2.325e-03		8.944
8		0.00		8.40		1.690e-02		-47.901		2.389e-03		8.896
8		0.00		8.00		1.593e-02		-46.737		2.707e-03		8.784
8		0.00		7.60		1.562e-02		-51.209		3.236e-03		11.407
8		0.00		7.20		1.545e-02		-49.136		3.693e-03		11.607
8		0.00		6.80		1.599e-02		-51.494		2.812e-03		10.152
8		0.00		6.40		1.633e-02		-50.674		2.365e-03		7.639
8		0.00		6.00		1.608e-02		-49.079		2.122e-03		9.402
8		0.00		5.60		1.562e-02		-47.684		2.763e-03		9.063
8		0.00		5.20		1.542e-02		-48.707		3.193e-03		11.226
8		0.00		4.80		1.534e-02		-51.525		3.328e-03		10.835
8		0.00		4.40		1.520e-02		-47.023		2.638e-03		9.601
8		0.00		4.00		1.579e-02		-47.326		2.317e-03		10.166
8		0.00		3.60		1.552e-02		-51.278		2.236e-03		9.064
8		0.00		3.20		1.516e-02		-51.029		2.333e-03		9.502
8		0.00		2.80		1.478e-02		-48.661		2.826e-03		11.608
8		0.00		2.40		1.499e-02		-48.716		3.019e-03		9.137
8		0.00		2.00		1.471e-02		-51.496		2.904e-03		9.886
8		0.00		1.60		1.502e-02		-47.223		2.234e-03		8.311
8		0.00		1.20		1.504e-02		-49.386		2.093e-03		10.999
8		0.00		0.80		1.515e-02		-48.306		2.562e-03		9.617
8		0.00		0.40		1.482e-02		-45.149		2.766e-03		10.571
8		0.00		0.00		1.422e-02		-47.476		3.018e-03		10.846
8		0.00		-0.40		1.363e-02		-50.122		3.097e-03		10.699
8		0.00		-0.80		1.396e-02		-46.895		2.835e-03		9.905
8		0.00		-1.20		1.437e-02		-46.588		2.583e-03		8.143
8		0.00		-1.60		1.421e-02		-49.423		2.306e-03		9.086
8		0.00		-2.00		1.348e-02		-46.830		2.590e-03		9.484
8		0.00		-2.40		1.312e-02		-48.608		3.219e-03		11.098
8		0.00		-2.80		1.256e-02		-48.861		2.802e-03		12.099
8		0.00		-3.20		1.271e-02		-45.742		2.737e-03		11.904
8		0.00		-3.60		1.242e-02		-50.242		1.972e-03		9.998
8		0.00		-4.00		1.204e-02		-49.369		1.811e-03		12.254
8		0.00		-4.40		1.168e-02		-49.417		2.198e-03		10.501
8		0.00		-4.80		1.120e-02		-43.174		2.190e-03		11.845
8		0.00		-5.20		1.098e-02		-47.549		2.402e-03		13.095
8		0.00		-5.60		1.054e-02		-48.527		1.694e-03		10.461
8		0.00		-6.00		9.583e-03		-46.007		1.783e-03		12.368
8		0.00		-6.40		8.657e-03		-44.030		1.601e-03		12.040
8		0.00		-6.80		8.193e-03		-42.679		1.881e-03		15.349
8		0.00		-7.20		6.942e-03		-46.144		1.777e-03		13.133
8		0.00		-7.60		6.259e-03		-46.107		1.447e-03		19.817
8		0.00		-8.00		5.324e-03		-46.089		1.251e-03		22.464
8		0.00		-8.40		4.845e-03		-45.678		1.280e-03		20.013
8		0.00		-8.80		3.735e-03		-33.812		1.316e-03		27.445
8		0.00		-9.20		3.546e-03		-31.988		1.257e-03		26.703
8		0.00		-9.60		2.279e-03		-39.046		8.384e-04		43.086
8		0.00		-10.00		2.122e-03		-23.844		9.423e-04		49.821
8		0.00		-9.60		1.782e-03		14.200		7.536e-04		60.574
8		0.00		-9.20		1.704e-03		16.729		7.059e-04		66.309
8		0.00		-8.80		1.813e-03		13.988		7.581e-04		74.434
8		0.00		-8.40		1.849e-03		12.461		7.617e-04		67.297
8		0.00		-8.00		1.801e-03		37.590		7.918e-04		62.315
8		0.00		-7.60		1.788e-03		27.250		7.469e-04		80.438
8		0.00		-7.20		1.833e-03		29.664		8.245e-04		70.071
8		0.00		-6.80		1.889e-03		26.519		8.421e-04		60.925
8		0.00		-6.40		1.856e-03		52.743		7.442e-04		64.737
8		0.00		-6.00		1.982e-03		43.844		8.038e-04		55.795
8		0.00		-5.60		1.928e-03		41.494		7.297e-04		69.639
8		0.00		-5.20		1.906e-03		39.281		8.102e-04		66.567
8		0.00		-4.80		1.835e-03		19.300		7.578e-04		78.224
8		0.00		-4.40		1.850e-03		29.196		6.835e-04		55.504
8		0.00		-4.00		1.991e-03		42.561		7.778e-04		59.893
8		0.00		-3.60		2.100e-03		37.721		9.211e-04		63.776
8		0.00		-3.20		1.919e-03		21.085		8.063e-04		60.751
8		0.00		-2.80		1.906e-03		36.911		7.943e-04		66.127
8		0.00		-2.40		2.009e-03		29.376		7.970e-04		58.075
8		0.00		-2.00		1.838e-03		26.029		8.565e-04		66.302
8		0.00		-1.60		1.967e-03		37.027		9.510e-04		62.623
8		0.00		-1.20		1.763e-03		21.871		6.838e-04		72.376
8		0.00		-0.80		2.148e-03		41.101		8.473e-04		52.987
8		0.00		-0.40		1.830e-03		31.147		7.508e-04		64.738
