# Date of analysis: 2023-11-20 16;19
# 
# Loop index	Read Volt (V)	Write Volt (V)	Amplitude (a.u)	Phase (deg)	Sigma Amp (a.u)	Sigma Pha (deg)	
1		0.00		0.00		2.849e-02		-52.142		5.554e-03		14.176
1		0.00		0.40		2.608e-02		-52.958		5.869e-03		15.693
1		0.00		0.80		2.505e-02		-49.636		6.052e-03		18.431
1		0.00		1.20		2.423e-02		-50.879		6.571e-03		14.436
1		0.00		1.60		2.415e-02		-51.816		6.427e-03		12.874
1		0.00		2.00		2.461e-02		-52.253		5.781e-03		12.962
1		0.00		2.40		2.485e-02		-52.902		4.895e-03		12.821
1		0.00		2.80		2.495e-02		-53.285		5.092e-03		13.700
1		0.00		3.20		2.358e-02		-53.106		5.600e-03		15.402
1		0.00		3.60		2.373e-02		-49.420		5.742e-03		16.340
1		0.00		4.00		2.398e-02		-49.883		6.854e-03		17.456
1		0.00		4.40		2.415e-02		-49.624		7.107e-03		13.568
1		0.00		4.80		2.512e-02		-49.712		6.811e-03		12.589
1		0.00		5.20		2.637e-02		-52.765		6.477e-03		12.167
1		0.00		5.60		2.835e-02		-53.963		6.109e-03		13.191
1		0.00		6.00		2.961e-02		-55.252		6.903e-03		14.996
1		0.00		6.40		3.080e-02		-50.808		7.533e-03		14.356
1		0.00		6.80		3.212e-02		-51.340		8.192e-03		16.438
1		0.00		7.20		3.295e-02		-46.568		9.260e-03		15.094
1		0.00		7.60		3.531e-02		-49.662		1.051e-02		10.620
1		0.00		8.00		3.621e-02		-52.197		9.642e-03		11.057
1		0.00		8.40		3.788e-02		-52.479		8.786e-03		12.488
1		0.00		8.80		3.935e-02		-50.926		8.477e-03		12.917
1		0.00		9.20		3.865e-02		-50.678		9.264e-03		16.017
1		0.00		9.60		3.840e-02		-50.724		1.034e-02		15.852
1		0.00		10.00		3.975e-02		-48.551		1.185e-02		18.469
1		0.00		9.60		3.801e-02		-49.431		1.238e-02		14.510
1		0.00		9.20		3.796e-02		-50.021		1.162e-02		13.041
1		0.00		8.80		3.703e-02		-51.385		9.611e-03		12.133
1		0.00		8.40		3.638e-02		-52.661		8.475e-03		12.183
1		0.00		8.00		3.465e-02		-52.970		7.522e-03		14.083
1		0.00		7.60		3.308e-02		-51.368		8.246e-03		15.126
1		0.00		7.20		3.089e-02		-50.070		8.060e-03		17.849
1		0.00		6.80		2.956e-02		-46.337		8.799e-03		20.505
1		0.00		6.40		2.885e-02		-46.860		8.825e-03		16.120
1		0.00		6.00		2.843e-02		-50.691		7.446e-03		12.415
1		0.00		5.60		2.970e-02		-51.783		6.438e-03		12.038
1		0.00		5.20		2.897e-02		-51.792		5.189e-03		12.321
1		0.00		4.80		2.767e-02		-51.291		4.901e-03		14.609
1		0.00		4.40		2.689e-02		-50.700		5.244e-03		13.929
1		0.00		4.00		2.666e-02		-48.773		5.363e-03		12.652
1		0.00		3.60		2.532e-02		-48.716		5.992e-03		14.137
1		0.00		3.20		2.445e-02		-48.543		6.256e-03		17.395
1		0.00		2.80		2.501e-02		-50.338		6.843e-03		15.345
1		0.00		2.40		2.490e-02		-50.583		6.255e-03		11.122
1		0.00		2.00		2.465e-02		-50.194		5.879e-03		10.879
1		0.00		1.60		2.456e-02		-49.889		4.744e-03		11.442
1		0.00		1.20		2.353e-02		-52.637		4.250e-03		13.504
1		0.00		0.80		2.319e-02		-49.236		4.436e-03		13.463
1		0.00		0.40		2.259e-02		-49.513		4.715e-03		13.618
1		0.00		0.00		2.184e-02		-47.984		4.957e-03		12.842
1		0.00		-0.40		2.046e-02		-50.426		5.177e-03		18.301
1		0.00		-0.80		1.840e-02		-48.013		5.170e-03		18.938
1		0.00		-1.20		1.642e-02		-48.812		4.478e-03		13.447
1		0.00		-1.60		1.424e-02		-48.897		3.861e-03		13.053
1		0.00		-2.00		1.089e-02		-49.422		2.707e-03		12.489
1		0.00		-2.40		8.177e-03		-48.679		2.386e-03		16.771
1		0.00		-2.80		5.685e-03		-53.257		2.286e-03		22.471
1		0.00		-3.20		3.913e-03		-37.558		2.171e-03		41.289
1		0.00		-3.60		2.719e-03		27.005		1.336e-03		61.897
1		0.00		-4.00		4.079e-03		85.961		1.948e-03		55.434
1		0.00		-4.40		5.245e-03		104.246		2.393e-03		44.455
1		0.00		-4.80		7.714e-03		117.262		2.704e-03		31.174
1		0.00		-5.20		1.000e-02		118.140		3.438e-03		29.185
1		0.00		-5.60		1.216e-02		124.291		3.868e-03		19.005
1		0.00		-6.00		1.455e-02		127.505		3.976e-03		11.621
1		0.00		-6.40		1.713e-02		126.792		4.717e-03		11.447
1		0.00		-6.80		1.851e-02		126.486		4.593e-03		10.655
1		0.00		-7.20		2.016e-02		124.930		5.130e-03		12.401
1		0.00		-7.60		2.179e-02		125.315		5.309e-03		11.634
1		0.00		-8.00		2.077e-02		126.369		5.021e-03		12.247
1		0.00		-8.40		2.385e-02		127.145		6.376e-03		12.289
1		0.00		-8.80		2.157e-02		125.148		5.825e-03		17.977
1		0.00		-9.20		2.390e-02		125.382		6.624e-03		20.089
1		0.00		-9.60		2.389e-02		123.985		6.757e-03		23.344
1		0.00		-10.00		2.317e-02		125.053		6.692e-03		24.423
1		0.00		-9.60		2.508e-02		128.411		6.871e-03		11.679
1		0.00		-9.20		2.438e-02		124.266		5.707e-03		10.139
1		0.00		-8.80		2.495e-02		127.692		5.461e-03		10.485
1		0.00		-8.40		2.405e-02		126.389		4.925e-03		11.556
1		0.00		-8.00		2.591e-02		126.824		5.257e-03		10.761
1		0.00		-7.60		2.502e-02		126.989		4.874e-03		9.594
1		0.00		-7.20		2.361e-02		127.593		4.547e-03		10.492
1		0.00		-6.80		2.297e-02		128.444		4.998e-03		11.541
1		0.00		-6.40		2.115e-02		129.056		4.407e-03		10.798
1		0.00		-6.00		2.052e-02		129.307		4.557e-03		10.753
1		0.00		-5.60		2.017e-02		128.318		4.726e-03		15.931
1		0.00		-5.20		1.823e-02		126.057		4.730e-03		18.202
1		0.00		-4.80		1.710e-02		122.306		4.602e-03		20.221
1		0.00		-4.40		1.683e-02		128.017		4.428e-03		19.364
1		0.00		-4.00		1.494e-02		126.304		4.448e-03		22.566
1		0.00		-3.60		1.514e-02		126.614		4.265e-03		11.892
1		0.00		-3.20		1.415e-02		127.525		3.747e-03		10.909
1		0.00		-2.80		1.359e-02		128.193		3.394e-03		10.573
1		0.00		-2.40		1.233e-02		128.118		3.070e-03		10.622
1		0.00		-2.00		1.151e-02		125.110		2.556e-03		11.868
1		0.00		-1.60		1.186e-02		128.014		2.675e-03		10.533
1		0.00		-1.20		1.078e-02		125.550		2.400e-03		9.506
1		0.00		-0.80		1.009e-02		128.311		2.038e-03		11.367
1		0.00		-0.40		8.921e-03		124.391		2.397e-03		13.617
2		0.00		0.00		7.838e-03		124.265		1.934e-03		13.444
2		0.00		0.40		6.806e-03		126.495		1.853e-03		16.259
2		0.00		0.80		6.451e-03		128.619		1.531e-03		15.063
2		0.00		1.20		5.892e-03		126.932		1.540e-03		17.591
2		0.00		1.60		4.719e-03		120.315		1.499e-03		27.124
2		0.00		2.00		3.871e-03		113.036		1.192e-03		33.929
2		0.00		2.40		2.961e-03		84.279		1.134e-03		63.131
2		0.00		2.80		2.290e-03		53.587		9.078e-04		77.247
2		0.00		3.20		2.050e-03		-23.715		8.486e-04		58.663
2		0.00		3.60		2.791e-03		-62.114		1.054e-03		42.628
2		0.00		4.00		4.332e-03		-44.058		1.654e-03		31.033
2		0.00		4.40		6.681e-03		-49.769		2.329e-03		21.028
2		0.00		4.80		8.948e-03		-46.025		3.017e-03		20.030
2		0.00		5.20		1.162e-02		-49.311		3.611e-03		18.146
2		0.00		5.60		1.453e-02		-49.984		4.348e-03		15.606
2		0.00		6.00		1.697e-02		-50.544		5.168e-03		12.718
2		0.00		6.40		1.990e-02		-49.241		5.496e-03		13.440
2		0.00		6.80		2.203e-02		-49.386		6.052e-03		12.323
2		0.00		7.20		2.535e-02		-49.628		6.211e-03		11.868
2		0.00		7.60		2.760e-02		-52.354		6.874e-03		11.362
2		0.00		8.00		3.076e-02		-49.606		7.454e-03		11.506
2		0.00		8.40		3.389e-02		-50.474		8.433e-03		11.514
2		0.00		8.80		3.637e-02		-49.285		8.757e-03		11.573
2		0.00		9.20		3.852e-02		-50.918		9.120e-03		12.160
2		0.00		9.60		3.997e-02		-49.364		9.562e-03		12.219
2		0.00		10.00		3.999e-02		-49.317		9.041e-03		12.931
2		0.00		9.60		3.847e-02		-49.713		8.758e-03		13.563
2		0.00		9.20		3.823e-02		-50.755		8.869e-03		12.169
2		0.00		8.80		3.565e-02		-50.877		8.585e-03		13.492
2		0.00		8.40		3.291e-02		-48.673		8.003e-03		13.381
2		0.00		8.00		3.334e-02		-48.800		8.236e-03		12.172
2		0.00		7.60		3.176e-02		-48.710		8.116e-03		13.387
2		0.00		7.20		3.081e-02		-49.405		7.993e-03		13.443
2		0.00		6.80		2.882e-02		-49.464		7.565e-03		14.597
2		0.00		6.40		2.814e-02		-48.746		7.228e-03		15.045
2		0.00		6.00		2.817e-02		-48.663		7.210e-03		16.126
2		0.00		5.60		2.770e-02		-47.341		7.116e-03		16.536
2		0.00		5.20		2.737e-02		-47.695		7.181e-03		11.612
2		0.00		4.80		2.685e-02		-48.312		7.154e-03		12.605
2		0.00		4.40		2.637e-02		-48.928		6.462e-03		10.836
2		0.00		4.00		2.606e-02		-49.674		6.441e-03		10.058
2		0.00		3.60		2.576e-02		-50.518		6.005e-03		10.694
2		0.00		3.20		2.516e-02		-50.221		5.402e-03		9.839
2		0.00		2.80		2.518e-02		-49.553		5.090e-03		10.633
2		0.00		2.40		2.504e-02		-49.962		4.517e-03		9.929
2		0.00		2.00		2.474e-02		-50.933		4.794e-03		11.191
2		0.00		1.60		2.432e-02		-50.024		4.342e-03		11.108
2		0.00		1.20		2.403e-02		-51.209		4.449e-03		11.994
2		0.00		0.80		2.368e-02		-51.200		4.246e-03		11.763
2		0.00		0.40		2.342e-02		-50.343		4.381e-03		12.778
2		0.00		0.00		2.269e-02		-49.308		4.542e-03		12.596
2		0.00		-0.40		2.150e-02		-48.913		4.286e-03		12.231
2		0.00		-0.80		1.897e-02		-47.413		3.994e-03		14.031
2		0.00		-1.20		1.639e-02		-46.224		3.851e-03		14.276
2		0.00		-1.60		1.372e-02		-49.369		3.516e-03		17.330
2		0.00		-2.00		1.134e-02		-48.330		3.194e-03		13.380
2		0.00		-2.40		8.209e-03		-50.255		2.408e-03		17.750
2		0.00		-2.80		5.550e-03		-51.221		2.455e-03		22.042
2		0.00		-3.20		3.649e-03		-22.926		2.065e-03		42.330
2		0.00		-3.60		3.217e-03		25.447		1.616e-03		67.382
2		0.00		-4.00		4.324e-03		90.454		2.000e-03		51.078
2		0.00		-4.40		5.398e-03		102.201		2.288e-03		36.981
2		0.00		-4.80		8.319e-03		121.429		3.084e-03		26.112
2		0.00		-5.20		1.055e-02		123.496		3.475e-03		19.162
2		0.00		-5.60		1.359e-02		124.614		3.927e-03		15.183
2		0.00		-6.00		1.583e-02		127.987		4.258e-03		9.441
2		0.00		-6.40		1.748e-02		126.576		4.559e-03		10.286
2		0.00		-6.80		1.938e-02		128.301		4.839e-03		9.007
2		0.00		-7.20		2.210e-02		127.276		5.295e-03		9.880
2		0.00		-7.60		2.235e-02		125.422		5.356e-03		11.004
2		0.00		-8.00		2.512e-02		126.470		5.805e-03		9.981
2		0.00		-8.40		2.314e-02		126.242		5.569e-03		11.306
2		0.00		-8.80		2.658e-02		125.653		6.143e-03		10.507
2		0.00		-9.20		2.545e-02		125.727		5.756e-03		11.651
2		0.00		-9.60		2.533e-02		126.096		5.925e-03		11.091
2		0.00		-10.00		2.803e-02		126.313		6.043e-03		11.087
2		0.00		-9.60		2.562e-02		126.113		5.550e-03		11.809
2		0.00		-9.20		2.599e-02		126.452		5.937e-03		11.918
2		0.00		-8.80		2.568e-02		126.798		5.761e-03		11.680
2		0.00		-8.40		2.664e-02		126.845		6.714e-03		14.265
2		0.00		-8.00		2.433e-02		127.029		6.127e-03		15.620
2		0.00		-7.60		2.382e-02		124.760		6.042e-03		19.180
2		0.00		-7.20		2.276e-02		124.183		5.865e-03		21.077
2		0.00		-6.80		2.129e-02		125.693		5.511e-03		21.364
2		0.00		-6.40		2.080e-02		123.505		5.738e-03		20.161
2		0.00		-6.00		1.955e-02		121.916		5.635e-03		24.027
2		0.00		-5.60		1.790e-02		123.701		5.434e-03		23.941
2		0.00		-5.20		1.718e-02		122.545		5.289e-03		23.176
2		0.00		-4.80		1.588e-02		123.223		4.993e-03		25.827
2		0.00		-4.40		1.549e-02		125.809		4.982e-03		12.505
2		0.00		-4.00		1.474e-02		124.742		4.651e-03		12.792
2		0.00		-3.60		1.393e-02		127.717		4.347e-03		10.924
2		0.00		-3.20		1.374e-02		126.333		4.003e-03		10.196
2		0.00		-2.80		1.262e-02		124.354		3.558e-03		13.650
2		0.00		-2.40		1.183e-02		126.481		3.198e-03		10.699
2		0.00		-2.00		1.106e-02		121.648		2.872e-03		12.535
2		0.00		-1.60		1.059e-02		128.312		2.585e-03		10.141
2		0.00		-1.20		9.669e-03		127.316		2.325e-03		13.668
2		0.00		-0.80		9.221e-03		130.147		2.270e-03		11.270
2		0.00		-0.40		8.241e-03		128.076		2.193e-03		14.224
3		0.00		0.00		7.524e-03		126.936		1.998e-03		12.731
3		0.00		0.40		6.704e-03		127.560		1.928e-03		14.433
3		0.00		0.80		5.989e-03		124.394		1.962e-03		18.380
3		0.00		1.20		5.576e-03		118.745		1.566e-03		27.790
3		0.00		1.60		5.097e-03		117.138		1.563e-03		25.652
3		0.00		2.00		4.149e-03		110.511		1.578e-03		36.350
3		0.00		2.40		3.306e-03		101.069		1.277e-03		50.395
3		0.00		2.80		2.581e-03		63.109		9.673e-04		67.534
3		0.00		3.20		2.063e-03		8.642		8.511e-04		74.841
3		0.00		3.60		2.195e-03		-34.803		8.375e-04		50.550
3		0.00		4.00		3.621e-03		-52.630		1.556e-03		34.784
3		0.00		4.40		6.502e-03		-54.688		2.142e-03		16.776
3		0.00		4.80		8.679e-03		-46.090		2.145e-03		13.630
3		0.00		5.20		1.059e-02		-56.007		2.702e-03		14.981
3		0.00		5.60		1.272e-02		-52.271		3.095e-03		14.171
3		0.00		6.00		1.495e-02		-47.974		3.685e-03		14.834
3		0.00		6.40		1.771e-02		-47.373		4.062e-03		15.700
3		0.00		6.80		1.997e-02		-48.273		4.861e-03		14.654
3		0.00		7.20		2.275e-02		-46.463		5.597e-03		14.968
3		0.00		7.60		2.532e-02		-48.567		6.863e-03		16.075
3		0.00		8.00		2.782e-02		-46.353		7.944e-03		16.326
3		0.00		8.40		3.088e-02		-46.782		8.826e-03		11.682
3		0.00		8.80		3.274e-02		-46.455		9.411e-03		10.473
3		0.00		9.20		3.418e-02		-49.073		9.375e-03		11.000
3		0.00		9.60		3.597e-02		-48.822		9.271e-03		10.863
3		0.00		10.00		3.742e-02		-48.367		8.927e-03		10.971
3		0.00		9.60		3.647e-02		-51.037		8.733e-03		11.358
3		0.00		9.20		3.409e-02		-50.677		8.376e-03		13.127
3		0.00		8.80		3.255e-02		-49.465		7.527e-03		13.000
3		0.00		8.40		3.234e-02		-48.395		8.003e-03		12.770
3		0.00		8.00		3.059e-02		-48.140		8.279e-03		13.412
3		0.00		7.60		2.964e-02		-50.488		8.424e-03		18.116
3		0.00		7.20		2.802e-02		-50.676		7.861e-03		18.948
3		0.00		6.80		2.770e-02		-46.181		8.103e-03		17.619
3		0.00		6.40		2.745e-02		-49.378		7.939e-03		12.545
3		0.00		6.00		2.716e-02		-50.088		6.905e-03		10.891
3		0.00		5.60		2.736e-02		-48.689		5.875e-03		10.766
3		0.00		5.20		2.692e-02		-49.240		4.895e-03		10.362
3		0.00		4.80		2.557e-02		-51.053		4.340e-03		10.913
3		0.00		4.40		2.501e-02		-49.007		4.304e-03		12.746
3		0.00		4.00		2.396e-02		-47.809		4.802e-03		12.371
3		0.00		3.60		2.316e-02		-47.285		4.979e-03		13.815
3		0.00		3.20		2.272e-02		-48.691		5.015e-03		14.299
3		0.00		2.80		2.284e-02		-48.778		5.344e-03		16.470
3		0.00		2.40		2.222e-02		-46.445		5.403e-03		12.303
3		0.00		2.00		2.149e-02		-48.849		5.687e-03		14.532
3		0.00		1.60		2.088e-02		-48.646		5.433e-03		10.734
3		0.00		1.20		2.159e-02		-50.844		4.489e-03		9.993
3		0.00		0.80		2.123e-02		-47.332		3.785e-03		10.066
3		0.00		0.40		2.150e-02		-49.408		3.426e-03		9.279
3		0.00		0.00		2.109e-02		-50.563		3.312e-03		9.108
3		0.00		-0.40		1.939e-02		-49.948		3.171e-03		11.760
3		0.00		-0.80		1.759e-02		-48.460		3.472e-03		13.489
3		0.00		-1.20		1.570e-02		-47.050		3.626e-03		13.386
3		0.00		-1.60		1.371e-02		-44.872		3.395e-03		15.565
3		0.00		-2.00		1.158e-02		-51.442		3.080e-03		17.777
3		0.00		-2.40		8.010e-03		-49.352		2.714e-03		22.758
3		0.00		-2.80		5.644e-03		-48.897		2.471e-03		27.004
3		0.00		-3.20		3.142e-03		-5.622		1.777e-03		60.591
3		0.00		-3.60		3.034e-03		33.467		1.223e-03		69.712
3		0.00		-4.00		3.906e-03		81.160		1.567e-03		58.784
3		0.00		-4.40		5.914e-03		108.155		2.302e-03		34.864
3		0.00		-4.80		8.650e-03		116.087		2.974e-03		26.532
3		0.00		-5.20		1.120e-02		128.376		3.226e-03		11.313
3		0.00		-5.60		1.369e-02		128.236		3.876e-03		13.921
3		0.00		-6.00		1.598e-02		128.108		4.690e-03		18.504
3		0.00		-6.40		1.726e-02		122.178		5.366e-03		24.716
3		0.00		-6.80		1.935e-02		122.698		6.287e-03		23.594
3		0.00		-7.20		2.251e-02		125.320		7.251e-03		20.782
3		0.00		-7.60		2.330e-02		129.980		7.312e-03		8.889
3		0.00		-8.00		2.512e-02		126.936		6.698e-03		8.494
3		0.00		-8.40		2.425e-02		127.706		5.828e-03		10.442
3		0.00		-8.80		2.625e-02		126.276		6.138e-03		8.994
3		0.00		-9.20		2.635e-02		127.235		6.453e-03		10.908
3		0.00		-9.60		2.552e-02		126.990		6.205e-03		10.526
3		0.00		-10.00		2.753e-02		129.051		6.706e-03		10.785
3		0.00		-9.60		2.660e-02		125.698		6.934e-03		14.580
3		0.00		-9.20		2.611e-02		126.131		6.515e-03		18.497
3		0.00		-8.80		2.708e-02		127.329		7.312e-03		20.390
3		0.00		-8.40		2.729e-02		127.576		7.751e-03		9.790
3		0.00		-8.00		2.801e-02		128.330		7.173e-03		9.096
3		0.00		-7.60		2.629e-02		126.713		6.461e-03		9.819
3		0.00		-7.20		2.555e-02		127.961		5.576e-03		9.253
3		0.00		-6.80		2.410e-02		127.439		4.754e-03		10.482
3		0.00		-6.40		2.241e-02		126.769		4.695e-03		10.523
3		0.00		-6.00		2.226e-02		128.338		5.001e-03		10.276
3		0.00		-5.60		2.001e-02		128.708		4.865e-03		11.647
3		0.00		-5.20		1.876e-02		126.715		4.834e-03		16.433
3		0.00		-4.80		1.873e-02		126.366		5.277e-03		15.630
3		0.00		-4.40		1.709e-02		124.965		5.024e-03		18.778
3		0.00		-4.00		1.659e-02		126.731		4.836e-03		10.900
3		0.00		-3.60		1.575e-02		126.915		4.322e-03		9.950
3		0.00		-3.20		1.446e-02		128.476		3.706e-03		9.747
3		0.00		-2.80		1.365e-02		126.543		3.240e-03		10.359
3		0.00		-2.40		1.263e-02		125.438		3.135e-03		11.473
3		0.00		-2.00		1.160e-02		128.675		2.787e-03		12.945
3		0.00		-1.60		1.087e-02		126.229		2.946e-03		13.096
3		0.00		-1.20		1.043e-02		124.105		2.715e-03		14.313
3		0.00		-0.80		9.860e-03		124.298		2.758e-03		25.826
3		0.00		-0.40		8.658e-03		124.263		2.581e-03		26.005
4		0.00		0.00		7.845e-03		121.246		2.518e-03		30.818
4		0.00		0.40		8.007e-03		129.080		2.406e-03		16.885
4		0.00		0.80		6.871e-03		124.365		2.232e-03		23.101
4		0.00		1.20		5.993e-03		125.490		1.954e-03		28.314
4		0.00		1.60		5.121e-03		124.827		1.495e-03		19.846
4		0.00		2.00		4.723e-03		121.110		1.532e-03		34.283
4		0.00		2.40		3.610e-03		104.370		1.214e-03		41.486
4		0.00		2.80		2.844e-03		90.800		1.080e-03		52.810
4		0.00		3.20		2.151e-03		65.154		7.857e-04		64.868
4		0.00		3.60		1.962e-03		-1.417		8.716e-04		70.765
4		0.00		4.00		2.604e-03		-39.723		1.087e-03		42.386
4		0.00		4.40		4.081e-03		-59.911		1.587e-03		23.296
4		0.00		4.80		6.895e-03		-43.542		2.150e-03		20.097
4		0.00		5.20		8.996e-03		-54.171		2.472e-03		15.479
4		0.00		5.60		1.197e-02		-49.360		3.015e-03		14.002
4		0.00		6.00		1.458e-02		-52.969		3.339e-03		14.070
4		0.00		6.40		1.796e-02		-51.010		3.948e-03		13.352
4		0.00		6.80		2.093e-02		-51.204		4.387e-03		13.895
4		0.00		7.20		2.361e-02		-51.089		5.068e-03		13.949
4		0.00		7.60		2.573e-02		-47.989		5.630e-03		12.957
4		0.00		8.00		2.746e-02		-47.852		6.106e-03		13.614
4		0.00		8.40		2.976e-02		-48.560		7.051e-03		13.046
4		0.00		8.80		3.177e-02		-48.148		7.898e-03		14.362
4		0.00		9.20		3.331e-02		-48.964		8.566e-03		17.707
4		0.00		9.60		3.477e-02		-48.368		9.278e-03		17.052
4		0.00		10.00		3.494e-02		-47.313		9.337e-03		14.197
4		0.00		9.60		3.445e-02		-49.096		9.861e-03		15.200
4		0.00		9.20		3.382e-02		-45.880		1.010e-02		14.783
4		0.00		8.80		3.275e-02		-49.839		9.531e-03		13.996
4		0.00		8.40		3.206e-02		-48.552		9.047e-03		11.814
4		0.00		8.00		3.205e-02		-49.028		8.885e-03		9.826
4		0.00		7.60		3.082e-02		-49.120		8.212e-03		10.744
4		0.00		7.20		2.993e-02		-47.633		7.899e-03		9.744
4		0.00		6.80		2.923e-02		-49.723		7.108e-03		10.205
4		0.00		6.40		2.888e-02		-48.318		6.895e-03		9.393
4		0.00		6.00		2.800e-02		-48.583		6.165e-03		9.936
4		0.00		5.60		2.805e-02		-49.952		5.931e-03		9.494
4		0.00		5.20		2.779e-02		-49.416		5.477e-03		9.400
4		0.00		4.80		2.779e-02		-51.258		4.965e-03		9.485
4		0.00		4.40		2.733e-02		-50.350		5.285e-03		9.920
4		0.00		4.00		2.678e-02		-50.383		4.836e-03		10.319
4		0.00		3.60		2.698e-02		-49.832		4.927e-03		10.274
4		0.00		3.20		2.626e-02		-50.027		4.666e-03		9.537
4		0.00		2.80		2.605e-02		-51.069		4.645e-03		10.081
4		0.00		2.40		2.513e-02		-50.031		4.591e-03		10.770
4		0.00		2.00		2.426e-02		-49.197		4.460e-03		12.029
4		0.00		1.60		2.399e-02		-49.765		4.586e-03		11.084
4		0.00		1.20		2.388e-02		-48.656		4.619e-03		10.961
4		0.00		0.80		2.372e-02		-51.375		4.707e-03		11.035
4		0.00		0.40		2.343e-02		-49.254		4.238e-03		10.923
4		0.00		0.00		2.270e-02		-50.682		4.697e-03		12.679
4		0.00		-0.40		2.179e-02		-50.658		4.488e-03		12.089
4		0.00		-0.80		1.940e-02		-49.732		3.802e-03		12.002
4		0.00		-1.20		1.796e-02		-49.438		3.588e-03		12.087
4		0.00		-1.60		1.505e-02		-49.763		2.980e-03		15.278
4		0.00		-2.00		1.287e-02		-52.002		2.899e-03		14.177
4		0.00		-2.40		9.680e-03		-51.004		2.408e-03		16.380
4		0.00		-2.80		6.651e-03		-42.834		2.405e-03		19.748
4		0.00		-3.20		3.737e-03		-30.793		1.947e-03		46.268
4		0.00		-3.60		3.105e-03		19.694		1.225e-03		71.029
4		0.00		-4.00		4.067e-03		78.241		1.669e-03		55.911
4		0.00		-4.40		6.236e-03		109.278		2.683e-03		41.136
4		0.00		-4.80		8.605e-03		120.170		3.254e-03		22.239
4		0.00		-5.20		1.120e-02		125.460		3.861e-03		20.191
4		0.00		-5.60		1.440e-02		126.701		4.443e-03		10.820
4		0.00		-6.00		1.575e-02		126.751		5.086e-03		13.091
4		0.00		-6.40		1.702e-02		128.793		5.298e-03		11.516
4		0.00		-6.80		2.033e-02		127.957		6.187e-03		11.503
4		0.00		-7.20		1.982e-02		127.973		5.807e-03		11.547
4		0.00		-7.60		2.120e-02		126.844		6.452e-03		12.104
4		0.00		-8.00		2.378e-02		126.364		7.408e-03		12.770
4		0.00		-8.40		2.359e-02		127.755		7.307e-03		11.920
4		0.00		-8.80		2.610e-02		127.398		7.706e-03		12.086
4		0.00		-9.20		2.525e-02		127.410		7.547e-03		11.918
4		0.00		-9.60		2.694e-02		128.250		7.475e-03		11.528
4		0.00		-10.00		2.703e-02		127.581		7.494e-03		13.172
4		0.00		-9.60		2.619e-02		127.886		7.136e-03		13.109
4		0.00		-9.20		2.723e-02		128.587		7.329e-03		12.486
4		0.00		-8.80		2.671e-02		128.878		7.683e-03		13.072
4		0.00		-8.40		2.646e-02		128.531		7.604e-03		14.706
4		0.00		-8.00		2.482e-02		127.261		7.057e-03		14.244
4		0.00		-7.60		2.429e-02		126.289		6.851e-03		14.270
4		0.00		-7.20		2.249e-02		127.381		6.458e-03		16.599
4		0.00		-6.80		2.258e-02		128.011		6.667e-03		14.932
4		0.00		-6.40		2.169e-02		126.210		6.658e-03		17.966
4		0.00		-6.00		1.994e-02		127.601		6.174e-03		14.923
4		0.00		-5.60		1.892e-02		124.818		5.660e-03		17.735
4		0.00		-5.20		1.759e-02		126.441		5.338e-03		16.377
4		0.00		-4.80		1.645e-02		124.584		5.072e-03		15.655
4		0.00		-4.40		1.579e-02		125.341		5.009e-03		14.761
4		0.00		-4.00		1.416e-02		126.660		4.778e-03		16.783
4		0.00		-3.60		1.386e-02		125.666		4.567e-03		15.139
4		0.00		-3.20		1.334e-02		121.815		4.319e-03		15.872
4		0.00		-2.80		1.248e-02		125.512		3.678e-03		13.417
4		0.00		-2.40		1.170e-02		124.949		3.631e-03		14.403
4		0.00		-2.00		1.086e-02		127.631		3.236e-03		12.762
4		0.00		-1.60		1.041e-02		124.884		3.144e-03		14.176
4		0.00		-1.20		9.164e-03		126.014		2.758e-03		13.276
4		0.00		-0.80		8.892e-03		122.873		2.878e-03		18.214
4		0.00		-0.40		8.242e-03		125.431		2.539e-03		15.306
5		0.00		0.00		7.445e-03		125.788		2.340e-03		19.229
5		0.00		0.40		6.861e-03		124.341		2.087e-03		16.649
5		0.00		0.80		5.624e-03		124.412		1.866e-03		29.583
5		0.00		1.20		5.200e-03		121.929		1.831e-03		27.285
5		0.00		1.60		4.141e-03		118.874		1.495e-03		29.221
5		0.00		2.00		3.615e-03		114.748		1.370e-03		31.826
5		0.00		2.40		2.794e-03		84.195		1.168e-03		67.533
5		0.00		2.80		2.626e-03		84.967		1.083e-03		50.391
5		0.00		3.20		1.960e-03		16.934		8.003e-04		75.924
5		0.00		3.60		1.954e-03		4.918		8.946e-04		69.620
5		0.00		4.00		2.910e-03		-53.664		1.340e-03		39.035
5		0.00		4.40		3.863e-03		-39.104		1.487e-03		34.495
5		0.00		4.80		6.464e-03		-50.599		2.047e-03		20.995
5		0.00		5.20		9.230e-03		-52.014		2.554e-03		14.998
5		0.00		5.60		1.137e-02		-47.508		3.129e-03		14.162
5		0.00		6.00		1.423e-02		-48.276		3.503e-03		15.989
5		0.00		6.40		1.675e-02		-50.263		4.343e-03		13.072
5		0.00		6.80		2.056e-02		-48.388		4.812e-03		14.364
5		0.00		7.20		2.314e-02		-49.885		5.630e-03		13.558
5		0.00		7.60		2.444e-02		-49.241		6.057e-03		13.438
5		0.00		8.00		2.677e-02		-48.242		6.187e-03		12.363
5		0.00		8.40		2.905e-02		-47.668		6.846e-03		11.904
5		0.00		8.80		3.042e-02		-48.227		7.363e-03		13.566
5		0.00		9.20		3.218e-02		-48.857		8.099e-03		13.128
5		0.00		9.60		3.360e-02		-50.030		8.740e-03		13.168
5		0.00		10.00		3.452e-02		-49.449		9.063e-03		13.116
5		0.00		9.60		3.466e-02		-50.835		9.012e-03		12.105
5		0.00		9.20		3.376e-02		-50.513		8.865e-03		12.813
5		0.00		8.80		3.327e-02		-50.671		8.909e-03		11.106
5		0.00		8.40		3.206e-02		-51.408		8.443e-03		11.660
5		0.00		8.00		3.099e-02		-49.510		8.434e-03		11.658
5		0.00		7.60		3.035e-02		-51.012		8.070e-03		11.586
5		0.00		7.20		3.041e-02		-50.292		7.595e-03		11.434
5		0.00		6.80		2.865e-02		-47.942		6.961e-03		11.297
5		0.00		6.40		2.834e-02		-47.836		6.995e-03		10.352
5		0.00		6.00		2.792e-02		-51.041		6.822e-03		11.162
5		0.00		5.60		2.663e-02		-47.882		6.354e-03		10.942
5		0.00		5.20		2.584e-02		-47.932		6.105e-03		11.044
5		0.00		4.80		2.600e-02		-49.065		6.240e-03		11.627
5		0.00		4.40		2.590e-02		-47.307		6.199e-03		11.476
5		0.00		4.00		2.530e-02		-49.779		6.092e-03		10.857
5		0.00		3.60		2.483e-02		-48.203		6.148e-03		11.022
5		0.00		3.20		2.422e-02		-48.975		6.108e-03		10.848
5		0.00		2.80		2.358e-02		-49.858		5.846e-03		10.463
5		0.00		2.40		2.342e-02		-48.010		5.877e-03		10.302
5		0.00		2.00		2.327e-02		-49.753		5.834e-03		10.017
5		0.00		1.60		2.291e-02		-48.453		5.797e-03		9.613
5		0.00		1.20		2.302e-02		-48.986		5.872e-03		9.655
5		0.00		0.80		2.279e-02		-48.994		5.552e-03		9.048
5		0.00		0.40		2.246e-02		-47.282		5.555e-03		10.031
5		0.00		0.00		2.195e-02		-49.448		5.620e-03		9.480
5		0.00		-0.40		2.146e-02		-49.195		5.033e-03		9.911
5		0.00		-0.80		2.021e-02		-49.083		4.470e-03		9.188
5		0.00		-1.20		1.828e-02		-48.614		4.208e-03		10.986
5		0.00		-1.60		1.485e-02		-50.302		3.410e-03		10.660
5		0.00		-2.00		1.243e-02		-47.177		3.041e-03		12.198
5		0.00		-2.40		9.245e-03		-47.990		2.558e-03		13.781
5		0.00		-2.80		5.888e-03		-48.344		2.342e-03		22.135
5		0.00		-3.20		4.020e-03		-45.988		2.230e-03		28.277
5		0.00		-3.60		2.909e-03		32.618		1.449e-03		60.750
5		0.00		-4.00		3.846e-03		75.306		1.528e-03		60.693
5		0.00		-4.40		5.995e-03		109.793		2.474e-03		36.385
5		0.00		-4.80		9.175e-03		118.004		3.492e-03		26.037
5		0.00		-5.20		1.070e-02		120.276		3.831e-03		26.189
5		0.00		-5.60		1.268e-02		126.030		4.153e-03		16.971
5		0.00		-6.00		1.617e-02		127.926		5.066e-03		11.281
5		0.00		-6.40		1.754e-02		127.360		5.102e-03		9.759
5		0.00		-6.80		2.000e-02		127.282		6.030e-03		10.317
5		0.00		-7.20		2.237e-02		127.781		6.380e-03		10.393
5		0.00		-7.60		2.341e-02		126.942		6.335e-03		10.000
5		0.00		-8.00		2.490e-02		127.697		6.543e-03		9.955
5		0.00		-8.40		2.495e-02		127.252		6.207e-03		10.895
5		0.00		-8.80		2.699e-02		127.261		6.776e-03		9.034
5		0.00		-9.20		2.851e-02		127.127		7.193e-03		8.651
5		0.00		-9.60		3.111e-02		128.505		7.543e-03		7.814
5		0.00		-10.00		2.989e-02		127.815		7.627e-03		8.160
5		0.00		-9.60		2.909e-02		127.607		7.105e-03		8.465
5		0.00		-9.20		2.885e-02		128.316		6.868e-03		8.123
5		0.00		-8.80		2.862e-02		127.512		6.732e-03		7.534
5		0.00		-8.40		2.911e-02		128.062		7.152e-03		8.616
5		0.00		-8.00		2.770e-02		129.170		6.750e-03		8.213
5		0.00		-7.60		2.662e-02		128.651		6.458e-03		8.319
5		0.00		-7.20		2.680e-02		126.832		6.587e-03		8.005
5		0.00		-6.80		2.381e-02		127.773		5.601e-03		7.800
5		0.00		-6.40		2.288e-02		127.120		5.352e-03		7.452
5		0.00		-6.00		2.188e-02		127.858		5.192e-03		8.158
5		0.00		-5.60		2.007e-02		127.035		4.714e-03		8.014
5		0.00		-5.20		1.972e-02		126.642		4.514e-03		7.909
5		0.00		-4.80		1.869e-02		127.463		4.392e-03		6.884
5		0.00		-4.40		1.782e-02		126.875		3.790e-03		10.616
5		0.00		-4.00		1.699e-02		126.406		3.704e-03		8.791
5		0.00		-3.60		1.575e-02		127.933		3.516e-03		10.168
5		0.00		-3.20		1.482e-02		124.480		3.234e-03		9.427
5		0.00		-2.80		1.376e-02		128.837		3.034e-03		10.314
5		0.00		-2.40		1.332e-02		124.592		2.906e-03		10.031
5		0.00		-2.00		1.227e-02		130.487		3.104e-03		11.651
5		0.00		-1.60		1.107e-02		128.006		2.833e-03		11.164
5		0.00		-1.20		1.044e-02		128.644		2.834e-03		11.419
5		0.00		-0.80		9.725e-03		125.364		2.596e-03		11.328
5		0.00		-0.40		8.691e-03		127.080		2.313e-03		14.082
6		0.00		0.00		7.929e-03		125.780		2.173e-03		16.346
6		0.00		0.40		7.087e-03		121.316		2.167e-03		16.190
6		0.00		0.80		6.298e-03		120.005		1.692e-03		13.616
6		0.00		1.20		5.756e-03		118.657		1.612e-03		17.580
6		0.00		1.60		4.885e-03		116.844		1.727e-03		24.529
6		0.00		2.00		3.851e-03		118.853		1.415e-03		34.340
6		0.00		2.40		3.393e-03		104.787		1.328e-03		35.429
6		0.00		2.80		2.454e-03		82.098		1.067e-03		73.733
6		0.00		3.20		1.901e-03		41.258		8.703e-04		78.933
6		0.00		3.60		1.771e-03		-4.565		7.016e-04		66.772
6		0.00		4.00		2.541e-03		-50.459		1.091e-03		42.496
6		0.00		4.40		3.544e-03		-50.823		1.235e-03		32.519
6		0.00		4.80		5.281e-03		-59.784		1.686e-03		20.614
6		0.00		5.20		8.048e-03		-50.406		2.137e-03		17.021
6		0.00		5.60		1.026e-02		-47.703		2.729e-03		15.803
6		0.00		6.00		1.366e-02		-46.651		3.381e-03		13.613
6		0.00		6.40		1.627e-02		-46.681		3.845e-03		12.225
6		0.00		6.80		1.846e-02		-47.479		4.672e-03		13.463
6		0.00		7.20		2.134e-02		-49.268		5.253e-03		14.294
6		0.00		7.60		2.323e-02		-49.417		6.478e-03		15.339
6		0.00		8.00		2.572e-02		-48.657		7.123e-03		17.134
6		0.00		8.40		2.752e-02		-50.501		8.390e-03		17.913
6		0.00		8.80		3.039e-02		-46.757		9.255e-03		15.639
6		0.00		9.20		3.275e-02		-49.408		1.035e-02		11.241
6		0.00		9.60		3.383e-02		-48.311		1.051e-02		10.108
6		0.00		10.00		3.553e-02		-47.907		1.051e-02		10.675
6		0.00		9.60		3.573e-02		-47.949		1.007e-02		10.364
6		0.00		9.20		3.527e-02		-49.023		9.174e-03		9.794
6		0.00		8.80		3.460e-02		-50.472		8.156e-03		9.743
6		0.00		8.40		3.347e-02		-49.449		7.052e-03		10.354
6		0.00		8.00		3.303e-02		-49.729		6.648e-03		10.192
6		0.00		7.60		3.109e-02		-50.457		6.071e-03		11.548
6		0.00		7.20		3.025e-02		-48.835		5.846e-03		11.681
6		0.00		6.80		3.000e-02		-48.391		5.889e-03		11.825
6		0.00		6.40		2.903e-02		-48.123		5.977e-03		10.812
6		0.00		6.00		2.783e-02		-46.722		6.068e-03		11.100
6		0.00		5.60		2.761e-02		-48.208		6.575e-03		13.822
6		0.00		5.20		2.740e-02		-47.671		6.754e-03		12.935
6		0.00		4.80		2.685e-02		-49.653		7.183e-03		19.462
6		0.00		4.40		2.561e-02		-49.659		7.553e-03		17.736
6		0.00		4.00		2.506e-02		-48.681		7.545e-03		11.052
6		0.00		3.60		2.528e-02		-48.338		6.988e-03		10.248
6		0.00		3.20		2.494e-02		-48.343		6.468e-03		8.904
6		0.00		2.80		2.463e-02		-49.226		5.476e-03		8.938
6		0.00		2.40		2.473e-02		-48.571		4.925e-03		9.174
6		0.00		2.00		2.428e-02		-51.841		4.804e-03		9.526
6		0.00		1.60		2.406e-02		-50.204		4.635e-03		10.624
6		0.00		1.20		2.376e-02		-49.070		4.411e-03		10.697
6		0.00		0.80		2.304e-02		-47.871		4.531e-03		10.848
6		0.00		0.40		2.265e-02		-47.208		4.248e-03		11.508
6		0.00		0.00		2.176e-02		-48.249		4.508e-03		11.263
6		0.00		-0.40		2.100e-02		-45.848		4.601e-03		12.094
6		0.00		-0.80		1.981e-02		-47.680		4.560e-03		13.424
6		0.00		-1.20		1.720e-02		-49.588		4.420e-03		15.597
6		0.00		-1.60		1.513e-02		-48.892		4.070e-03		14.883
6		0.00		-2.00		1.236e-02		-46.805		3.301e-03		10.758
6		0.00		-2.40		1.019e-02		-50.591		2.739e-03		12.066
6		0.00		-2.80		7.404e-03		-46.062		2.486e-03		16.906
6		0.00		-3.20		3.675e-03		-20.075		1.901e-03		49.962
6		0.00		-3.60		3.126e-03		11.132		1.511e-03		67.767
6		0.00		-4.00		3.417e-03		59.165		1.566e-03		65.065
6		0.00		-4.40		5.603e-03		104.402		2.648e-03		44.789
6		0.00		-4.80		8.577e-03		118.989		3.335e-03		28.244
6		0.00		-5.20		1.068e-02		124.257		3.639e-03		15.637
6		0.00		-5.60		1.283e-02		123.257		4.101e-03		22.438
6		0.00		-6.00		1.473e-02		121.860		4.634e-03		19.799
6		0.00		-6.40		1.787e-02		123.030		5.571e-03		20.646
6		0.00		-6.80		1.931e-02		125.831		6.295e-03		15.920
6		0.00		-7.20		2.190e-02		128.111		6.541e-03		10.300
6		0.00		-7.60		2.416e-02		127.841		6.373e-03		8.967
6		0.00		-8.00		2.438e-02		128.901		5.994e-03		7.662
6		0.00		-8.40		2.659e-02		128.248		5.755e-03		7.172
6		0.00		-8.80		2.831e-02		126.627		6.308e-03		7.515
6		0.00		-9.20		2.948e-02		127.052		6.425e-03		8.470
6		0.00		-9.60		2.946e-02		128.310		6.308e-03		8.759
6		0.00		-10.00		3.024e-02		128.993		6.893e-03		8.355
6		0.00		-9.60		2.890e-02		128.814		6.864e-03		9.753
6		0.00		-9.20		2.785e-02		126.743		7.157e-03		14.048
6		0.00		-8.80		2.807e-02		126.507		7.496e-03		17.874
6		0.00		-8.40		2.652e-02		124.244		7.835e-03		19.524
6		0.00		-8.00		2.620e-02		127.953		8.182e-03		9.084
6		0.00		-7.60		2.782e-02		129.206		8.235e-03		7.702
6		0.00		-7.20		2.648e-02		128.636		6.840e-03		7.270
6		0.00		-6.80		2.596e-02		127.548		6.641e-03		6.978
6		0.00		-6.40		2.526e-02		126.646		5.697e-03		8.020
6		0.00		-6.00		2.386e-02		126.989		5.367e-03		9.613
6		0.00		-5.60		2.279e-02		128.283		5.369e-03		8.679
6		0.00		-5.20		2.097e-02		128.572		4.748e-03		10.123
6		0.00		-4.80		2.000e-02		128.867		4.689e-03		9.615
6		0.00		-4.40		1.900e-02		128.061		4.448e-03		13.341
6		0.00		-4.00		1.782e-02		126.481		4.211e-03		13.580
6		0.00		-3.60		1.707e-02		126.966		4.284e-03		14.863
6		0.00		-3.20		1.586e-02		125.747		4.098e-03		18.811
6		0.00		-2.80		1.530e-02		123.979		4.317e-03		21.326
6		0.00		-2.40		1.430e-02		128.638		4.194e-03		12.029
6		0.00		-2.00		1.334e-02		123.288		3.761e-03		20.881
6		0.00		-1.60		1.231e-02		127.557		3.291e-03		11.354
6		0.00		-1.20		1.121e-02		127.726		2.846e-03		11.123
6		0.00		-0.80		1.071e-02		128.330		2.747e-03		11.043
6		0.00		-0.40		9.561e-03		128.286		2.379e-03		12.403
7		0.00		0.00		9.053e-03		125.506		2.338e-03		11.954
7		0.00		0.40		7.694e-03		128.707		2.091e-03		14.328
7		0.00		0.80		7.051e-03		129.279		1.982e-03		12.138
7		0.00		1.20		6.619e-03		123.480		1.759e-03		15.240
7		0.00		1.60		5.615e-03		123.297		1.988e-03		19.636
7		0.00		2.00		5.224e-03		116.468		1.760e-03		24.759
7		0.00		2.40		4.162e-03		100.101		1.517e-03		44.134
7		0.00		2.80		3.571e-03		103.770		1.300e-03		45.576
7		0.00		3.20		2.576e-03		75.481		1.164e-03		50.897
7		0.00		3.60		2.311e-03		45.017		9.743e-04		68.947
7		0.00		4.00		2.132e-03		-24.951		8.835e-04		59.277
7		0.00		4.40		3.179e-03		-50.187		1.327e-03		37.878
7		0.00		4.80		5.190e-03		-50.258		1.993e-03		26.867
7		0.00		5.20		7.898e-03		-48.973		2.281e-03		14.582
7		0.00		5.60		9.915e-03		-52.839		2.804e-03		12.003
7		0.00		6.00		1.262e-02		-51.372		2.793e-03		13.482
7		0.00		6.40		1.575e-02		-50.986		3.445e-03		10.568
7		0.00		6.80		1.843e-02		-50.851		3.590e-03		11.178
7		0.00		7.20		2.179e-02		-48.714		4.682e-03		12.754
7		0.00		7.60		2.322e-02		-48.670		5.411e-03		11.948
7		0.00		8.00		2.603e-02		-48.398		6.159e-03		12.184
7		0.00		8.40		2.843e-02		-49.832		7.319e-03		11.367
7		0.00		8.80		3.061e-02		-47.428		7.893e-03		11.140
7		0.00		9.20		3.271e-02		-47.815		8.904e-03		11.197
7		0.00		9.60		3.360e-02		-50.166		9.833e-03		15.525
7		0.00		10.00		3.512e-02		-50.608		1.036e-02		16.549
7		0.00		9.60		3.481e-02		-51.126		1.081e-02		18.352
7		0.00		9.20		3.464e-02		-47.372		1.057e-02		16.083
7		0.00		8.80		3.389e-02		-49.044		1.012e-02		15.447
7		0.00		8.40		3.403e-02		-48.102		9.730e-03		11.207
7		0.00		8.00		3.261e-02		-47.735		9.101e-03		10.136
7		0.00		7.60		3.220e-02		-48.262		8.294e-03		9.338
7		0.00		7.20		3.122e-02		-49.025		7.795e-03		9.912
7		0.00		6.80		3.032e-02		-48.593		7.314e-03		9.514
7		0.00		6.40		3.053e-02		-49.553		7.175e-03		9.947
7		0.00		6.00		3.023e-02		-48.342		6.362e-03		9.351
7		0.00		5.60		2.961e-02		-48.685		5.954e-03		9.783
7		0.00		5.20		2.873e-02		-48.354		5.287e-03		9.740
7		0.00		4.80		2.820e-02		-48.978		5.564e-03		10.422
7		0.00		4.40		2.784e-02		-48.082		5.586e-03		10.745
7		0.00		4.00		2.734e-02		-51.023		5.480e-03		10.470
7		0.00		3.60		2.722e-02		-50.242		5.499e-03		10.421
7		0.00		3.20		2.577e-02		-49.766		5.373e-03		10.754
7		0.00		2.80		2.511e-02		-49.186		5.160e-03		10.853
7		0.00		2.40		2.451e-02		-48.687		5.177e-03		11.893
7		0.00		2.00		2.374e-02		-47.402		4.886e-03		11.853
7		0.00		1.60		2.371e-02		-48.341		5.184e-03		11.049
7		0.00		1.20		2.378e-02		-48.413		5.450e-03		11.173
7		0.00		0.80		2.369e-02		-48.323		5.348e-03		12.089
7		0.00		0.40		2.296e-02		-47.107		5.642e-03		13.676
7		0.00		0.00		2.267e-02		-48.077		5.678e-03		15.110
7		0.00		-0.40		2.157e-02		-50.278		5.651e-03		16.268
7		0.00		-0.80		2.012e-02		-52.725		5.371e-03		18.577
7		0.00		-1.20		1.822e-02		-50.058		4.746e-03		19.955
7		0.00		-1.60		1.597e-02		-47.937		4.236e-03		16.396
7		0.00		-2.00		1.382e-02		-46.357		3.864e-03		19.093
7		0.00		-2.40		9.975e-03		-43.131		3.144e-03		19.929
7		0.00		-2.80		6.656e-03		-49.973		2.705e-03		20.733
7		0.00		-3.20		3.988e-03		-30.981		1.945e-03		38.284
7		0.00		-3.60		3.183e-03		3.453		1.658e-03		55.082
7		0.00		-4.00		3.724e-03		73.562		1.574e-03		62.876
7		0.00		-4.40		5.476e-03		97.540		2.178e-03		39.158
7		0.00		-4.80		7.741e-03		113.228		3.157e-03		33.388
7		0.00		-5.20		1.044e-02		117.325		3.952e-03		32.444
7		0.00		-5.60		1.386e-02		121.267		4.994e-03		26.971
7		0.00		-6.00		1.664e-02		124.994		5.538e-03		23.229
7		0.00		-6.40		1.848e-02		125.525		5.822e-03		13.385
7		0.00		-6.80		1.992e-02		124.690		6.071e-03		19.677
7		0.00		-7.20		2.266e-02		126.525		6.513e-03		10.585
7		0.00		-7.60		2.459e-02		127.016		6.235e-03		9.913
7		0.00		-8.00		2.679e-02		127.504		6.363e-03		8.656
7		0.00		-8.40		2.888e-02		128.682		7.263e-03		9.868
7		0.00		-8.80		2.913e-02		127.832		7.449e-03		10.220
7		0.00		-9.20		2.936e-02		127.365		7.381e-03		9.653
7		0.00		-9.60		3.088e-02		128.891		7.543e-03		9.634
7		0.00		-10.00		2.926e-02		127.822		7.006e-03		9.704
7		0.00		-9.60		2.952e-02		128.590		6.775e-03		9.348
7		0.00		-9.20		3.026e-02		128.377		7.089e-03		10.123
7		0.00		-8.80		2.906e-02		129.396		7.499e-03		10.512
7		0.00		-8.40		2.890e-02		128.799		7.691e-03		9.639
7		0.00		-8.00		2.900e-02		128.296		7.792e-03		10.570
7		0.00		-7.60		2.704e-02		126.614		7.636e-03		15.672
7		0.00		-7.20		2.653e-02		125.020		7.844e-03		18.010
7		0.00		-6.80		2.511e-02		123.920		7.309e-03		20.873
7		0.00		-6.40		2.391e-02		125.152		6.679e-03		20.402
7		0.00		-6.00		2.353e-02		127.222		6.748e-03		21.164
7		0.00		-5.60		2.206e-02		125.213		6.472e-03		20.177
7		0.00		-5.20		2.111e-02		126.540		6.275e-03		20.882
7		0.00		-4.80		2.024e-02		128.510		5.658e-03		13.349
7		0.00		-4.40		1.964e-02		129.045		5.119e-03		10.709
7		0.00		-4.00		1.823e-02		128.467		4.726e-03		10.041
7		0.00		-3.60		1.770e-02		129.040		4.452e-03		8.569
7		0.00		-3.20		1.661e-02		128.631		4.106e-03		9.955
7		0.00		-2.80		1.584e-02		125.191		3.458e-03		8.587
7		0.00		-2.40		1.454e-02		125.910		3.272e-03		10.617
7		0.00		-2.00		1.374e-02		129.770		3.075e-03		10.265
7		0.00		-1.60		1.269e-02		126.110		3.068e-03		10.700
7		0.00		-1.20		1.219e-02		126.189		3.053e-03		11.053
7		0.00		-0.80		1.105e-02		127.943		2.882e-03		10.760
7		0.00		-0.40		1.027e-02		128.490		2.917e-03		11.078
8		0.00		0.00		9.433e-03		125.761		2.433e-03		11.510
8		0.00		0.40		8.661e-03		128.216		2.280e-03		11.956
8		0.00		0.80		8.163e-03		127.474		2.301e-03		12.897
8		0.00		1.20		7.468e-03		122.262		2.150e-03		14.397
8		0.00		1.60		6.440e-03		125.756		1.996e-03		16.388
8		0.00		2.00		5.522e-03		116.209		1.858e-03		22.117
8		0.00		2.40		4.826e-03		116.439		1.698e-03		25.069
8		0.00		2.80		4.161e-03		108.029		1.524e-03		27.888
8		0.00		3.20		3.561e-03		99.949		1.352e-03		44.476
8		0.00		3.60		2.919e-03		81.913		1.124e-03		62.055
8		0.00		4.00		2.026e-03		40.361		8.289e-04		73.684
8		0.00		4.40		2.068e-03		-14.639		9.807e-04		58.813
8		0.00		4.80		3.585e-03		-39.550		1.544e-03		33.437
8		0.00		5.20		5.576e-03		-50.711		1.664e-03		19.923
8		0.00		5.60		7.711e-03		-48.643		2.431e-03		15.651
8		0.00		6.00		1.068e-02		-48.928		3.112e-03		13.001
8		0.00		6.40		1.402e-02		-51.248		3.951e-03		11.767
8		0.00		6.80		1.690e-02		-47.353		4.528e-03		10.195
8		0.00		7.20		2.052e-02		-50.972		5.872e-03		9.885
8		0.00		7.60		2.372e-02		-49.835		6.618e-03		9.291
8		0.00		8.00		2.669e-02		-48.128		7.125e-03		8.628
8		0.00		8.40		2.984e-02		-49.120		7.970e-03		8.498
8		0.00		8.80		3.322e-02		-48.467		8.360e-03		7.963
8		0.00		9.20		3.519e-02		-49.316		8.979e-03		8.280
8		0.00		9.60		3.792e-02		-50.832		9.127e-03		7.608
8		0.00		10.00		3.831e-02		-51.098		9.301e-03		9.013
8		0.00		9.60		3.861e-02		-49.753		8.592e-03		9.316
8		0.00		9.20		3.840e-02		-50.884		8.215e-03		9.438
8		0.00		8.80		3.529e-02		-49.997		7.154e-03		10.722
8		0.00		8.40		3.471e-02		-49.985		6.527e-03		10.347
8		0.00		8.00		3.368e-02		-48.873		6.672e-03		11.497
8		0.00		7.60		3.292e-02		-49.099		6.687e-03		10.987
8		0.00		7.20		3.224e-02		-48.087		6.840e-03		10.837
8		0.00		6.80		3.076e-02		-49.318		6.962e-03		10.397
8		0.00		6.40		3.038e-02		-47.765		6.898e-03		9.567
8		0.00		6.00		2.993e-02		-47.375		6.939e-03		11.110
8		0.00		5.60		2.898e-02		-49.525		7.116e-03		13.027
8		0.00		5.20		2.774e-02		-49.552		7.586e-03		13.866
8		0.00		4.80		2.753e-02		-49.049		7.593e-03		14.441
8		0.00		4.40		2.721e-02		-51.178		7.728e-03		19.043
8		0.00		4.00		2.734e-02		-51.453		7.526e-03		18.750
8		0.00		3.60		2.776e-02		-49.648		7.904e-03		16.908
8		0.00		3.20		2.700e-02		-48.207		8.141e-03		14.915
8		0.00		2.80		2.729e-02		-48.813		7.970e-03		10.612
8		0.00		2.40		2.703e-02		-47.862		7.641e-03		8.289
8		0.00		2.00		2.683e-02		-47.859		7.390e-03		8.624
8		0.00		1.60		2.626e-02		-50.316		6.619e-03		8.711
8		0.00		1.20		2.671e-02		-48.556		6.015e-03		9.984
8		0.00		0.80		2.637e-02		-48.075		5.716e-03		9.327
8		0.00		0.40		2.584e-02		-48.113		5.252e-03		9.460
8		0.00		0.00		2.563e-02		-49.394		4.941e-03		9.061
8		0.00		-0.40		2.506e-02		-49.637		4.390e-03		8.491
8		0.00		-0.80		2.422e-02		-48.709		4.292e-03		9.103
8		0.00		-1.20		2.221e-02		-47.643		3.911e-03		9.540
8		0.00		-1.60		2.001e-02		-50.453		3.607e-03		10.191
8		0.00		-2.00		1.608e-02		-46.770		2.965e-03		11.132
8		0.00		-2.40		1.344e-02		-47.039		2.767e-03		13.141
8		0.00		-2.80		9.723e-03		-48.281		2.641e-03		14.242
8		0.00		-3.20		5.320e-03		-53.426		2.270e-03		25.411
8		0.00		-3.60		3.697e-03		-27.600		1.887e-03		42.376
8		0.00		-4.00		2.677e-03		31.901		1.284e-03		65.840
8		0.00		-4.40		4.260e-03		94.528		1.751e-03		43.190
8		0.00		-4.80		7.550e-03		115.113		2.838e-03		31.994
8		0.00		-5.20		1.047e-02		121.538		3.571e-03		26.209
8		0.00		-5.60		1.330e-02		124.044		4.337e-03		20.561
8		0.00		-6.00		1.599e-02		125.948		4.798e-03		15.447
8		0.00		-6.40		1.951e-02		127.656		5.208e-03		9.058
8		0.00		-6.80		2.178e-02		128.676		5.832e-03		8.541
8		0.00		-7.20		2.383e-02		128.867		5.737e-03		8.098
8		0.00		-7.60		2.624e-02		127.901		6.148e-03		7.517
8		0.00		-8.00		2.911e-02		128.392		6.382e-03		6.572
8		0.00		-8.40		2.931e-02		127.473		6.249e-03		7.688
8		0.00		-8.80		3.018e-02		127.857		6.239e-03		7.294
8		0.00		-9.20		3.129e-02		127.659		6.179e-03		8.491
8		0.00		-9.60		3.178e-02		126.966		6.341e-03		8.310
8		0.00		-10.00		3.243e-02		128.491		6.701e-03		8.996
8		0.00		-9.60		3.249e-02		129.207		7.037e-03		8.667
8		0.00		-9.20		3.184e-02		127.964		7.361e-03		8.780
8		0.00		-8.80		3.140e-02		129.273		7.240e-03		8.792
8		0.00		-8.40		3.051e-02		127.660		7.106e-03		8.643
8		0.00		-8.00		2.932e-02		128.941		7.189e-03		9.332
8		0.00		-7.60		2.965e-02		129.582		7.142e-03		8.695
8		0.00		-7.20		2.709e-02		127.506		7.216e-03		12.254
8		0.00		-6.80		2.592e-02		125.829		6.815e-03		15.892
8		0.00		-6.40		2.412e-02		126.638		6.602e-03		18.823
8		0.00		-6.00		2.370e-02		124.366		6.402e-03		19.356
8		0.00		-5.60		2.273e-02		125.591		6.175e-03		17.294
8		0.00		-5.20		2.124e-02		127.715		5.327e-03		16.667
8		0.00		-4.80		2.052e-02		127.869		5.334e-03		11.581
8		0.00		-4.40		1.999e-02		127.126		5.152e-03		11.029
8		0.00		-4.00		1.888e-02		127.178		4.840e-03		8.436
8		0.00		-3.60		1.763e-02		128.685		4.135e-03		7.389
8		0.00		-3.20		1.683e-02		129.540		3.906e-03		9.749
8		0.00		-2.80		1.549e-02		126.946		3.408e-03		9.194
8		0.00		-2.40		1.488e-02		126.761		3.368e-03		11.209
8		0.00		-2.00		1.432e-02		129.171		2.922e-03		8.177
8		0.00		-1.60		1.305e-02		126.235		2.597e-03		9.887
8		0.00		-1.20		1.221e-02		125.334		2.343e-03		10.245
8		0.00		-0.80		1.072e-02		128.373		2.332e-03		9.959
8		0.00		-0.40		1.017e-02		127.711		2.291e-03		12.847
