# Date of analysis: 2024-03-08 10;59
# Segment other properties: height: -58.395575940954174, diff height: 529.2055114435026, deflection: 33.25512154896766, deflection error: 2.9429915099355375, adhesion: 32.3431126883397, phase offset: 0
# 
# Loop index	Read Volt (V)	Write Volt (V)	Amplitude (a.u)	Phase (deg)	Sigma Amp (a.u)	Sigma Pha (deg)	
1		0.00		0.00		1.035e-02		-51.161		2.396e-03		16.201
1		0.00		0.40		1.010e-02		-49.264		2.241e-03		15.909
1		0.00		0.80		1.028e-02		-47.782		2.390e-03		18.650
1		0.00		1.20		1.025e-02		-47.277		2.591e-03		16.290
1		0.00		1.60		1.041e-02		-44.669		2.539e-03		15.973
1		0.00		2.00		1.034e-02		-48.924		2.706e-03		17.618
1		0.00		2.40		1.057e-02		-50.129		2.371e-03		16.637
1		0.00		2.80		1.048e-02		-47.374		2.830e-03		14.885
1		0.00		3.20		1.049e-02		-47.012		2.692e-03		16.255
1		0.00		3.60		1.061e-02		-45.935		2.695e-03		19.707
1		0.00		4.00		1.083e-02		-49.893		2.578e-03		16.279
1		0.00		4.40		1.171e-02		-49.258		2.851e-03		17.076
1		0.00		4.80		1.177e-02		-45.988		2.954e-03		15.388
1		0.00		5.20		1.206e-02		-49.051		3.295e-03		16.456
1		0.00		5.60		1.294e-02		-51.985		3.293e-03		17.807
1		0.00		6.00		1.386e-02		-50.333		3.840e-03		15.485
1		0.00		6.40		1.389e-02		-50.328		3.798e-03		17.242
1		0.00		6.80		1.420e-02		-49.508		4.027e-03		17.810
1		0.00		7.20		1.535e-02		-49.149		4.174e-03		15.284
1		0.00		7.60		1.585e-02		-51.341		4.648e-03		17.755
1		0.00		8.00		1.655e-02		-49.958		4.722e-03		15.739
1		0.00		8.40		1.721e-02		-49.435		4.603e-03		16.371
1		0.00		8.80		1.845e-02		-50.221		5.037e-03		15.272
1		0.00		9.20		2.019e-02		-48.909		5.396e-03		10.400
1		0.00		9.60		2.130e-02		-50.288		5.927e-03		14.365
1		0.00		10.00		2.246e-02		-51.148		6.413e-03		13.594
1		0.00		9.60		2.308e-02		-49.083		6.119e-03		13.548
1		0.00		9.20		2.353e-02		-49.108		6.766e-03		17.054
1		0.00		8.80		2.382e-02		-52.562		6.507e-03		15.909
1		0.00		8.40		2.393e-02		-49.644		6.651e-03		15.415
1		0.00		8.00		2.395e-02		-50.424		6.718e-03		13.329
1		0.00		7.60		2.486e-02		-49.878		6.846e-03		11.744
1		0.00		7.20		2.444e-02		-50.950		7.153e-03		11.633
1		0.00		6.80		2.373e-02		-50.267		7.040e-03		11.633
1		0.00		6.40		2.364e-02		-50.638		7.213e-03		12.922
1		0.00		6.00		2.323e-02		-51.180		6.787e-03		11.481
1		0.00		5.60		2.375e-02		-51.907		7.090e-03		12.487
1		0.00		5.20		2.333e-02		-52.727		6.690e-03		11.911
1		0.00		4.80		2.322e-02		-50.219		6.356e-03		11.521
1		0.00		4.40		2.250e-02		-52.791		5.852e-03		12.571
1		0.00		4.00		2.268e-02		-53.470		6.021e-03		13.007
1		0.00		3.60		2.223e-02		-53.044		5.461e-03		13.046
1		0.00		3.20		2.248e-02		-50.471		5.477e-03		12.278
1		0.00		2.80		2.244e-02		-52.558		5.289e-03		12.197
1		0.00		2.40		2.194e-02		-52.211		5.110e-03		12.384
1		0.00		2.00		2.169e-02		-53.665		5.186e-03		13.821
1		0.00		1.60		2.157e-02		-52.497		4.779e-03		13.497
1		0.00		1.20		2.165e-02		-49.907		4.975e-03		12.106
1		0.00		0.80		2.185e-02		-49.748		5.170e-03		13.526
1		0.00		0.40		2.132e-02		-52.062		5.039e-03		12.956
1		0.00		0.00		2.076e-02		-47.831		4.940e-03		14.757
1		0.00		-0.40		2.117e-02		-49.150		4.867e-03		13.908
1		0.00		-0.80		2.046e-02		-50.439		5.061e-03		12.959
1		0.00		-1.20		2.034e-02		-50.619		4.789e-03		11.841
1		0.00		-1.60		2.005e-02		-51.292		5.198e-03		13.844
1		0.00		-2.00		1.975e-02		-48.747		4.639e-03		13.311
1		0.00		-2.40		1.919e-02		-47.967		4.606e-03		13.446
1		0.00		-2.80		1.923e-02		-52.339		5.026e-03		14.531
1		0.00		-3.20		1.828e-02		-49.771		4.905e-03		12.430
1		0.00		-3.60		1.793e-02		-49.852		4.673e-03		13.701
1		0.00		-4.00		1.744e-02		-49.706		4.485e-03		14.077
1		0.00		-4.40		1.701e-02		-50.188		4.331e-03		15.048
1		0.00		-4.80		1.544e-02		-50.357		4.044e-03		16.127
1		0.00		-5.20		1.419e-02		-49.798		3.806e-03		15.938
1		0.00		-5.60		1.224e-02		-47.240		3.093e-03		16.129
1		0.00		-6.00		9.930e-03		-43.115		2.662e-03		14.363
1		0.00		-6.40		8.000e-03		-44.983		2.082e-03		17.017
1		0.00		-6.80		5.841e-03		-47.761		1.573e-03		20.598
1		0.00		-7.20		3.749e-03		-51.614		1.393e-03		34.174
1		0.00		-7.60		1.844e-03		-0.725		7.512e-04		61.078
1		0.00		-8.00		2.427e-03		64.978		9.799e-04		66.137
1		0.00		-8.40		4.866e-03		112.359		1.684e-03		38.352
1		0.00		-8.80		6.945e-03		111.692		2.411e-03		31.671
1		0.00		-9.20		8.257e-03		117.205		2.870e-03		27.450
1		0.00		-9.60		1.134e-02		120.518		3.629e-03		22.943
1		0.00		-10.00		1.184e-02		119.088		4.210e-03		32.869
1		0.00		-9.60		1.191e-02		123.423		4.108e-03		20.525
1		0.00		-9.20		1.206e-02		117.244		4.512e-03		26.980
1		0.00		-8.80		1.230e-02		118.945		4.178e-03		23.612
1		0.00		-8.40		1.241e-02		119.504		4.031e-03		21.579
1		0.00		-8.00		1.228e-02		118.922		3.960e-03		17.422
1		0.00		-7.60		1.216e-02		121.174		3.657e-03		16.355
1		0.00		-7.20		1.156e-02		121.103		3.509e-03		24.550
1		0.00		-6.80		1.154e-02		123.168		3.634e-03		17.489
1		0.00		-6.40		1.101e-02		120.973		3.240e-03		16.266
1		0.00		-6.00		1.038e-02		123.927		3.202e-03		19.574
1		0.00		-5.60		1.017e-02		120.802		3.293e-03		18.788
1		0.00		-5.20		9.930e-03		120.679		3.123e-03		14.884
1		0.00		-4.80		9.877e-03		121.285		3.071e-03		14.102
1		0.00		-4.40		9.292e-03		121.126		2.639e-03		15.981
1		0.00		-4.00		8.887e-03		120.917		2.673e-03		16.500
1		0.00		-3.60		8.813e-03		120.120		2.858e-03		18.403
1		0.00		-3.20		8.682e-03		121.533		2.701e-03		12.195
1		0.00		-2.80		7.885e-03		117.152		2.456e-03		23.184
1		0.00		-2.40		8.046e-03		121.408		2.522e-03		14.794
1		0.00		-2.00		7.725e-03		120.370		2.176e-03		14.720
1		0.00		-1.60		7.893e-03		120.867		2.235e-03		18.011
1		0.00		-1.20		7.664e-03		118.468		2.229e-03		26.657
1		0.00		-0.80		7.504e-03		117.684		2.379e-03		19.990
1		0.00		-0.40		7.261e-03		120.915		2.219e-03		15.859
2		0.00		0.00		7.310e-03		119.597		2.145e-03		24.417
2		0.00		0.40		6.768e-03		117.516		2.053e-03		19.584
2		0.00		0.80		6.336e-03		123.395		1.949e-03		19.782
2		0.00		1.20		5.910e-03		120.652		1.940e-03		20.765
2		0.00		1.60		5.321e-03		114.245		1.819e-03		24.176
2		0.00		2.00		5.257e-03		121.131		1.476e-03		18.844
2		0.00		2.40		4.576e-03		116.941		1.497e-03		24.766
2		0.00		2.80		3.506e-03		95.438		1.354e-03		57.008
2		0.00		3.20		2.624e-03		77.942		1.115e-03		67.890
2		0.00		3.60		2.116e-03		57.797		7.271e-04		73.753
2		0.00		4.00		1.773e-03		10.756		7.352e-04		81.102
2		0.00		4.40		1.930e-03		-16.529		8.653e-04		50.008
2		0.00		4.80		2.819e-03		-49.719		1.083e-03		33.686
2		0.00		5.20		3.579e-03		-35.946		1.247e-03		26.803
2		0.00		5.60		3.951e-03		-46.240		1.318e-03		25.334
2		0.00		6.00		4.839e-03		-48.174		1.514e-03		20.661
2		0.00		6.40		5.585e-03		-49.816		1.815e-03		21.099
2		0.00		6.80		6.066e-03		-56.059		1.824e-03		20.891
2		0.00		7.20		7.402e-03		-48.488		2.118e-03		20.722
2		0.00		7.60		8.271e-03		-44.155		2.314e-03		15.838
2		0.00		8.00		9.241e-03		-49.224		2.589e-03		17.101
2		0.00		8.40		1.037e-02		-50.331		2.718e-03		14.277
2		0.00		8.80		1.154e-02		-49.260		3.140e-03		16.815
2		0.00		9.20		1.331e-02		-48.848		3.698e-03		14.607
2		0.00		9.60		1.532e-02		-52.172		4.070e-03		12.861
2		0.00		10.00		1.705e-02		-52.097		4.654e-03		12.262
2		0.00		9.60		1.932e-02		-49.604		5.006e-03		10.622
2		0.00		9.20		2.026e-02		-52.014		5.062e-03		11.741
2		0.00		8.80		2.012e-02		-50.805		4.805e-03		12.895
2		0.00		8.40		2.068e-02		-49.852		5.002e-03		11.900
2		0.00		8.00		2.069e-02		-52.406		5.308e-03		12.683
2		0.00		7.60		2.115e-02		-52.624		5.017e-03		11.878
2		0.00		7.20		2.091e-02		-52.958		4.620e-03		11.909
2		0.00		6.80		2.099e-02		-50.643		4.573e-03		12.069
2		0.00		6.40		2.088e-02		-51.186		4.757e-03		11.590
2		0.00		6.00		2.094e-02		-49.955		4.674e-03		10.861
2		0.00		5.60		2.065e-02		-51.006		4.846e-03		11.387
2		0.00		5.20		1.998e-02		-51.831		4.407e-03		13.211
2		0.00		4.80		1.981e-02		-49.617		4.452e-03		11.255
2		0.00		4.40		1.969e-02		-49.983		4.227e-03		12.977
2		0.00		4.00		1.950e-02		-50.017		4.350e-03		13.204
2		0.00		3.60		1.883e-02		-48.956		4.426e-03		13.835
2		0.00		3.20		1.868e-02		-47.173		4.787e-03		13.905
2		0.00		2.80		1.825e-02		-50.142		4.528e-03		16.611
2		0.00		2.40		1.844e-02		-50.814		4.753e-03		14.581
2		0.00		2.00		1.815e-02		-50.991		4.731e-03		16.568
2		0.00		1.60		1.844e-02		-45.313		4.818e-03		14.884
2		0.00		1.20		1.797e-02		-49.333		4.514e-03		14.314
2		0.00		0.80		1.830e-02		-48.944		4.949e-03		12.338
2		0.00		0.40		1.780e-02		-46.347		5.023e-03		11.817
2		0.00		0.00		1.748e-02		-50.067		5.017e-03		9.984
2		0.00		-0.40		1.670e-02		-49.196		4.995e-03		12.961
2		0.00		-0.80		1.702e-02		-51.070		4.912e-03		13.242
2		0.00		-1.20		1.690e-02		-51.625		4.513e-03		12.078
2		0.00		-1.60		1.578e-02		-49.691		4.149e-03		13.166
2		0.00		-2.00		1.569e-02		-51.634		3.954e-03		12.377
2		0.00		-2.40		1.471e-02		-51.701		3.654e-03		14.077
2		0.00		-2.80		1.453e-02		-52.149		3.507e-03		13.098
2		0.00		-3.20		1.409e-02		-54.829		3.367e-03		12.844
2		0.00		-3.60		1.349e-02		-53.774		3.355e-03		14.524
2		0.00		-4.00		1.290e-02		-48.136		2.927e-03		13.466
2		0.00		-4.40		1.179e-02		-52.170		2.936e-03		14.871
2		0.00		-4.80		1.073e-02		-49.366		2.784e-03		16.406
2		0.00		-5.20		1.002e-02		-49.638		2.614e-03		18.211
2		0.00		-5.60		8.936e-03		-45.927		2.563e-03		15.145
2		0.00		-6.00		7.111e-03		-52.540		1.784e-03		20.463
2		0.00		-6.40		5.046e-03		-42.677		1.456e-03		20.012
2		0.00		-6.80		3.458e-03		-36.669		1.330e-03		27.827
2		0.00		-7.20		1.970e-03		-0.007		8.454e-04		58.693
2		0.00		-7.60		2.273e-03		60.666		9.472e-04		63.327
2		0.00		-8.00		3.940e-03		98.045		1.542e-03		57.902
2		0.00		-8.40		5.970e-03		117.489		2.204e-03		24.627
2		0.00		-8.80		9.021e-03		122.815		2.701e-03		14.044
2		0.00		-9.20		1.035e-02		119.104		2.990e-03		14.954
2		0.00		-9.60		1.270e-02		122.051		3.148e-03		13.613
2		0.00		-10.00		1.355e-02		120.947		3.432e-03		10.801
2		0.00		-9.60		1.371e-02		123.142		3.370e-03		11.637
2		0.00		-9.20		1.448e-02		123.906		3.241e-03		11.113
2		0.00		-8.80		1.376e-02		122.984		3.547e-03		13.500
2		0.00		-8.40		1.352e-02		123.827		2.892e-03		13.046
2		0.00		-8.00		1.332e-02		126.016		3.256e-03		15.122
2		0.00		-7.60		1.340e-02		121.521		3.325e-03		12.900
2		0.00		-7.20		1.257e-02		124.551		3.647e-03		17.768
2		0.00		-6.80		1.238e-02		119.087		3.127e-03		20.933
2		0.00		-6.40		1.232e-02		122.774		3.424e-03		20.208
2		0.00		-6.00		1.156e-02		121.858		3.338e-03		18.958
2		0.00		-5.60		1.137e-02		123.465		3.301e-03		13.806
2		0.00		-5.20		1.090e-02		122.292		3.055e-03		13.819
2		0.00		-4.80		1.112e-02		126.753		2.953e-03		12.600
2		0.00		-4.40		1.071e-02		120.613		2.971e-03		14.999
2		0.00		-4.00		1.043e-02		121.289		2.742e-03		12.652
2		0.00		-3.60		9.937e-03		120.453		2.795e-03		17.405
2		0.00		-3.20		9.650e-03		123.741		2.683e-03		14.388
2		0.00		-2.80		9.416e-03		122.923		2.620e-03		18.922
2		0.00		-2.40		9.169e-03		124.271		2.340e-03		16.489
2		0.00		-2.00		8.649e-03		119.370		2.739e-03		20.984
2		0.00		-1.60		8.722e-03		121.477		2.415e-03		23.356
2		0.00		-1.20		7.988e-03		116.908		2.666e-03		27.449
2		0.00		-0.80		8.437e-03		121.003		2.537e-03		20.508
2		0.00		-0.40		8.106e-03		123.182		2.447e-03		20.949
3		0.00		0.00		8.384e-03		120.749		2.514e-03		13.556
3		0.00		0.40		8.095e-03		123.830		2.234e-03		17.775
3		0.00		0.80		7.642e-03		120.291		1.978e-03		16.176
3		0.00		1.20		7.184e-03		124.521		1.807e-03		16.666
3		0.00		1.60		6.586e-03		119.444		1.493e-03		16.693
3		0.00		2.00		5.802e-03		122.738		1.617e-03		18.141
3		0.00		2.40		4.727e-03		112.297		1.434e-03		19.043
3		0.00		2.80		4.040e-03		115.651		1.463e-03		43.591
3		0.00		3.20		3.409e-03		107.843		1.262e-03		43.428
3		0.00		3.60		2.573e-03		64.777		1.128e-03		66.852
3		0.00		4.00		2.114e-03		35.714		9.115e-04		81.284
3		0.00		4.40		1.747e-03		-12.501		7.109e-04		66.814
3		0.00		4.80		2.114e-03		-35.197		8.301e-04		50.425
3		0.00		5.20		2.850e-03		-32.704		1.136e-03		42.762
3		0.00		5.60		3.740e-03		-44.678		1.308e-03		29.696
3		0.00		6.00		4.597e-03		-54.300		1.358e-03		20.842
3		0.00		6.40		5.138e-03		-43.218		1.356e-03		21.062
3		0.00		6.80		6.168e-03		-53.812		1.369e-03		16.592
3		0.00		7.20		7.267e-03		-48.575		1.644e-03		17.714
3		0.00		7.60		8.040e-03		-53.116		2.218e-03		17.510
3		0.00		8.00		8.748e-03		-46.384		2.181e-03		13.476
3		0.00		8.40		9.893e-03		-46.299		2.731e-03		16.851
3		0.00		8.80		1.084e-02		-46.077		2.804e-03		13.407
3		0.00		9.20		1.273e-02		-49.640		3.473e-03		13.455
3		0.00		9.60		1.476e-02		-49.694		4.203e-03		11.754
3		0.00		10.00		1.624e-02		-52.792		4.282e-03		11.161
3		0.00		9.60		1.790e-02		-53.919		4.392e-03		10.968
3		0.00		9.20		1.859e-02		-50.488		4.111e-03		8.998
3		0.00		8.80		1.909e-02		-53.627		4.258e-03		8.812
3		0.00		8.40		1.979e-02		-50.617		4.091e-03		9.868
3		0.00		8.00		1.970e-02		-51.560		4.304e-03		11.360
3		0.00		7.60		1.969e-02		-52.386		4.658e-03		12.151
3		0.00		7.20		1.945e-02		-51.072		4.660e-03		12.371
3		0.00		6.80		1.918e-02		-50.477		4.969e-03		14.290
3		0.00		6.40		1.863e-02		-50.044		5.180e-03		13.545
3		0.00		6.00		1.810e-02		-52.572		5.143e-03		18.085
3		0.00		5.60		1.789e-02		-50.575		5.357e-03		13.862
3		0.00		5.20		1.789e-02		-51.211		5.240e-03		13.550
3		0.00		4.80		1.792e-02		-48.048		4.961e-03		11.443
3		0.00		4.40		1.842e-02		-51.122		4.606e-03		9.587
3		0.00		4.00		1.808e-02		-52.582		4.003e-03		11.043
3		0.00		3.60		1.761e-02		-51.850		3.909e-03		12.604
3		0.00		3.20		1.768e-02		-52.025		3.780e-03		10.925
3		0.00		2.80		1.748e-02		-50.963		3.965e-03		15.072
3		0.00		2.40		1.726e-02		-47.907		3.998e-03		11.612
3		0.00		2.00		1.679e-02		-50.625		4.094e-03		13.198
3		0.00		1.60		1.674e-02		-48.303		4.158e-03		13.485
3		0.00		1.20		1.680e-02		-50.279		4.213e-03		15.129
3		0.00		0.80		1.709e-02		-49.165		4.699e-03		11.395
3		0.00		0.40		1.670e-02		-48.416		4.512e-03		10.185
3		0.00		0.00		1.627e-02		-47.222		4.158e-03		10.787
3		0.00		-0.40		1.611e-02		-51.257		3.857e-03		10.445
3		0.00		-0.80		1.588e-02		-49.629		3.638e-03		11.011
3		0.00		-1.20		1.563e-02		-51.844		3.671e-03		12.923
3		0.00		-1.60		1.539e-02		-48.287		3.846e-03		12.240
3		0.00		-2.00		1.514e-02		-50.620		3.810e-03		13.321
3		0.00		-2.40		1.406e-02		-47.539		3.466e-03		13.348
3		0.00		-2.80		1.388e-02		-45.074		3.919e-03		15.524
3		0.00		-3.20		1.361e-02		-47.466		3.923e-03		11.896
3		0.00		-3.60		1.302e-02		-49.721		3.477e-03		11.058
3		0.00		-4.00		1.275e-02		-49.536		2.974e-03		12.554
3		0.00		-4.40		1.200e-02		-48.502		2.787e-03		12.651
3		0.00		-4.80		1.139e-02		-50.944		2.575e-03		12.093
3		0.00		-5.20		1.043e-02		-44.976		2.517e-03		14.963
3		0.00		-5.60		9.088e-03		-46.253		2.432e-03		15.466
3		0.00		-6.00		7.871e-03		-43.499		2.178e-03		18.276
3		0.00		-6.40		7.073e-03		-47.167		2.076e-03		20.938
3		0.00		-6.80		5.158e-03		-36.764		1.643e-03		21.684
3		0.00		-7.20		3.511e-03		-66.797		1.510e-03		39.703
3		0.00		-7.60		2.292e-03		-28.106		9.366e-04		43.930
3		0.00		-8.00		1.892e-03		20.987		7.188e-04		81.225
3		0.00		-8.40		3.379e-03		101.317		1.309e-03		33.852
3		0.00		-8.80		5.508e-03		111.989		1.678e-03		23.040
3		0.00		-9.20		8.119e-03		122.291		2.301e-03		19.521
3		0.00		-9.60		1.018e-02		117.960		3.049e-03		18.146
3		0.00		-10.00		1.153e-02		117.573		3.801e-03		23.121
3		0.00		-9.60		1.237e-02		123.186		4.103e-03		16.129
3		0.00		-9.20		1.306e-02		125.209		4.011e-03		10.021
3		0.00		-8.80		1.294e-02		123.942		3.647e-03		11.822
3		0.00		-8.40		1.273e-02		120.046		3.430e-03		12.911
3		0.00		-8.00		1.279e-02		124.730		3.043e-03		11.540
3		0.00		-7.60		1.295e-02		126.158		3.037e-03		10.394
3		0.00		-7.20		1.215e-02		121.655		2.875e-03		15.788
3		0.00		-6.80		1.203e-02		122.834		3.423e-03		19.338
3		0.00		-6.40		1.127e-02		121.449		3.309e-03		14.726
3		0.00		-6.00		1.136e-02		122.386		3.397e-03		13.946
3		0.00		-5.60		1.109e-02		122.420		2.958e-03		12.779
3		0.00		-5.20		1.065e-02		120.434		2.752e-03		11.214
3		0.00		-4.80		1.051e-02		121.705		2.530e-03		13.974
3		0.00		-4.40		1.007e-02		122.434		2.775e-03		13.169
3		0.00		-4.00		1.012e-02		121.949		2.537e-03		16.162
3		0.00		-3.60		9.934e-03		120.242		2.810e-03		21.069
3		0.00		-3.20		9.279e-03		121.027		2.796e-03		19.985
3		0.00		-2.80		9.003e-03		120.835		2.647e-03		19.894
3		0.00		-2.40		8.947e-03		125.837		2.647e-03		14.986
3		0.00		-2.00		8.754e-03		121.491		2.273e-03		11.831
3		0.00		-1.60		8.751e-03		119.362		2.179e-03		16.919
3		0.00		-1.20		8.196e-03		124.891		2.079e-03		13.492
3		0.00		-0.80		8.521e-03		124.290		2.353e-03		13.353
3		0.00		-0.40		8.381e-03		123.660		2.320e-03		16.678
4		0.00		0.00		8.128e-03		119.992		2.445e-03		21.926
4		0.00		0.40		7.561e-03		120.870		2.353e-03		24.027
4		0.00		0.80		7.484e-03		123.680		1.962e-03		15.346
4		0.00		1.20		7.239e-03		124.265		2.102e-03		18.469
4		0.00		1.60		6.558e-03		127.690		1.803e-03		19.012
4		0.00		2.00		5.803e-03		121.836		1.939e-03		25.125
4		0.00		2.40		4.955e-03		113.579		1.594e-03		22.858
4		0.00		2.80		4.066e-03		112.969		1.309e-03		34.315
4		0.00		3.20		3.497e-03		95.973		1.408e-03		56.884
4		0.00		3.60		2.772e-03		87.916		1.194e-03		48.637
4		0.00		4.00		2.081e-03		42.137		8.863e-04		70.944
4		0.00		4.40		1.814e-03		-9.790		7.018e-04		80.056
4		0.00		4.80		2.051e-03		-31.080		7.758e-04		51.767
4		0.00		5.20		2.466e-03		-57.678		9.181e-04		47.854
4		0.00		5.60		3.307e-03		-41.596		1.295e-03		33.573
4		0.00		6.00		3.735e-03		-55.015		1.263e-03		31.238
4		0.00		6.40		4.788e-03		-57.447		1.583e-03		21.858
4		0.00		6.80		5.384e-03		-38.614		1.707e-03		22.757
4		0.00		7.20		6.024e-03		-48.586		1.998e-03		19.443
4		0.00		7.60		7.479e-03		-50.123		2.241e-03		18.698
4		0.00		8.00		8.428e-03		-43.005		2.339e-03		15.174
4		0.00		8.40		1.007e-02		-49.256		2.418e-03		12.882
4		0.00		8.80		1.166e-02		-52.685		2.340e-03		12.365
4		0.00		9.20		1.269e-02		-49.643		2.815e-03		12.601
4		0.00		9.60		1.479e-02		-52.560		3.452e-03		12.138
4		0.00		10.00		1.542e-02		-49.397		3.590e-03		13.740
4		0.00		9.60		1.696e-02		-49.899		3.893e-03		13.914
4		0.00		9.20		1.721e-02		-48.342		4.544e-03		18.164
4		0.00		8.80		1.763e-02		-49.796		4.647e-03		12.969
4		0.00		8.40		1.799e-02		-51.796		4.829e-03		11.046
4		0.00		8.00		1.831e-02		-53.068		4.496e-03		11.318
4		0.00		7.60		1.814e-02		-49.368		3.964e-03		12.577
4		0.00		7.20		1.828e-02		-51.790		3.680e-03		12.006
4		0.00		6.80		1.815e-02		-52.627		3.671e-03		11.958
4		0.00		6.40		1.798e-02		-51.804		3.783e-03		12.165
4		0.00		6.00		1.755e-02		-49.774		3.996e-03		11.531
4		0.00		5.60		1.724e-02		-50.421		4.200e-03		13.772
4		0.00		5.20		1.654e-02		-50.387		4.581e-03		15.516
4		0.00		4.80		1.657e-02		-47.322		4.675e-03		12.119
4		0.00		4.40		1.675e-02		-51.735		4.742e-03		12.536
4		0.00		4.00		1.669e-02		-51.472		4.729e-03		12.069
4		0.00		3.60		1.687e-02		-49.181		4.119e-03		9.913
4		0.00		3.20		1.654e-02		-49.567		3.588e-03		12.008
4		0.00		2.80		1.664e-02		-52.807		3.455e-03		11.121
4		0.00		2.40		1.649e-02		-49.449		3.311e-03		10.973
4		0.00		2.00		1.606e-02		-49.590		3.332e-03		13.259
4		0.00		1.60		1.619e-02		-48.115		3.490e-03		12.330
4		0.00		1.20		1.569e-02		-46.277		3.789e-03		14.868
4		0.00		0.80		1.546e-02		-48.498		3.690e-03		15.843
4		0.00		0.40		1.523e-02		-47.737		3.812e-03		16.538
4		0.00		0.00		1.555e-02		-47.249		4.080e-03		12.530
4		0.00		-0.40		1.558e-02		-47.285		4.022e-03		13.322
4		0.00		-0.80		1.462e-02		-47.900		3.776e-03		12.213
4		0.00		-1.20		1.520e-02		-48.454		4.007e-03		11.137
4		0.00		-1.60		1.489e-02		-49.904		3.816e-03		12.585
4		0.00		-2.00		1.481e-02		-52.070		3.644e-03		11.666
4		0.00		-2.40		1.438e-02		-50.831		3.239e-03		11.580
4		0.00		-2.80		1.432e-02		-50.762		3.460e-03		14.508
4		0.00		-3.20		1.323e-02		-50.675		3.071e-03		14.576
4		0.00		-3.60		1.265e-02		-50.136		2.996e-03		14.885
4		0.00		-4.00		1.132e-02		-50.348		3.053e-03		14.525
4		0.00		-4.40		1.085e-02		-48.841		2.694e-03		12.998
4		0.00		-4.80		1.003e-02		-49.477		2.326e-03		14.148
4		0.00		-5.20		9.152e-03		-47.538		2.474e-03		18.052
4		0.00		-5.60		8.302e-03		-42.473		2.111e-03		14.948
4		0.00		-6.00		7.091e-03		-50.886		1.904e-03		15.514
4		0.00		-6.40		6.175e-03		-47.424		1.623e-03		16.998
4		0.00		-6.80		4.421e-03		-44.278		1.293e-03		18.786
4		0.00		-7.20		2.499e-03		-59.593		1.132e-03		51.637
4		0.00		-7.60		1.755e-03		1.027		7.310e-04		62.392
4		0.00		-8.00		2.864e-03		95.390		1.132e-03		49.159
4		0.00		-8.40		4.312e-03		111.705		1.440e-03		33.828
4		0.00		-8.80		6.463e-03		118.120		1.778e-03		20.215
4		0.00		-9.20		8.582e-03		114.646		1.922e-03		14.537
4		0.00		-9.60		1.077e-02		124.119		2.389e-03		13.086
4		0.00		-10.00		1.225e-02		122.445		2.836e-03		11.742
4		0.00		-9.60		1.283e-02		126.190		2.923e-03		12.746
4		0.00		-9.20		1.311e-02		122.471		2.933e-03		11.774
4		0.00		-8.80		1.352e-02		122.844		2.861e-03		10.737
4		0.00		-8.40		1.374e-02		122.065		3.079e-03		9.487
4		0.00		-8.00		1.353e-02		123.868		2.817e-03		13.346
4		0.00		-7.60		1.388e-02		123.284		2.784e-03		9.786
4		0.00		-7.20		1.325e-02		121.787		2.741e-03		10.993
4		0.00		-6.80		1.317e-02		122.887		2.848e-03		10.928
4		0.00		-6.40		1.237e-02		121.802		2.825e-03		13.157
4		0.00		-6.00		1.184e-02		126.091		2.858e-03		14.502
4		0.00		-5.60		1.160e-02		127.720		2.605e-03		12.748
4		0.00		-5.20		1.106e-02		122.260		2.810e-03		15.485
4		0.00		-4.80		1.073e-02		123.996		2.611e-03		17.549
4		0.00		-4.40		1.069e-02		119.983		2.564e-03		21.277
4		0.00		-4.00		1.061e-02		122.479		2.625e-03		16.949
4		0.00		-3.60		9.984e-03		125.288		2.436e-03		17.599
4		0.00		-3.20		1.018e-02		122.578		2.789e-03		23.783
4		0.00		-2.80		9.631e-03		123.738		2.696e-03		22.083
4		0.00		-2.40		9.464e-03		124.251		2.708e-03		20.473
4		0.00		-2.00		9.446e-03		119.541		2.805e-03		19.975
4		0.00		-1.60		8.960e-03		124.226		2.784e-03		26.238
4		0.00		-1.20		8.876e-03		117.864		2.651e-03		25.073
4		0.00		-0.80		8.468e-03		118.682		2.766e-03		25.753
4		0.00		-0.40		8.686e-03		118.388		2.629e-03		21.451
5		0.00		0.00		8.218e-03		120.969		2.531e-03		15.061
5		0.00		0.40		7.859e-03		119.326		2.468e-03		16.074
5		0.00		0.80		7.513e-03		126.812		2.136e-03		13.511
5		0.00		1.20		7.094e-03		117.533		2.193e-03		19.583
5		0.00		1.60		6.720e-03		121.936		1.938e-03		17.192
5		0.00		2.00		6.227e-03		121.068		2.006e-03		19.808
5		0.00		2.40		5.409e-03		120.342		1.691e-03		20.059
5		0.00		2.80		4.685e-03		120.405		1.567e-03		22.460
5		0.00		3.20		3.261e-03		91.759		1.134e-03		42.791
5		0.00		3.60		2.460e-03		86.194		1.226e-03		56.508
5		0.00		4.00		2.023e-03		72.652		8.289e-04		57.692
5		0.00		4.40		1.923e-03		-2.565		8.989e-04		63.066
5		0.00		4.80		2.097e-03		-23.411		8.920e-04		60.039
5		0.00		5.20		2.441e-03		-37.288		9.553e-04		42.952
5		0.00		5.60		3.245e-03		-48.099		1.096e-03		36.970
5		0.00		6.00		3.825e-03		-50.762		1.368e-03		24.837
5		0.00		6.40		4.845e-03		-53.397		1.452e-03		22.704
5		0.00		6.80		5.613e-03		-49.383		1.374e-03		20.359
5		0.00		7.20		6.639e-03		-55.192		1.851e-03		21.313
5		0.00		7.60		7.031e-03		-50.125		1.745e-03		18.212
5		0.00		8.00		8.565e-03		-48.812		1.916e-03		14.949
5		0.00		8.40		9.603e-03		-53.403		2.177e-03		16.469
5		0.00		8.80		1.077e-02		-48.878		2.306e-03		14.097
5		0.00		9.20		1.224e-02		-51.065		2.631e-03		11.481
5		0.00		9.60		1.362e-02		-51.454		2.804e-03		12.946
5		0.00		10.00		1.538e-02		-53.344		3.427e-03		11.373
5		0.00		9.60		1.607e-02		-49.175		3.398e-03		10.956
5		0.00		9.20		1.643e-02		-48.477		3.548e-03		11.559
5		0.00		8.80		1.700e-02		-49.308		3.844e-03		11.563
5		0.00		8.40		1.780e-02		-50.981		4.451e-03		11.650
5		0.00		8.00		1.714e-02		-48.040		4.090e-03		11.509
5		0.00		7.60		1.699e-02		-52.513		4.379e-03		15.890
5		0.00		7.20		1.682e-02		-51.872		4.599e-03		12.186
5		0.00		6.80		1.667e-02		-49.817		4.513e-03		14.802
5		0.00		6.40		1.659e-02		-52.081		4.336e-03		13.698
5		0.00		6.00		1.616e-02		-50.087		4.490e-03		16.011
5		0.00		5.60		1.623e-02		-48.538		4.336e-03		15.309
5		0.00		5.20		1.558e-02		-52.116		4.228e-03		13.667
5		0.00		4.80		1.593e-02		-48.898		4.406e-03		15.215
5		0.00		4.40		1.574e-02		-51.109		4.387e-03		15.756
5		0.00		4.00		1.551e-02		-47.837		4.047e-03		12.339
5		0.00		3.60		1.535e-02		-48.247		3.946e-03		16.234
5		0.00		3.20		1.558e-02		-49.434		3.683e-03		13.018
5		0.00		2.80		1.522e-02		-48.238		3.906e-03		13.826
5		0.00		2.40		1.529e-02		-48.005		3.800e-03		15.422
5		0.00		2.00		1.492e-02		-48.271		3.853e-03		14.275
5		0.00		1.60		1.504e-02		-44.815		3.962e-03		11.171
5		0.00		1.20		1.472e-02		-48.957		3.664e-03		13.567
5		0.00		0.80		1.483e-02		-48.302		3.812e-03		10.714
5		0.00		0.40		1.530e-02		-47.823		3.979e-03		11.364
5		0.00		0.00		1.498e-02		-47.651		3.713e-03		12.100
5		0.00		-0.40		1.439e-02		-48.880		3.402e-03		13.374
5		0.00		-0.80		1.479e-02		-49.462		3.509e-03		10.662
5		0.00		-1.20		1.481e-02		-49.744		3.549e-03		10.227
5		0.00		-1.60		1.424e-02		-49.605		3.444e-03		11.147
5		0.00		-2.00		1.450e-02		-49.255		3.340e-03		10.332
5		0.00		-2.40		1.379e-02		-48.482		3.100e-03		12.636
5		0.00		-2.80		1.353e-02		-49.190		2.929e-03		10.932
5		0.00		-3.20		1.294e-02		-49.200		2.755e-03		12.085
5		0.00		-3.60		1.266e-02		-50.876		2.632e-03		10.541
5		0.00		-4.00		1.218e-02		-51.176		2.641e-03		13.357
5		0.00		-4.40		1.158e-02		-49.311		2.274e-03		11.785
5		0.00		-4.80		1.090e-02		-49.485		2.224e-03		10.888
5		0.00		-5.20		9.781e-03		-51.162		1.997e-03		11.949
5		0.00		-5.60		8.528e-03		-51.697		1.969e-03		11.977
5		0.00		-6.00		7.475e-03		-53.680		1.607e-03		14.540
5		0.00		-6.40		6.168e-03		-41.989		1.469e-03		15.513
5		0.00		-6.80		4.613e-03		-52.342		1.416e-03		23.815
5		0.00		-7.20		2.971e-03		-40.991		1.055e-03		32.870
5		0.00		-7.60		2.065e-03		-10.338		8.650e-04		45.628
5		0.00		-8.00		2.211e-03		50.768		1.003e-03		62.172
5		0.00		-8.40		3.042e-03		103.466		1.172e-03		43.830
5		0.00		-8.80		4.910e-03		112.434		1.474e-03		27.257
5		0.00		-9.20		6.863e-03		122.153		1.926e-03		13.322
5		0.00		-9.60		8.829e-03		124.550		2.629e-03		15.083
5		0.00		-10.00		1.067e-02		123.748		3.098e-03		16.201
5		0.00		-9.60		1.127e-02		121.457		3.163e-03		14.325
5		0.00		-9.20		1.186e-02		120.784		3.420e-03		16.582
5		0.00		-8.80		1.174e-02		121.767		3.302e-03		19.268
5		0.00		-8.40		1.178e-02		122.759		3.433e-03		20.258
5		0.00		-8.00		1.190e-02		124.143		3.113e-03		21.373
5		0.00		-7.60		1.158e-02		123.634		3.037e-03		17.153
5		0.00		-7.20		1.120e-02		118.793		3.093e-03		22.144
5		0.00		-6.80		1.109e-02		121.671		3.316e-03		18.531
5		0.00		-6.40		1.067e-02		121.704		2.861e-03		19.911
5		0.00		-6.00		1.106e-02		120.289		3.257e-03		18.539
5		0.00		-5.60		1.064e-02		124.238		3.157e-03		13.789
5		0.00		-5.20		1.032e-02		122.154		2.690e-03		11.010
5		0.00		-4.80		1.035e-02		120.808		2.692e-03		13.777
5		0.00		-4.40		9.919e-03		122.926		2.531e-03		11.807
5		0.00		-4.00		9.829e-03		124.199		2.927e-03		12.797
5		0.00		-3.60		9.592e-03		121.689		2.358e-03		13.930
5		0.00		-3.20		9.138e-03		120.827		2.190e-03		12.861
5		0.00		-2.80		9.208e-03		123.016		2.209e-03		14.153
5		0.00		-2.40		9.286e-03		122.598		2.172e-03		12.753
5		0.00		-2.00		9.226e-03		123.083		2.246e-03		14.926
5		0.00		-1.60		8.518e-03		124.470		2.162e-03		11.937
5		0.00		-1.20		8.499e-03		120.116		2.286e-03		10.794
5		0.00		-0.80		8.925e-03		122.884		2.240e-03		11.637
5		0.00		-0.40		8.718e-03		127.645		1.951e-03		13.234
6		0.00		0.00		8.776e-03		124.671		2.023e-03		14.653
6		0.00		0.40		8.179e-03		123.833		2.189e-03		18.452
6		0.00		0.80		7.930e-03		123.219		2.201e-03		18.834
6		0.00		1.20		7.834e-03		120.842		2.119e-03		19.091
6		0.00		1.60		7.280e-03		118.748		2.094e-03		25.222
6		0.00		2.00		6.823e-03		124.083		1.796e-03		24.997
6		0.00		2.40		6.133e-03		121.331		1.943e-03		26.999
6		0.00		2.80		5.034e-03		117.497		1.446e-03		30.070
6		0.00		3.20		4.360e-03		108.307		1.375e-03		27.465
6		0.00		3.60		2.779e-03		85.471		1.201e-03		50.206
6		0.00		4.00		2.320e-03		61.993		1.015e-03		61.524
6		0.00		4.40		1.877e-03		39.399		8.171e-04		70.886
6		0.00		4.80		1.820e-03		-13.046		8.208e-04		60.343
6		0.00		5.20		2.135e-03		-41.793		8.037e-04		46.579
6		0.00		5.60		3.078e-03		-50.513		1.131e-03		32.006
6		0.00		6.00		3.550e-03		-62.483		1.409e-03		32.446
6		0.00		6.40		4.136e-03		-41.295		1.383e-03		26.064
6		0.00		6.80		4.882e-03		-51.496		1.719e-03		22.923
6		0.00		7.20		5.582e-03		-46.656		1.607e-03		20.539
6		0.00		7.60		6.546e-03		-42.683		1.951e-03		21.388
6		0.00		8.00		8.135e-03		-52.872		2.364e-03		16.326
6		0.00		8.40		9.010e-03		-49.059		2.405e-03		16.306
6		0.00		8.80		1.037e-02		-52.479		2.643e-03		14.950
6		0.00		9.20		1.191e-02		-52.146		2.496e-03		10.971
6		0.00		9.60		1.288e-02		-52.168		2.772e-03		13.580
6		0.00		10.00		1.438e-02		-51.379		2.874e-03		12.273
6		0.00		9.60		1.541e-02		-49.562		3.586e-03		12.561
6		0.00		9.20		1.564e-02		-50.353		3.555e-03		12.127
6		0.00		8.80		1.626e-02		-52.137		3.557e-03		13.180
6		0.00		8.40		1.629e-02		-49.572		4.209e-03		12.328
6		0.00		8.00		1.655e-02		-50.504		4.737e-03		15.996
6		0.00		7.60		1.624e-02		-49.272		4.447e-03		12.797
6		0.00		7.20		1.650e-02		-49.218		4.439e-03		11.702
6		0.00		6.80		1.655e-02		-52.990		3.999e-03		9.849
6		0.00		6.40		1.666e-02		-51.463		3.565e-03		11.190
6		0.00		6.00		1.667e-02		-50.755		3.379e-03		12.033
6		0.00		5.60		1.617e-02		-50.243		3.491e-03		12.290
6		0.00		5.20		1.577e-02		-48.017		3.597e-03		13.022
6		0.00		4.80		1.543e-02		-49.743		3.929e-03		14.321
6		0.00		4.40		1.527e-02		-50.726		3.903e-03		15.639
6		0.00		4.00		1.520e-02		-51.251		3.631e-03		15.741
6		0.00		3.60		1.507e-02		-48.372		3.917e-03		13.775
6		0.00		3.20		1.510e-02		-48.013		3.540e-03		10.935
6		0.00		2.80		1.546e-02		-48.598		3.150e-03		9.388
6		0.00		2.40		1.536e-02		-51.700		3.156e-03		10.352
6		0.00		2.00		1.501e-02		-49.741		3.010e-03		11.461
6		0.00		1.60		1.487e-02		-49.377		3.015e-03		13.021
6		0.00		1.20		1.495e-02		-46.251		3.102e-03		11.348
6		0.00		0.80		1.480e-02		-48.969		3.147e-03		11.729
6		0.00		0.40		1.466e-02		-46.268		3.165e-03		14.782
6		0.00		0.00		1.429e-02		-47.708		3.794e-03		15.398
6		0.00		-0.40		1.448e-02		-49.533		3.962e-03		12.334
6		0.00		-0.80		1.392e-02		-45.769		3.359e-03		11.815
6		0.00		-1.20		1.407e-02		-51.559		2.790e-03		11.918
6		0.00		-1.60		1.424e-02		-50.086		3.048e-03		9.466
6		0.00		-2.00		1.379e-02		-54.087		3.086e-03		11.596
6		0.00		-2.40		1.244e-02		-49.117		3.097e-03		14.518
6		0.00		-2.80		1.220e-02		-51.476		3.199e-03		13.300
6		0.00		-3.20		1.240e-02		-47.795		3.033e-03		14.821
6		0.00		-3.60		1.194e-02		-46.026		3.084e-03		16.215
6		0.00		-4.00		1.181e-02		-50.860		2.925e-03		11.795
6		0.00		-4.40		1.075e-02		-51.683		2.388e-03		12.796
6		0.00		-4.80		1.035e-02		-50.842		2.699e-03		11.488
6		0.00		-5.20		9.369e-03		-48.144		2.064e-03		17.478
6		0.00		-5.60		8.248e-03		-49.470		1.848e-03		13.861
6		0.00		-6.00		6.762e-03		-47.403		1.706e-03		14.867
6		0.00		-6.40		5.681e-03		-42.567		1.557e-03		18.402
6		0.00		-6.80		4.893e-03		-52.284		1.372e-03		21.241
6		0.00		-7.20		3.543e-03		-47.952		1.234e-03		30.422
6		0.00		-7.60		2.153e-03		-35.565		8.584e-04		52.440
6		0.00		-8.00		1.487e-03		-5.874		5.973e-04		65.780
6		0.00		-8.40		2.613e-03		88.220		1.020e-03		52.206
6		0.00		-8.80		5.740e-03		118.976		1.666e-03		23.510
6		0.00		-9.20		8.818e-03		120.708		2.057e-03		13.629
6		0.00		-9.60		1.069e-02		121.869		2.546e-03		12.972
6		0.00		-10.00		1.218e-02		126.316		2.609e-03		10.907
6		0.00		-9.60		1.230e-02		125.550		3.053e-03		13.822
6		0.00		-9.20		1.262e-02		125.588		3.141e-03		13.674
6		0.00		-8.80		1.266e-02		125.857		3.396e-03		15.908
6		0.00		-8.40		1.278e-02		123.082		3.673e-03		17.431
6		0.00		-8.00		1.209e-02		122.183		3.478e-03		21.275
6		0.00		-7.60		1.259e-02		125.263		3.223e-03		12.979
6		0.00		-7.20		1.274e-02		125.959		3.243e-03		9.670
6		0.00		-6.80		1.201e-02		122.509		2.897e-03		10.043
6		0.00		-6.40		1.235e-02		123.230		2.845e-03		12.030
6		0.00		-6.00		1.238e-02		124.050		2.734e-03		11.401
6		0.00		-5.60		1.227e-02		124.089		2.507e-03		11.390
6		0.00		-5.20		1.157e-02		123.961		2.447e-03		11.414
6		0.00		-4.80		1.131e-02		125.123		2.457e-03		13.646
6		0.00		-4.40		1.049e-02		125.493		2.408e-03		18.491
6		0.00		-4.00		1.021e-02		125.313		2.539e-03		21.993
6		0.00		-3.60		9.819e-03		124.088		2.674e-03		19.106
6		0.00		-3.20		9.973e-03		122.164		2.959e-03		17.984
6		0.00		-2.80		9.604e-03		123.165		2.714e-03		12.496
6		0.00		-2.40		9.580e-03		121.389		2.734e-03		15.347
6		0.00		-2.00		9.458e-03		122.432		2.550e-03		11.553
6		0.00		-1.60		9.088e-03		124.040		2.226e-03		14.462
6		0.00		-1.20		9.348e-03		120.639		2.416e-03		15.344
6		0.00		-0.80		9.137e-03		122.618		2.262e-03		14.888
6		0.00		-0.40		8.977e-03		123.755		2.349e-03		14.605
7		0.00		0.00		9.108e-03		122.036		2.355e-03		17.078
7		0.00		0.40		8.466e-03		123.105		2.149e-03		18.741
7		0.00		0.80		8.503e-03		123.457		2.138e-03		18.610
7		0.00		1.20		7.926e-03		122.772		2.288e-03		21.626
7		0.00		1.60		7.301e-03		123.494		2.026e-03		25.148
7		0.00		2.00		7.081e-03		125.116		1.795e-03		16.337
7		0.00		2.40		6.157e-03		120.346		1.857e-03		16.929
7		0.00		2.80		4.973e-03		119.265		1.603e-03		21.255
7		0.00		3.20		4.344e-03		117.710		1.470e-03		26.212
7		0.00		3.60		3.463e-03		107.674		1.227e-03		39.788
7		0.00		4.00		2.182e-03		77.195		8.028e-04		62.090
7		0.00		4.40		1.816e-03		48.020		8.459e-04		76.332
7		0.00		4.80		1.950e-03		-3.268		8.743e-04		64.154
7		0.00		5.20		2.425e-03		-38.069		1.107e-03		58.218
7		0.00		5.60		2.993e-03		-64.219		1.093e-03		32.178
7		0.00		6.00		3.819e-03		-56.687		1.493e-03		28.489
7		0.00		6.40		4.484e-03		-41.111		1.489e-03		27.643
7		0.00		6.80		4.891e-03		-40.544		1.530e-03		20.143
7		0.00		7.20		6.014e-03		-49.317		1.687e-03		23.484
7		0.00		7.60		7.062e-03		-51.401		1.758e-03		14.698
7		0.00		8.00		8.083e-03		-53.152		1.936e-03		16.430
7		0.00		8.40		9.314e-03		-56.693		1.879e-03		12.799
7		0.00		8.80		1.044e-02		-47.997		2.137e-03		12.585
7		0.00		9.20		1.126e-02		-49.723		2.497e-03		14.320
7		0.00		9.60		1.281e-02		-47.166		3.111e-03		10.972
7		0.00		10.00		1.391e-02		-52.494		3.184e-03		12.503
7		0.00		9.60		1.517e-02		-49.326		3.738e-03		12.811
7		0.00		9.20		1.526e-02		-51.092		4.059e-03		11.110
7		0.00		8.80		1.551e-02		-51.867		3.978e-03		14.648
7		0.00		8.40		1.629e-02		-52.548		4.033e-03		11.747
7		0.00		8.00		1.667e-02		-48.604		3.766e-03		7.953
7		0.00		7.60		1.657e-02		-51.552		3.692e-03		9.636
7		0.00		7.20		1.539e-02		-52.011		3.456e-03		11.543
7		0.00		6.80		1.535e-02		-50.719		3.426e-03		12.860
7		0.00		6.40		1.549e-02		-51.084		3.703e-03		12.776
7		0.00		6.00		1.525e-02		-49.062		3.631e-03		11.413
7		0.00		5.60		1.467e-02		-48.336		3.820e-03		12.818
7		0.00		5.20		1.476e-02		-50.230		3.796e-03		13.546
7		0.00		4.80		1.463e-02		-49.857		3.709e-03		14.438
7		0.00		4.40		1.445e-02		-48.761		3.997e-03		14.215
7		0.00		4.00		1.435e-02		-50.476		4.113e-03		14.157
7		0.00		3.60		1.472e-02		-50.319		3.971e-03		11.835
7		0.00		3.20		1.511e-02		-47.853		3.692e-03		10.560
7		0.00		2.80		1.472e-02		-49.659		3.410e-03		10.764
7		0.00		2.40		1.492e-02		-50.596		3.470e-03		10.216
7		0.00		2.00		1.499e-02		-49.418		3.156e-03		11.952
7		0.00		1.60		1.499e-02		-50.773		2.713e-03		11.415
7		0.00		1.20		1.483e-02		-48.185		3.204e-03		9.702
7		0.00		0.80		1.443e-02		-46.722		3.024e-03		12.382
7		0.00		0.40		1.429e-02		-48.432		2.689e-03		11.162
7		0.00		0.00		1.453e-02		-49.425		3.245e-03		12.314
7		0.00		-0.40		1.408e-02		-44.770		3.069e-03		12.741
7		0.00		-0.80		1.358e-02		-43.117		3.381e-03		12.452
7		0.00		-1.20		1.320e-02		-45.775		3.428e-03		14.291
7		0.00		-1.60		1.317e-02		-48.371		3.928e-03		12.273
7		0.00		-2.00		1.300e-02		-46.778		3.555e-03		12.860
7		0.00		-2.40		1.233e-02		-52.449		3.492e-03		12.069
7		0.00		-2.80		1.252e-02		-49.645		3.231e-03		11.642
7		0.00		-3.20		1.214e-02		-49.553		2.896e-03		11.213
7		0.00		-3.60		1.146e-02		-44.975		2.611e-03		12.877
7		0.00		-4.00		1.109e-02		-53.073		2.473e-03		14.319
7		0.00		-4.40		1.024e-02		-46.423		2.104e-03		13.479
7		0.00		-4.80		9.398e-03		-49.723		2.432e-03		16.276
7		0.00		-5.20		8.515e-03		-49.332		2.033e-03		16.721
7		0.00		-5.60		7.086e-03		-42.581		1.895e-03		18.207
7		0.00		-6.00		6.482e-03		-42.157		1.756e-03		18.010
7		0.00		-6.40		4.870e-03		-34.181		1.683e-03		24.895
7		0.00		-6.80		4.115e-03		-48.293		1.460e-03		19.911
7		0.00		-7.20		2.681e-03		-27.733		1.217e-03		35.660
7		0.00		-7.60		2.435e-03		-28.398		1.028e-03		47.470
7		0.00		-8.00		1.990e-03		49.380		7.720e-04		63.920
7		0.00		-8.40		2.861e-03		82.612		1.140e-03		49.410
7		0.00		-8.80		4.309e-03		109.208		1.510e-03		35.248
7		0.00		-9.20		6.037e-03		115.607		1.877e-03		15.003
7		0.00		-9.60		8.094e-03		120.692		2.246e-03		16.121
7		0.00		-10.00		1.071e-02		121.944		2.958e-03		13.692
7		0.00		-9.60		1.181e-02		122.309		3.229e-03		15.845
7		0.00		-9.20		1.171e-02		119.473		3.397e-03		21.593
7		0.00		-8.80		1.167e-02		119.800		3.467e-03		21.391
7		0.00		-8.40		1.197e-02		121.507		3.613e-03		19.280
7		0.00		-8.00		1.164e-02		123.916		3.717e-03		16.450
7		0.00		-7.60		1.199e-02		121.627		3.295e-03		11.591
7		0.00		-7.20		1.201e-02		121.553		3.042e-03		12.571
7		0.00		-6.80		1.199e-02		126.222		2.724e-03		11.453
7		0.00		-6.40		1.171e-02		122.148		2.793e-03		13.580
7		0.00		-6.00		1.155e-02		125.177		2.680e-03		11.722
7		0.00		-5.60		1.174e-02		124.178		2.702e-03		11.931
7		0.00		-5.20		1.097e-02		123.762		2.694e-03		14.019
7		0.00		-4.80		1.068e-02		124.182		2.563e-03		14.632
7		0.00		-4.40		1.023e-02		126.634		2.814e-03		21.591
7		0.00		-4.00		1.032e-02		124.535		2.861e-03		19.096
7		0.00		-3.60		9.814e-03		123.166		2.762e-03		20.982
7		0.00		-3.20		9.776e-03		120.963		2.729e-03		15.741
7		0.00		-2.80		9.525e-03		117.958		2.772e-03		14.211
7		0.00		-2.40		9.351e-03		121.868		2.338e-03		13.723
7		0.00		-2.00		9.120e-03		124.784		2.280e-03		11.524
7		0.00		-1.60		9.229e-03		121.552		2.251e-03		12.689
7		0.00		-1.20		9.039e-03		122.455		2.037e-03		11.375
7		0.00		-0.80		8.932e-03		121.915		2.229e-03		15.300
7		0.00		-0.40		8.578e-03		125.613		2.003e-03		16.284
8		0.00		0.00		8.687e-03		121.496		2.153e-03		15.020
8		0.00		0.40		8.205e-03		116.351		2.429e-03		22.184
8		0.00		0.80		7.524e-03		124.612		2.211e-03		21.829
8		0.00		1.20		7.532e-03		122.674		2.296e-03		20.002
8		0.00		1.60		7.227e-03		126.041		1.954e-03		19.178
8		0.00		2.00		6.500e-03		117.440		1.935e-03		17.529
8		0.00		2.40		5.584e-03		126.951		1.482e-03		14.459
8		0.00		2.80		4.843e-03		119.465		1.473e-03		30.011
8		0.00		3.20		3.779e-03		115.856		1.427e-03		23.646
8		0.00		3.60		3.345e-03		109.096		1.193e-03		33.410
8		0.00		4.00		2.266e-03		82.298		1.006e-03		55.832
8		0.00		4.40		1.728e-03		33.184		6.516e-04		82.142
8		0.00		4.80		1.749e-03		6.958		7.036e-04		68.841
8		0.00		5.20		2.058e-03		-32.636		7.159e-04		53.992
8		0.00		5.60		2.691e-03		-37.925		1.087e-03		35.532
8		0.00		6.00		3.188e-03		-41.423		1.286e-03		38.180
8		0.00		6.40		3.986e-03		-41.928		1.221e-03		22.938
8		0.00		6.80		4.524e-03		-49.019		1.509e-03		21.768
8		0.00		7.20		5.672e-03		-49.728		1.779e-03		17.318
8		0.00		7.60		6.210e-03		-48.848		1.818e-03		19.023
8		0.00		8.00		7.198e-03		-42.718		2.218e-03		16.515
8		0.00		8.40		8.733e-03		-52.618		2.463e-03		17.910
8		0.00		8.80		1.004e-02		-49.629		2.304e-03		15.080
8		0.00		9.20		1.079e-02		-50.481		2.356e-03		13.453
8		0.00		9.60		1.259e-02		-49.634		2.495e-03		12.580
8		0.00		10.00		1.359e-02		-53.497		2.775e-03		11.871
8		0.00		9.60		1.464e-02		-51.670		3.057e-03		10.955
8		0.00		9.20		1.498e-02		-51.900		3.115e-03		11.984
8		0.00		8.80		1.511e-02		-49.589		3.401e-03		12.506
8		0.00		8.40		1.519e-02		-49.560		3.307e-03		13.086
8		0.00		8.00		1.518e-02		-48.169		3.287e-03		14.219
8		0.00		7.60		1.546e-02		-47.563		3.762e-03		12.904
8		0.00		7.20		1.506e-02		-53.922		3.933e-03		16.875
8		0.00		6.80		1.465e-02		-51.750		3.974e-03		17.366
8		0.00		6.40		1.512e-02		-50.140		4.002e-03		15.516
8		0.00		6.00		1.481e-02		-48.020		3.995e-03		11.559
8		0.00		5.60		1.478e-02		-48.935		3.954e-03		11.778
8		0.00		5.20		1.484e-02		-51.339		3.959e-03		12.085
8		0.00		4.80		1.443e-02		-51.051		3.751e-03		9.555
8		0.00		4.40		1.422e-02		-50.679		3.152e-03		10.489
8		0.00		4.00		1.445e-02		-50.066		3.280e-03		10.128
8		0.00		3.60		1.421e-02		-50.511		3.037e-03		11.071
8		0.00		3.20		1.425e-02		-50.742		2.877e-03		12.567
8		0.00		2.80		1.438e-02		-50.985		3.075e-03		11.249
8		0.00		2.40		1.416e-02		-48.535		2.870e-03		11.711
8		0.00		2.00		1.346e-02		-52.200		2.945e-03		13.615
8		0.00		1.60		1.377e-02		-50.796		3.143e-03		12.033
8		0.00		1.20		1.365e-02		-48.531		3.411e-03		15.239
8		0.00		0.80		1.317e-02		-45.660		3.036e-03		13.093
8		0.00		0.40		1.300e-02		-49.242		3.337e-03		16.115
8		0.00		0.00		1.331e-02		-50.366		3.527e-03		16.379
8		0.00		-0.40		1.267e-02		-45.758		3.316e-03		17.752
8		0.00		-0.80		1.294e-02		-47.981		3.558e-03		15.150
8		0.00		-1.20		1.248e-02		-51.533		3.527e-03		13.965
8		0.00		-1.60		1.213e-02		-50.486		3.421e-03		12.729
8		0.00		-2.00		1.211e-02		-50.195		3.084e-03		11.760
8		0.00		-2.40		1.180e-02		-49.872		2.955e-03		12.661
8		0.00		-2.80		1.128e-02		-47.486		2.606e-03		10.364
8		0.00		-3.20		1.105e-02		-48.749		2.703e-03		13.724
8		0.00		-3.60		1.062e-02		-49.780		2.423e-03		12.370
8		0.00		-4.00		1.005e-02		-47.702		2.280e-03		12.235
8		0.00		-4.40		9.727e-03		-50.947		2.043e-03		15.325
8		0.00		-4.80		8.929e-03		-48.043		2.019e-03		13.532
8		0.00		-5.20		7.879e-03		-41.232		2.006e-03		16.416
8		0.00		-5.60		7.320e-03		-50.332		1.983e-03		18.192
8		0.00		-6.00		5.472e-03		-58.318		1.817e-03		20.898
8		0.00		-6.40		4.842e-03		-43.455		1.495e-03		19.895
8		0.00		-6.80		4.113e-03		-46.086		1.330e-03		20.863
8		0.00		-7.20		3.355e-03		-45.930		1.056e-03		42.408
8		0.00		-7.60		2.473e-03		-21.143		1.089e-03		44.882
8		0.00		-8.00		1.929e-03		-14.334		7.271e-04		69.751
8		0.00		-8.40		1.849e-03		52.582		9.051e-04		57.800
8		0.00		-8.80		3.145e-03		93.278		1.266e-03		44.813
8		0.00		-9.20		4.951e-03		111.713		1.495e-03		29.896
8		0.00		-9.60		7.158e-03		118.545		2.042e-03		16.254
8		0.00		-10.00		9.796e-03		125.724		2.292e-03		12.262
8		0.00		-9.60		1.119e-02		120.661		2.397e-03		11.196
8		0.00		-9.20		1.176e-02		124.371		2.772e-03		10.225
8		0.00		-8.80		1.239e-02		123.932		2.793e-03		11.483
8		0.00		-8.40		1.241e-02		124.396		2.710e-03		11.129
8		0.00		-8.00		1.180e-02		123.597		2.610e-03		11.381
8		0.00		-7.60		1.208e-02		126.311		2.654e-03		12.083
8		0.00		-7.20		1.132e-02		124.709		2.836e-03		14.008
8		0.00		-6.80		1.139e-02		124.602		2.850e-03		15.619
8		0.00		-6.40		1.082e-02		125.036		2.943e-03		17.060
8		0.00		-6.00		1.067e-02		122.518		2.968e-03		17.768
8		0.00		-5.60		1.073e-02		121.896		2.761e-03		21.357
8		0.00		-5.20		1.008e-02		122.349		2.586e-03		21.957
8		0.00		-4.80		9.983e-03		123.656		2.831e-03		18.722
8		0.00		-4.40		9.768e-03		124.731		2.648e-03		13.623
8		0.00		-4.00		9.708e-03		120.740		2.664e-03		12.966
8		0.00		-3.60		9.771e-03		123.527		2.549e-03		13.329
8		0.00		-3.20		9.452e-03		122.438		2.661e-03		12.738
8		0.00		-2.80		9.118e-03		122.324		2.373e-03		13.219
8		0.00		-2.40		9.153e-03		121.167		2.565e-03		12.766
8		0.00		-2.00		9.121e-03		119.378		2.288e-03		16.753
8		0.00		-1.60		8.570e-03		121.574		2.247e-03		15.530
8		0.00		-1.20		8.732e-03		122.582		2.315e-03		15.427
8		0.00		-0.80		8.547e-03		117.706		2.363e-03		16.329
8		0.00		-0.40		8.652e-03		117.521		2.071e-03		14.125
