# Date of analysis: 2023-11-20 16;19
# 
# Loop index	Read Volt (V)	Write Volt (V)	Amplitude (a.u)	Phase (deg)	Sigma Amp (a.u)	Sigma Pha (deg)	
1		0.00		0.00		3.997e-02		-51.683		9.802e-03		7.694
1		0.00		0.40		3.985e-02		-51.593		8.948e-03		6.353
1		0.00		0.80		3.919e-02		-50.153		8.209e-03		6.909
1		0.00		1.20		3.785e-02		-51.703		7.774e-03		7.881
1		0.00		1.60		3.701e-02		-51.214		8.880e-03		9.599
1		0.00		2.00		3.595e-02		-52.628		9.262e-03		10.401
1		0.00		2.40		3.543e-02		-51.545		9.744e-03		9.905
1		0.00		2.80		3.474e-02		-52.601		1.033e-02		12.195
1		0.00		3.20		3.475e-02		-53.599		1.073e-02		16.660
1		0.00		3.60		3.495e-02		-50.765		1.129e-02		16.127
1		0.00		4.00		3.528e-02		-52.815		1.147e-02		12.075
1		0.00		4.40		3.529e-02		-53.065		1.074e-02		8.079
1		0.00		4.80		3.598e-02		-52.496		1.008e-02		8.072
1		0.00		5.20		3.650e-02		-53.283		9.173e-03		9.261
1		0.00		5.60		3.740e-02		-52.950		8.958e-03		9.601
1		0.00		6.00		3.761e-02		-52.273		8.641e-03		9.737
1		0.00		6.40		3.774e-02		-50.328		8.800e-03		9.338
1		0.00		6.80		3.915e-02		-51.022		9.822e-03		9.080
1		0.00		7.20		4.074e-02		-51.222		1.078e-02		11.030
1		0.00		7.60		4.253e-02		-53.863		1.197e-02		15.977
1		0.00		8.00		4.460e-02		-51.992		1.263e-02		17.431
1		0.00		8.40		4.831e-02		-51.971		1.405e-02		15.125
1		0.00		8.80		4.956e-02		-52.226		1.400e-02		7.752
1		0.00		9.20		5.220e-02		-51.281		1.372e-02		6.511
1		0.00		9.60		5.374e-02		-50.498		1.301e-02		5.865
1		0.00		10.00		5.430e-02		-52.442		1.326e-02		9.067
1		0.00		9.60		5.247e-02		-53.027		1.337e-02		10.796
1		0.00		9.20		5.118e-02		-52.386		1.407e-02		11.499
1		0.00		8.80		5.075e-02		-53.604		1.473e-02		12.497
1		0.00		8.40		4.985e-02		-53.423		1.511e-02		15.217
1		0.00		8.00		4.842e-02		-54.094		1.496e-02		20.387
1		0.00		7.60		4.710e-02		-53.178		1.529e-02		21.140
1		0.00		7.20		4.632e-02		-51.018		1.465e-02		9.170
1		0.00		6.80		4.648e-02		-52.048		1.309e-02		7.392
1		0.00		6.40		4.568e-02		-51.461		1.085e-02		7.226
1		0.00		6.00		4.566e-02		-51.441		9.813e-03		7.893
1		0.00		5.60		4.422e-02		-50.069		9.100e-03		8.534
1		0.00		5.20		4.297e-02		-51.399		9.252e-03		8.670
1		0.00		4.80		4.140e-02		-51.680		1.029e-02		10.079
1		0.00		4.40		4.126e-02		-51.408		1.083e-02		11.816
1		0.00		4.00		4.070e-02		-53.538		1.142e-02		17.763
1		0.00		3.60		4.045e-02		-51.246		1.157e-02		15.574
1		0.00		3.20		4.044e-02		-51.585		1.176e-02		10.242
1		0.00		2.80		4.052e-02		-51.818		1.025e-02		7.282
1		0.00		2.40		3.984e-02		-50.298		9.366e-03		7.102
1		0.00		2.00		3.992e-02		-49.872		8.659e-03		7.281
1		0.00		1.60		3.814e-02		-50.671		8.738e-03		7.864
1		0.00		1.20		3.722e-02		-51.684		9.386e-03		9.443
1		0.00		0.80		3.671e-02		-51.234		1.007e-02		10.813
1		0.00		0.40		3.554e-02		-52.367		1.076e-02		10.096
1		0.00		0.00		3.540e-02		-53.634		1.130e-02		17.960
1		0.00		-0.40		3.405e-02		-53.352		1.087e-02		15.385
1		0.00		-0.80		3.300e-02		-51.167		1.004e-02		8.674
1		0.00		-1.20		3.157e-02		-50.253		8.783e-03		8.109
1		0.00		-1.60		3.079e-02		-50.393		7.258e-03		8.264
1		0.00		-2.00		2.802e-02		-51.417		5.627e-03		8.694
1		0.00		-2.40		2.531e-02		-51.556		5.644e-03		8.328
1		0.00		-2.80		2.251e-02		-49.052		5.052e-03		10.188
1		0.00		-3.20		1.942e-02		-50.379		5.239e-03		10.741
1		0.00		-3.60		1.490e-02		-49.088		4.138e-03		13.108
1		0.00		-4.00		1.209e-02		-47.442		3.689e-03		15.474
1		0.00		-4.40		7.771e-03		-43.279		2.861e-03		13.851
1		0.00		-4.80		4.902e-03		-40.897		2.455e-03		27.236
1		0.00		-5.20		3.013e-03		-10.835		1.772e-03		54.290
1		0.00		-5.60		3.009e-03		38.852		1.434e-03		69.581
1		0.00		-6.00		4.684e-03		107.731		2.350e-03		37.309
1		0.00		-6.40		6.578e-03		114.319		2.839e-03		23.329
1		0.00		-6.80		9.057e-03		122.258		3.252e-03		19.208
1		0.00		-7.20		1.112e-02		121.194		3.910e-03		21.429
1		0.00		-7.60		1.338e-02		120.743		4.566e-03		23.985
1		0.00		-8.00		1.484e-02		123.453		5.038e-03		13.789
1		0.00		-8.40		1.637e-02		124.466		5.018e-03		9.451
1		0.00		-8.80		1.819e-02		127.476		4.640e-03		8.503
1		0.00		-9.20		1.853e-02		125.374		4.795e-03		8.260
1		0.00		-9.60		1.961e-02		125.861		5.063e-03		7.554
1		0.00		-10.00		2.031e-02		126.077		5.550e-03		8.163
1		0.00		-9.60		1.998e-02		125.756		5.605e-03		11.780
1		0.00		-9.20		1.980e-02		125.287		5.673e-03		18.132
1		0.00		-8.80		2.046e-02		124.360		6.094e-03		18.197
1		0.00		-8.40		1.968e-02		123.718		5.851e-03		10.996
1		0.00		-8.00		1.965e-02		127.236		5.260e-03		8.825
1		0.00		-7.60		1.940e-02		128.168		4.738e-03		9.025
1		0.00		-7.20		1.826e-02		126.545		4.296e-03		7.926
1		0.00		-6.80		1.654e-02		128.614		3.644e-03		8.416
1		0.00		-6.40		1.607e-02		128.281		3.753e-03		9.811
1		0.00		-6.00		1.476e-02		121.718		4.412e-03		16.965
1		0.00		-5.60		1.425e-02		120.327		4.445e-03		22.788
1		0.00		-5.20		1.352e-02		125.635		4.474e-03		12.197
1		0.00		-4.80		1.253e-02		125.379		3.807e-03		9.868
1		0.00		-4.40		1.221e-02		128.492		3.291e-03		11.057
1		0.00		-4.00		1.160e-02		128.762		3.170e-03		10.367
1		0.00		-3.60		1.077e-02		127.352		2.858e-03		8.869
1		0.00		-3.20		9.871e-03		125.020		2.890e-03		9.573
1		0.00		-2.80		9.412e-03		122.994		2.853e-03		17.551
1		0.00		-2.40		8.660e-03		117.989		2.774e-03		25.970
1		0.00		-2.00		8.161e-03		118.570		2.743e-03		26.247
1		0.00		-1.60		7.663e-03		121.123		2.676e-03		19.585
1		0.00		-1.20		6.990e-03		125.684		2.137e-03		19.026
1		0.00		-0.80		6.766e-03		121.301		2.062e-03		19.732
1		0.00		-0.40		6.111e-03		124.477		2.057e-03		15.804
2		0.00		0.00		5.417e-03		122.112		1.749e-03		21.520
2		0.00		0.40		4.937e-03		118.509		1.547e-03		22.768
2		0.00		0.80		4.482e-03		118.322		1.566e-03		34.203
2		0.00		1.20		4.046e-03		109.489		1.439e-03		38.537
2		0.00		1.60		3.201e-03		88.245		1.143e-03		69.898
2		0.00		2.00		2.474e-03		66.498		1.062e-03		80.939
2		0.00		2.40		2.113e-03		30.579		9.667e-04		89.715
2		0.00		2.80		1.688e-03		-13.170		7.288e-04		75.037
2		0.00		3.20		2.253e-03		-39.515		1.015e-03		55.234
2		0.00		3.60		2.808e-03		-59.991		1.106e-03		38.685
2		0.00		4.00		3.475e-03		-61.367		1.345e-03		31.558
2		0.00		4.40		5.111e-03		-52.892		1.831e-03		19.747
2		0.00		4.80		6.699e-03		-53.270		2.058e-03		15.579
2		0.00		5.20		8.805e-03		-50.873		2.518e-03		13.116
2		0.00		5.60		1.096e-02		-43.885		3.374e-03		17.989
2		0.00		6.00		1.321e-02		-50.196		3.793e-03		11.754
2		0.00		6.40		1.630e-02		-51.988		4.541e-03		9.838
2		0.00		6.80		1.892e-02		-50.534		4.547e-03		7.211
2		0.00		7.20		2.209e-02		-50.062		4.879e-03		8.953
2		0.00		7.60		2.455e-02		-52.436		4.863e-03		8.292
2		0.00		8.00		2.814e-02		-51.466		5.638e-03		8.991
2		0.00		8.40		3.173e-02		-49.744		7.521e-03		9.554
2		0.00		8.80		3.680e-02		-49.525		9.110e-03		9.432
2		0.00		9.20		4.093e-02		-51.311		1.097e-02		14.905
2		0.00		9.60		4.525e-02		-50.007		1.260e-02		12.498
2		0.00		10.00		4.804e-02		-50.559		1.343e-02		7.627
2		0.00		9.60		4.887e-02		-50.360		1.287e-02		6.801
2		0.00		9.20		5.000e-02		-49.958		1.216e-02		5.398
2		0.00		8.80		4.836e-02		-50.866		1.130e-02		7.450
2		0.00		8.40		4.714e-02		-50.515		1.165e-02		7.783
2		0.00		8.00		4.571e-02		-50.782		1.232e-02		9.015
2		0.00		7.60		4.448e-02		-50.040		1.281e-02		9.173
2		0.00		7.20		4.313e-02		-50.903		1.332e-02		14.617
2		0.00		6.80		4.171e-02		-51.893		1.326e-02		18.513
2		0.00		6.40		4.141e-02		-50.589		1.300e-02		9.498
2		0.00		6.00		4.141e-02		-50.322		1.146e-02		7.433
2		0.00		5.60		4.123e-02		-50.195		1.004e-02		5.614
2		0.00		5.20		4.065e-02		-50.623		8.918e-03		7.282
2		0.00		4.80		4.058e-02		-49.799		8.507e-03		7.399
2		0.00		4.40		3.973e-02		-48.527		8.944e-03		8.210
2		0.00		4.00		3.870e-02		-50.858		9.821e-03		9.806
2		0.00		3.60		3.810e-02		-50.054		1.015e-02		11.151
2		0.00		3.20		3.754e-02		-50.908		1.043e-02		14.760
2		0.00		2.80		3.762e-02		-50.948		1.047e-02		9.681
2		0.00		2.40		3.838e-02		-50.638		9.491e-03		7.906
2		0.00		2.00		3.825e-02		-50.907		8.601e-03		7.030
2		0.00		1.60		3.834e-02		-49.567		7.742e-03		6.976
2		0.00		1.20		3.721e-02		-50.260		7.838e-03		7.763
2		0.00		0.80		3.642e-02		-49.606		8.157e-03		6.720
2		0.00		0.40		3.561e-02		-50.212		8.930e-03		9.153
2		0.00		0.00		3.524e-02		-50.084		9.428e-03		8.733
2		0.00		-0.40		3.416e-02		-52.562		1.036e-02		14.512
2		0.00		-0.80		3.336e-02		-53.029		1.013e-02		13.512
2		0.00		-1.20		3.209e-02		-50.071		9.268e-03		6.896
2		0.00		-1.60		2.984e-02		-49.504		7.343e-03		6.095
2		0.00		-2.00		2.670e-02		-50.089		5.764e-03		7.663
2		0.00		-2.40		2.357e-02		-49.022		5.348e-03		8.194
2		0.00		-2.80		1.999e-02		-47.796		5.008e-03		8.604
2		0.00		-3.20		1.727e-02		-47.488		4.449e-03		10.477
2		0.00		-3.60		1.428e-02		-47.044		3.993e-03		12.517
2		0.00		-4.00		1.050e-02		-43.169		3.278e-03		10.366
2		0.00		-4.40		7.790e-03		-43.409		2.823e-03		18.587
2		0.00		-4.80		4.313e-03		-40.383		2.212e-03		29.948
2		0.00		-5.20		2.983e-03		-5.218		1.484e-03		63.689
2		0.00		-5.60		2.906e-03		58.963		1.558e-03		63.940
2		0.00		-6.00		4.537e-03		100.190		1.922e-03		43.472
2		0.00		-6.40		5.711e-03		110.448		2.378e-03		24.579
2		0.00		-6.80		8.582e-03		120.606		3.145e-03		24.404
2		0.00		-7.20		1.086e-02		117.921		3.816e-03		23.489
2		0.00		-7.60		1.273e-02		125.629		4.242e-03		12.809
2		0.00		-8.00		1.481e-02		121.802		4.441e-03		11.844
2		0.00		-8.40		1.563e-02		122.690		4.701e-03		11.294
2		0.00		-8.80		1.611e-02		126.019		4.434e-03		8.824
2		0.00		-9.20		1.768e-02		125.226		4.873e-03		7.586
2		0.00		-9.60		1.691e-02		124.018		5.223e-03		11.082
2		0.00		-10.00		1.753e-02		122.958		5.877e-03		16.593
2		0.00		-9.60		1.769e-02		120.849		5.935e-03		19.596
2		0.00		-9.20		1.783e-02		124.653		6.056e-03		14.426
2		0.00		-8.80		1.882e-02		124.758		5.718e-03		10.494
2		0.00		-8.40		1.865e-02		126.692		4.880e-03		10.514
2		0.00		-8.00		1.764e-02		127.520		4.317e-03		8.511
2		0.00		-7.60		1.735e-02		125.250		4.212e-03		8.362
2		0.00		-7.20		1.671e-02		128.235		4.270e-03		9.238
2		0.00		-6.80		1.584e-02		126.831		4.661e-03		14.027
2		0.00		-6.40		1.477e-02		122.363		4.641e-03		21.777
2		0.00		-6.00		1.397e-02		122.924		4.084e-03		16.372
2		0.00		-5.60		1.304e-02		125.812		3.685e-03		8.775
2		0.00		-5.20		1.247e-02		124.098		3.665e-03		10.696
2		0.00		-4.80		1.197e-02		127.010		3.204e-03		9.298
2		0.00		-4.40		1.116e-02		128.732		2.778e-03		9.788
2		0.00		-4.00		1.016e-02		129.420		3.019e-03		11.877
2		0.00		-3.60		9.662e-03		125.673		2.808e-03		12.897
2		0.00		-3.20		8.819e-03		121.720		2.775e-03		19.867
2		0.00		-2.80		7.958e-03		120.540		2.581e-03		22.067
2		0.00		-2.40		7.657e-03		116.707		2.527e-03		21.199
2		0.00		-2.00		6.955e-03		120.540		2.411e-03		14.140
2		0.00		-1.60		6.627e-03		121.743		2.376e-03		22.332
2		0.00		-1.20		5.666e-03		122.125		1.757e-03		20.711
2		0.00		-0.80		5.412e-03		114.548		1.999e-03		34.196
2		0.00		-0.40		5.082e-03		116.662		1.766e-03		17.699
3		0.00		0.00		3.998e-03		119.149		1.734e-03		28.889
3		0.00		0.40		3.800e-03		106.492		1.576e-03		38.285
3		0.00		0.80		3.055e-03		94.310		1.224e-03		58.380
3		0.00		1.20		2.861e-03		79.479		1.120e-03		48.786
3		0.00		1.60		2.516e-03		66.054		1.141e-03		70.538
3		0.00		2.00		2.042e-03		37.747		9.080e-04		73.352
3		0.00		2.40		1.857e-03		-1.738		8.130e-04		65.654
3		0.00		2.80		2.179e-03		-31.287		8.974e-04		54.947
3		0.00		3.20		2.743e-03		-42.506		1.439e-03		40.997
3		0.00		3.60		3.471e-03		-49.580		1.212e-03		28.715
3		0.00		4.00		4.511e-03		-49.087		1.493e-03		24.236
3		0.00		4.40		5.919e-03		-43.803		1.956e-03		19.828
3		0.00		4.80		7.178e-03		-47.244		2.443e-03		17.406
3		0.00		5.20		8.603e-03		-45.662		3.060e-03		23.711
3		0.00		5.60		1.058e-02		-44.516		3.997e-03		14.786
3		0.00		6.00		1.249e-02		-48.724		4.039e-03		11.068
3		0.00		6.40		1.441e-02		-48.653		3.844e-03		9.752
3		0.00		6.80		1.649e-02		-48.176		4.395e-03		11.016
3		0.00		7.20		1.877e-02		-49.064		4.831e-03		9.145
3		0.00		7.60		2.122e-02		-50.054		5.724e-03		10.659
3		0.00		8.00		2.362e-02		-49.243		6.479e-03		10.517
3		0.00		8.40		2.613e-02		-49.990		7.809e-03		13.008
3		0.00		8.80		3.000e-02		-51.726		9.005e-03		16.886
3		0.00		9.20		3.322e-02		-52.708		1.011e-02		15.409
3		0.00		9.60		3.721e-02		-50.348		1.138e-02		8.635
3		0.00		10.00		4.129e-02		-49.703		1.109e-02		8.108
3		0.00		9.60		4.269e-02		-49.603		1.070e-02		8.017
3		0.00		9.20		4.189e-02		-49.965		1.018e-02		8.195
3		0.00		8.80		4.150e-02		-49.643		1.078e-02		8.846
3		0.00		8.40		4.029e-02		-49.186		1.162e-02		8.734
3		0.00		8.00		3.950e-02		-50.703		1.282e-02		12.677
3		0.00		7.60		3.967e-02		-54.277		1.348e-02		21.034
3		0.00		7.20		3.833e-02		-54.075		1.328e-02		17.646
3		0.00		6.80		3.855e-02		-50.566		1.205e-02		8.125
3		0.00		6.40		3.951e-02		-48.861		1.040e-02		6.421
3		0.00		6.00		3.792e-02		-50.075		9.637e-03		8.321
3		0.00		5.60		3.732e-02		-49.519		9.500e-03		8.270
3		0.00		5.20		3.610e-02		-48.892		1.035e-02		8.070
3		0.00		4.80		3.507e-02		-50.141		1.135e-02		9.143
3		0.00		4.40		3.426e-02		-53.696		1.146e-02		18.987
3		0.00		4.00		3.452e-02		-50.723		1.116e-02		11.659
3		0.00		3.60		3.512e-02		-50.803		1.014e-02		7.604
3		0.00		3.20		3.552e-02		-48.857		8.493e-03		7.645
3		0.00		2.80		3.533e-02		-49.588		8.048e-03		7.999
3		0.00		2.40		3.444e-02		-48.413		8.233e-03		7.299
3		0.00		2.00		3.453e-02		-48.463		9.165e-03		8.218
3		0.00		1.60		3.350e-02		-50.341		9.985e-03		11.429
3		0.00		1.20		3.385e-02		-50.387		1.052e-02		14.030
3		0.00		0.80		3.415e-02		-51.053		1.019e-02		9.770
3		0.00		0.40		3.443e-02		-49.548		9.039e-03		7.712
3		0.00		0.00		3.431e-02		-48.978		8.465e-03		8.413
3		0.00		-0.40		3.247e-02		-49.095		8.490e-03		10.015
3		0.00		-0.80		3.112e-02		-50.053		8.737e-03		8.195
3		0.00		-1.20		2.956e-02		-49.670		9.232e-03		9.177
3		0.00		-1.60		2.682e-02		-51.413		9.187e-03		17.865
3		0.00		-2.00		2.536e-02		-52.358		8.656e-03		17.447
3		0.00		-2.40		2.318e-02		-49.908		7.230e-03		9.229
3		0.00		-2.80		2.010e-02		-46.674		5.418e-03		9.037
3		0.00		-3.20		1.707e-02		-47.861		4.338e-03		9.574
3		0.00		-3.60		1.350e-02		-47.745		3.579e-03		10.449
3		0.00		-4.00		1.081e-02		-49.837		3.101e-03		12.470
3		0.00		-4.40		7.909e-03		-49.777		2.520e-03		17.037
3		0.00		-4.80		4.980e-03		-44.893		2.034e-03		23.133
3		0.00		-5.20		2.570e-03		7.485		1.425e-03		61.427
3		0.00		-5.60		3.717e-03		76.489		1.771e-03		65.829
3		0.00		-6.00		5.414e-03		106.983		2.343e-03		44.810
3		0.00		-6.40		7.200e-03		112.816		2.762e-03		30.224
3		0.00		-6.80		9.325e-03		124.205		3.211e-03		13.650
3		0.00		-7.20		1.111e-02		124.428		3.495e-03		8.904
3		0.00		-7.60		1.247e-02		121.048		4.062e-03		16.328
3		0.00		-8.00		1.416e-02		123.048		4.398e-03		18.958
3		0.00		-8.40		1.600e-02		123.002		5.321e-03		19.774
3		0.00		-8.80		1.703e-02		125.611		5.744e-03		11.329
3		0.00		-9.20		1.780e-02		127.534		5.484e-03		9.940
3		0.00		-9.60		1.900e-02		128.354		5.366e-03		9.255
3		0.00		-10.00		1.923e-02		125.996		4.912e-03		8.188
3		0.00		-9.60		1.994e-02		126.881		4.913e-03		7.625
3		0.00		-9.20		1.929e-02		127.959		5.347e-03		8.292
3		0.00		-8.80		1.832e-02		125.353		5.366e-03		10.915
3		0.00		-8.40		1.792e-02		126.051		5.463e-03		18.665
3		0.00		-8.00		1.727e-02		122.286		5.368e-03		21.175
3		0.00		-7.60		1.698e-02		125.497		5.303e-03		16.933
3		0.00		-7.20		1.680e-02		125.572		4.671e-03		9.418
3		0.00		-6.80		1.677e-02		125.972		4.327e-03		10.674
3		0.00		-6.40		1.597e-02		126.256		3.811e-03		8.512
3		0.00		-6.00		1.481e-02		126.589		3.509e-03		9.398
3		0.00		-5.60		1.404e-02		125.846		3.528e-03		9.404
3		0.00		-5.20		1.314e-02		127.276		3.396e-03		11.516
3		0.00		-4.80		1.256e-02		124.661		3.375e-03		14.698
3		0.00		-4.40		1.170e-02		121.565		3.486e-03		22.521
3		0.00		-4.00		1.111e-02		122.690		3.447e-03		18.548
3		0.00		-3.60		1.045e-02		124.533		3.168e-03		16.347
3		0.00		-3.20		9.935e-03		126.750		2.664e-03		11.518
3		0.00		-2.80		9.002e-03		125.288		2.428e-03		12.357
3		0.00		-2.40		8.590e-03		123.098		2.416e-03		13.503
3		0.00		-2.00		7.631e-03		129.712		2.324e-03		13.940
3		0.00		-1.60		6.949e-03		124.623		2.086e-03		14.063
3		0.00		-1.20		6.610e-03		125.129		2.151e-03		19.973
3		0.00		-0.80		6.188e-03		116.313		2.061e-03		30.600
3		0.00		-0.40		5.578e-03		118.912		2.021e-03		24.307
4		0.00		0.00		5.292e-03		116.002		1.789e-03		23.291
4		0.00		0.40		4.687e-03		116.012		1.794e-03		27.496
4		0.00		0.80		4.189e-03		118.599		1.525e-03		28.698
4		0.00		1.20		3.730e-03		99.502		1.503e-03		51.507
4		0.00		1.60		2.995e-03		92.196		1.112e-03		61.350
4		0.00		2.00		2.261e-03		61.867		8.859e-04		71.070
4		0.00		2.40		1.828e-03		39.861		7.591e-04		68.116
4		0.00		2.80		1.888e-03		-0.789		7.493e-04		74.070
4		0.00		3.20		2.108e-03		-7.593		9.002e-04		61.095
4		0.00		3.60		2.629e-03		-51.669		1.138e-03		44.563
4		0.00		4.00		3.805e-03		-54.162		1.390e-03		27.428
4		0.00		4.40		5.429e-03		-48.805		1.644e-03		16.799
4		0.00		4.80		6.629e-03		-46.204		1.449e-03		16.967
4		0.00		5.20		8.745e-03		-50.247		2.061e-03		15.001
4		0.00		5.60		1.002e-02		-48.702		2.481e-03		11.509
4		0.00		6.00		1.238e-02		-51.832		2.988e-03		11.277
4		0.00		6.40		1.450e-02		-48.849		3.756e-03		12.440
4		0.00		6.80		1.617e-02		-50.659		4.348e-03		13.513
4		0.00		7.20		1.769e-02		-49.429		5.032e-03		15.459
4		0.00		7.60		2.071e-02		-49.526		5.871e-03		9.169
4		0.00		8.00		2.363e-02		-49.004		6.248e-03		7.889
4		0.00		8.40		2.666e-02		-50.653		6.117e-03		6.946
4		0.00		8.80		3.028e-02		-50.300		6.170e-03		7.086
4		0.00		9.20		3.319e-02		-49.647		6.830e-03		8.075
4		0.00		9.60		3.660e-02		-50.555		7.486e-03		7.096
4		0.00		10.00		3.860e-02		-50.102		8.668e-03		6.999
4		0.00		9.60		3.946e-02		-50.178		1.018e-02		9.967
4		0.00		9.20		3.998e-02		-51.632		1.081e-02		17.015
4		0.00		8.80		4.041e-02		-50.432		1.101e-02		11.220
4		0.00		8.40		4.027e-02		-50.641		1.023e-02		7.500
4		0.00		8.00		4.029e-02		-50.491		8.872e-03		6.632
4		0.00		7.60		4.045e-02		-50.350		7.910e-03		6.508
4		0.00		7.20		3.958e-02		-49.778		7.421e-03		7.732
4		0.00		6.80		3.828e-02		-49.543		7.934e-03		7.373
4		0.00		6.40		3.708e-02		-49.529		8.604e-03		7.520
4		0.00		6.00		3.656e-02		-49.354		9.679e-03		6.759
4		0.00		5.60		3.560e-02		-51.357		9.876e-03		10.699
4		0.00		5.20		3.527e-02		-51.701		1.027e-02		12.775
4		0.00		4.80		3.482e-02		-51.153		1.029e-02		9.803
4		0.00		4.40		3.450e-02		-48.891		9.512e-03		5.656
4		0.00		4.00		3.449e-02		-50.347		8.263e-03		5.715
4		0.00		3.60		3.464e-02		-49.968		7.846e-03		6.197
4		0.00		3.20		3.458e-02		-50.476		7.304e-03		6.022
4		0.00		2.80		3.471e-02		-49.609		6.931e-03		6.905
4		0.00		2.40		3.465e-02		-49.494		7.139e-03		5.895
4		0.00		2.00		3.378e-02		-48.141		7.004e-03		7.494
4		0.00		1.60		3.328e-02		-48.864		7.646e-03		7.880
4		0.00		1.20		3.346e-02		-49.267		8.105e-03		8.145
4		0.00		0.80		3.317e-02		-49.521		8.304e-03		11.973
4		0.00		0.40		3.322e-02		-50.702		8.721e-03		12.468
4		0.00		0.00		3.315e-02		-49.087		8.418e-03		7.279
4		0.00		-0.40		3.326e-02		-50.853		7.936e-03		5.984
4		0.00		-0.80		3.283e-02		-49.298		7.259e-03		5.866
4		0.00		-1.20		3.206e-02		-49.987		6.790e-03		6.675
4		0.00		-1.60		3.131e-02		-49.246		6.445e-03		6.432
4		0.00		-2.00		2.949e-02		-48.674		5.904e-03		7.166
4		0.00		-2.40		2.690e-02		-49.507		5.744e-03		9.551
4		0.00		-2.80		2.303e-02		-48.968		5.094e-03		8.039
4		0.00		-3.20		1.820e-02		-47.589		4.283e-03		9.446
4		0.00		-3.60		1.500e-02		-47.798		4.029e-03		12.354
4		0.00		-4.00		1.068e-02		-46.247		3.162e-03		15.452
4		0.00		-4.40		8.170e-03		-50.738		2.726e-03		17.033
4		0.00		-4.80		5.163e-03		-40.957		2.128e-03		18.594
4		0.00		-5.20		2.586e-03		-9.799		1.151e-03		64.715
4		0.00		-5.60		3.140e-03		74.187		1.503e-03		56.700
4		0.00		-6.00		5.205e-03		104.612		2.272e-03		33.798
4		0.00		-6.40		6.767e-03		118.872		2.376e-03		22.489
4		0.00		-6.80		9.023e-03		123.652		2.965e-03		18.439
4		0.00		-7.20		1.067e-02		124.162		3.222e-03		13.419
4		0.00		-7.60		1.329e-02		124.170		3.497e-03		8.492
4		0.00		-8.00		1.404e-02		124.780		3.686e-03		8.559
4		0.00		-8.40		1.567e-02		127.510		3.959e-03		8.337
4		0.00		-8.80		1.659e-02		129.165		4.274e-03		9.776
4		0.00		-9.20		1.759e-02		125.726		4.938e-03		11.457
4		0.00		-9.60		1.841e-02		126.219		5.508e-03		17.078
4		0.00		-10.00		1.927e-02		122.632		5.965e-03		22.074
4		0.00		-9.60		1.925e-02		122.870		5.802e-03		16.836
4		0.00		-9.20		1.917e-02		125.095		5.847e-03		12.817
4		0.00		-8.80		1.901e-02		126.004		5.540e-03		9.647
4		0.00		-8.40		1.894e-02		126.284		5.267e-03		7.737
4		0.00		-8.00		1.791e-02		126.886		4.530e-03		7.200
4		0.00		-7.60		1.724e-02		127.275		4.220e-03		8.310
4		0.00		-7.20		1.658e-02		126.846		4.128e-03		10.071
4		0.00		-6.80		1.601e-02		127.761		3.818e-03		8.298
4		0.00		-6.40		1.528e-02		126.562		3.669e-03		8.881
4		0.00		-6.00		1.437e-02		125.218		3.283e-03		9.165
4		0.00		-5.60		1.358e-02		126.250		3.344e-03		8.380
4		0.00		-5.20		1.309e-02		127.951		3.381e-03		11.946
4		0.00		-4.80		1.245e-02		124.082		3.496e-03		18.283
4		0.00		-4.40		1.149e-02		121.382		3.181e-03		21.820
4		0.00		-4.00		1.105e-02		120.049		3.318e-03		19.454
4		0.00		-3.60		1.065e-02		126.583		2.957e-03		15.993
4		0.00		-3.20		9.783e-03		121.451		2.830e-03		12.812
4		0.00		-2.80		9.209e-03		123.402		2.600e-03		10.710
4		0.00		-2.40		8.915e-03		128.944		2.348e-03		11.717
4		0.00		-2.00		7.560e-03		125.901		2.155e-03		14.914
4		0.00		-1.60		6.935e-03		126.408		1.830e-03		14.346
4		0.00		-1.20		6.538e-03		129.488		1.716e-03		14.437
4		0.00		-0.80		6.046e-03		119.986		1.751e-03		13.665
4		0.00		-0.40		5.633e-03		120.149		1.607e-03		21.023
5		0.00		0.00		4.839e-03		119.393		1.683e-03		33.190
5		0.00		0.40		4.293e-03		109.721		1.444e-03		36.399
5		0.00		0.80		3.620e-03		111.798		1.318e-03		34.851
5		0.00		1.20		3.337e-03		96.353		1.356e-03		53.002
5		0.00		1.60		3.060e-03		99.904		1.197e-03		53.298
5		0.00		2.00		2.413e-03		74.145		1.052e-03		60.870
5		0.00		2.40		1.942e-03		52.315		8.098e-04		77.771
5		0.00		2.80		1.778e-03		11.043		7.169e-04		67.409
5		0.00		3.20		2.291e-03		-37.989		1.020e-03		43.410
5		0.00		3.60		3.020e-03		-42.281		1.141e-03		33.595
5		0.00		4.00		3.633e-03		-45.735		1.215e-03		24.659
5		0.00		4.40		4.992e-03		-40.631		1.433e-03		21.061
5		0.00		4.80		6.102e-03		-45.569		1.548e-03		16.746
5		0.00		5.20		7.626e-03		-44.313		1.649e-03		14.013
5		0.00		5.60		9.222e-03		-45.478		2.375e-03		10.297
5		0.00		6.00		1.073e-02		-48.762		2.701e-03		10.550
5		0.00		6.40		1.225e-02		-50.013		3.178e-03		11.096
5		0.00		6.80		1.450e-02		-51.479		4.082e-03		11.960
5		0.00		7.20		1.663e-02		-50.695		4.742e-03		14.464
5		0.00		7.60		1.942e-02		-51.890		5.779e-03		16.593
5		0.00		8.00		2.206e-02		-52.956		6.851e-03		15.878
5		0.00		8.40		2.491e-02		-52.677		7.460e-03		13.218
5		0.00		8.80		2.769e-02		-51.000		8.558e-03		14.521
5		0.00		9.20		3.136e-02		-50.448		9.302e-03		9.084
5		0.00		9.60		3.401e-02		-51.049		9.201e-03		7.644
5		0.00		10.00		3.719e-02		-50.673		9.154e-03		6.483
5		0.00		9.60		3.845e-02		-50.498		8.876e-03		6.493
5		0.00		9.20		3.886e-02		-49.668		8.403e-03		6.338
5		0.00		8.80		3.864e-02		-49.190		8.038e-03		6.837
5		0.00		8.40		3.817e-02		-49.260		7.690e-03		6.940
5		0.00		8.00		3.801e-02		-49.246		7.404e-03		7.396
5		0.00		7.60		3.780e-02		-49.578		7.585e-03		6.904
5		0.00		7.20		3.715e-02		-48.919		7.416e-03		7.250
5		0.00		6.80		3.666e-02		-48.939		7.768e-03		7.181
5		0.00		6.40		3.562e-02		-48.367		8.159e-03		8.288
5		0.00		6.00		3.477e-02		-49.224		9.106e-03		9.489
5		0.00		5.60		3.433e-02		-49.624		9.233e-03		9.058
5		0.00		5.20		3.371e-02		-49.552		9.154e-03		12.054
5		0.00		4.80		3.379e-02		-52.617		9.414e-03		16.803
5		0.00		4.40		3.296e-02		-49.866		9.430e-03		10.899
5		0.00		4.00		3.305e-02		-50.906		9.604e-03		8.218
5		0.00		3.60		3.324e-02		-49.693		9.251e-03		6.558
5		0.00		3.20		3.284e-02		-50.193		8.595e-03		7.208
5		0.00		2.80		3.346e-02		-50.897		7.906e-03		6.399
5		0.00		2.40		3.376e-02		-49.449		6.985e-03		4.871
5		0.00		2.00		3.356e-02		-50.318		6.628e-03		6.189
5		0.00		1.60		3.392e-02		-50.272		6.356e-03		6.737
5		0.00		1.20		3.330e-02		-48.876		6.606e-03		7.232
5		0.00		0.80		3.249e-02		-49.784		6.791e-03		7.505
5		0.00		0.40		3.232e-02		-48.074		6.962e-03		7.642
5		0.00		0.00		3.214e-02		-47.643		7.653e-03		7.894
5		0.00		-0.40		3.179e-02		-48.565		7.824e-03		11.672
5		0.00		-0.80		3.122e-02		-51.088		8.197e-03		12.935
5		0.00		-1.20		3.009e-02		-51.298		8.399e-03		15.672
5		0.00		-1.60		2.933e-02		-50.124		8.590e-03		10.867
5		0.00		-2.00		2.790e-02		-50.488		7.909e-03		8.398
5		0.00		-2.40		2.609e-02		-50.795		7.084e-03		7.475
5		0.00		-2.80		2.258e-02		-45.590		5.678e-03		7.790
5		0.00		-3.20		1.920e-02		-49.255		4.433e-03		8.283
5		0.00		-3.60		1.581e-02		-49.793		3.635e-03		8.092
5		0.00		-4.00		1.369e-02		-46.669		3.208e-03		8.485
5		0.00		-4.40		9.656e-03		-47.440		2.667e-03		10.230
5		0.00		-4.80		5.662e-03		-48.402		1.888e-03		19.542
5		0.00		-5.20		3.867e-03		-37.525		1.917e-03		31.268
5		0.00		-5.60		2.550e-03		8.533		1.058e-03		70.867
5		0.00		-6.00		3.775e-03		76.731		1.740e-03		57.526
5		0.00		-6.40		4.980e-03		108.002		2.047e-03		36.459
5		0.00		-6.80		6.782e-03		112.898		2.635e-03		29.946
5		0.00		-7.20		9.759e-03		122.417		3.274e-03		13.435
5		0.00		-7.60		1.161e-02		126.009		3.505e-03		10.591
5		0.00		-8.00		1.367e-02		127.563		3.730e-03		9.525
5		0.00		-8.40		1.488e-02		126.305		3.930e-03		7.493
5		0.00		-8.80		1.638e-02		126.651		3.739e-03		9.617
5		0.00		-9.20		1.694e-02		126.131		3.957e-03		8.015
5		0.00		-9.60		1.787e-02		125.911		4.384e-03		8.015
5		0.00		-10.00		1.819e-02		125.646		4.249e-03		7.513
5		0.00		-9.60		1.821e-02		127.701		4.860e-03		8.717
5		0.00		-9.20		1.814e-02		126.764		5.063e-03		11.413
5		0.00		-8.80		1.824e-02		125.010		5.337e-03		14.474
5		0.00		-8.40		1.801e-02		124.692		5.273e-03		20.798
5		0.00		-8.00		1.665e-02		123.067		4.936e-03		19.352
5		0.00		-7.60		1.689e-02		125.766		5.035e-03		16.327
5		0.00		-7.20		1.636e-02		124.502		4.893e-03		10.324
5		0.00		-6.80		1.555e-02		126.658		4.431e-03		8.500
5		0.00		-6.40		1.478e-02		128.674		3.771e-03		8.063
5		0.00		-6.00		1.400e-02		126.359		3.206e-03		8.234
5		0.00		-5.60		1.369e-02		126.835		3.192e-03		8.725
5		0.00		-5.20		1.306e-02		128.298		2.866e-03		8.652
5		0.00		-4.80		1.192e-02		127.539		2.826e-03		9.618
5		0.00		-4.40		1.086e-02		125.417		2.539e-03		8.350
5		0.00		-4.00		1.056e-02		126.846		2.848e-03		10.838
5		0.00		-3.60		9.606e-03		125.862		2.662e-03		12.167
5		0.00		-3.20		8.879e-03		120.686		2.797e-03		21.677
5		0.00		-2.80		8.151e-03		121.955		2.403e-03		19.945
5		0.00		-2.40		7.454e-03		117.552		2.525e-03		24.672
5		0.00		-2.00		7.142e-03		128.745		2.292e-03		18.198
5		0.00		-1.60		6.339e-03		120.228		2.223e-03		24.226
5		0.00		-1.20		6.465e-03		117.051		2.187e-03		25.667
5		0.00		-0.80		5.399e-03		122.951		1.952e-03		24.932
5		0.00		-0.40		5.032e-03		119.335		1.828e-03		30.611
6		0.00		0.00		4.632e-03		115.404		1.810e-03		28.690
6		0.00		0.40		4.139e-03		114.763		1.579e-03		30.256
6		0.00		0.80		3.577e-03		105.777		1.472e-03		35.037
6		0.00		1.20		3.063e-03		114.115		1.284e-03		35.443
6		0.00		1.60		2.490e-03		78.894		1.003e-03		68.257
6		0.00		2.00		2.010e-03		56.350		7.553e-04		63.523
6		0.00		2.40		1.799e-03		31.857		7.423e-04		77.449
6		0.00		2.80		1.812e-03		-7.931		8.189e-04		74.461
6		0.00		3.20		1.999e-03		-23.059		8.526e-04		63.159
6		0.00		3.60		2.681e-03		-41.366		1.235e-03		44.040
6		0.00		4.00		3.368e-03		-49.683		1.303e-03		29.253
6		0.00		4.40		4.697e-03		-46.690		1.380e-03		20.147
6		0.00		4.80		5.909e-03		-44.913		1.455e-03		15.796
6		0.00		5.20		6.989e-03		-46.962		1.646e-03		15.052
6		0.00		5.60		8.345e-03		-48.976		1.953e-03		13.184
6		0.00		6.00		1.018e-02		-49.048		2.575e-03		13.478
6		0.00		6.40		1.228e-02		-44.343		3.462e-03		12.340
6		0.00		6.80		1.417e-02		-50.815		4.271e-03		14.691
6		0.00		7.20		1.619e-02		-48.863		4.752e-03		10.246
6		0.00		7.60		1.944e-02		-48.430		4.996e-03		7.374
6		0.00		8.00		2.293e-02		-49.711		5.217e-03		8.070
6		0.00		8.40		2.480e-02		-48.026		5.326e-03		7.935
6		0.00		8.80		2.728e-02		-50.772		6.246e-03		7.310
6		0.00		9.20		2.960e-02		-50.273		7.712e-03		7.193
6		0.00		9.60		3.297e-02		-48.698		9.077e-03		8.703
6		0.00		10.00		3.530e-02		-51.373		9.901e-03		14.780
6		0.00		9.60		3.617e-02		-51.214		9.890e-03		13.278
6		0.00		9.20		3.736e-02		-49.754		9.815e-03		8.141
6		0.00		8.80		3.710e-02		-49.853		8.792e-03		6.218
6		0.00		8.40		3.843e-02		-48.924		7.672e-03		5.912
6		0.00		8.00		3.772e-02		-50.720		7.175e-03		7.005
6		0.00		7.60		3.717e-02		-49.316		7.193e-03		6.935
6		0.00		7.20		3.621e-02		-48.091		7.799e-03		6.967
6		0.00		6.80		3.550e-02		-48.544		8.790e-03		8.146
6		0.00		6.40		3.499e-02		-50.248		9.294e-03		12.146
6		0.00		6.00		3.405e-02		-51.586		9.908e-03		15.795
6		0.00		5.60		3.399e-02		-50.024		9.946e-03		8.680
6		0.00		5.20		3.367e-02		-50.338		8.306e-03		7.224
6		0.00		4.80		3.385e-02		-49.039		7.539e-03		6.370
6		0.00		4.40		3.353e-02		-48.574		6.911e-03		6.824
6		0.00		4.00		3.279e-02		-49.593		6.976e-03		6.722
6		0.00		3.60		3.269e-02		-47.801		7.776e-03		5.902
6		0.00		3.20		3.150e-02		-48.793		8.455e-03		8.320
6		0.00		2.80		3.146e-02		-50.936		8.975e-03		12.011
6		0.00		2.40		3.105e-02		-52.389		9.113e-03		13.878
6		0.00		2.00		3.186e-02		-49.663		8.699e-03		8.418
6		0.00		1.60		3.235e-02		-50.271		7.546e-03		7.127
6		0.00		1.20		3.255e-02		-48.137		6.338e-03		6.066
6		0.00		0.80		3.261e-02		-49.224		6.174e-03		7.211
6		0.00		0.40		3.225e-02		-49.177		5.989e-03		6.910
6		0.00		0.00		3.105e-02		-47.598		6.286e-03		6.899
6		0.00		-0.40		3.120e-02		-48.033		6.982e-03		7.794
6		0.00		-0.80		3.051e-02		-48.143		7.145e-03		8.904
6		0.00		-1.20		3.046e-02		-49.983		7.780e-03		10.077
6		0.00		-1.60		2.990e-02		-50.383		7.851e-03		12.088
6		0.00		-2.00		2.821e-02		-48.754		7.566e-03		8.468
6		0.00		-2.40		2.622e-02		-49.131		6.860e-03		7.376
6		0.00		-2.80		2.275e-02		-50.340		5.640e-03		7.665
6		0.00		-3.20		1.855e-02		-47.105		3.991e-03		8.357
6		0.00		-3.60		1.546e-02		-47.278		3.240e-03		8.432
6		0.00		-4.00		1.200e-02		-45.854		2.709e-03		12.216
6		0.00		-4.40		9.885e-03		-47.087		2.728e-03		10.603
6		0.00		-4.80		6.882e-03		-45.687		2.304e-03		15.693
6		0.00		-5.20		4.403e-03		-48.853		1.918e-03		26.239
6		0.00		-5.60		2.662e-03		-8.653		1.017e-03		57.392
6		0.00		-6.00		2.821e-03		55.455		1.259e-03		66.511
6		0.00		-6.40		4.800e-03		102.329		2.168e-03		44.121
6		0.00		-6.80		7.500e-03		109.854		2.792e-03		25.593
6		0.00		-7.20		9.707e-03		125.207		3.064e-03		12.125
6		0.00		-7.60		1.245e-02		127.976		3.404e-03		9.255
6		0.00		-8.00		1.360e-02		125.626		3.719e-03		8.083
6		0.00		-8.40		1.552e-02		126.726		3.718e-03		8.094
6		0.00		-8.80		1.654e-02		126.440		3.596e-03		9.350
6		0.00		-9.20		1.692e-02		128.914		3.803e-03		8.050
6		0.00		-9.60		1.790e-02		126.568		3.918e-03		7.243
6		0.00		-10.00		1.925e-02		126.790		4.451e-03		6.578
6		0.00		-9.60		1.892e-02		127.602		4.587e-03		7.414
6		0.00		-9.20		1.796e-02		126.674		5.057e-03		10.296
6		0.00		-8.80		1.787e-02		123.948		5.334e-03		14.592
6		0.00		-8.40		1.751e-02		122.692		5.365e-03		21.798
6		0.00		-8.00		1.733e-02		123.264		5.253e-03		20.095
6		0.00		-7.60		1.683e-02		127.314		5.356e-03		13.340
6		0.00		-7.20		1.627e-02		127.065		5.057e-03		10.092
6		0.00		-6.80		1.598e-02		126.752		4.472e-03		9.869
6		0.00		-6.40		1.511e-02		124.445		4.098e-03		8.904
6		0.00		-6.00		1.479e-02		127.156		3.624e-03		8.493
6		0.00		-5.60		1.404e-02		125.101		3.363e-03		7.659
6		0.00		-5.20		1.282e-02		130.259		3.169e-03		7.812
6		0.00		-4.80		1.260e-02		125.517		3.000e-03		7.947
6		0.00		-4.40		1.153e-02		124.608		3.068e-03		9.515
6		0.00		-4.00		1.094e-02		127.663		2.872e-03		12.135
6		0.00		-3.60		1.016e-02		128.244		2.884e-03		13.960
6		0.00		-3.20		9.151e-03		124.015		2.697e-03		16.970
6		0.00		-2.80		8.715e-03		121.595		2.600e-03		25.059
6		0.00		-2.40		8.203e-03		120.870		2.582e-03		26.866
6		0.00		-2.00		7.273e-03		122.945		2.111e-03		16.140
6		0.00		-1.60		7.253e-03		120.406		2.171e-03		19.677
6		0.00		-1.20		6.865e-03		122.288		2.033e-03		16.789
6		0.00		-0.80		5.635e-03		124.860		1.788e-03		18.353
6		0.00		-0.40		5.272e-03		124.515		1.974e-03		21.378
7		0.00		0.00		4.962e-03		121.135		1.718e-03		19.573
7		0.00		0.40		4.646e-03		126.449		1.585e-03		20.478
7		0.00		0.80		3.818e-03		111.677		1.433e-03		26.877
7		0.00		1.20		3.187e-03		104.792		1.372e-03		39.599
7		0.00		1.60		3.053e-03		91.590		1.310e-03		53.264
7		0.00		2.00		2.136e-03		72.925		8.708e-04		57.589
7		0.00		2.40		2.037e-03		46.800		8.302e-04		57.323
7		0.00		2.80		1.883e-03		8.033		7.614e-04		66.999
7		0.00		3.20		1.989e-03		-33.361		8.388e-04		59.036
7		0.00		3.60		2.536e-03		-50.887		1.036e-03		41.334
7		0.00		4.00		3.881e-03		-46.140		1.593e-03		28.232
7		0.00		4.40		5.465e-03		-45.105		1.714e-03		19.500
7		0.00		4.80		7.138e-03		-36.775		1.475e-03		15.467
7		0.00		5.20		8.589e-03		-44.700		1.953e-03		12.162
7		0.00		5.60		1.036e-02		-47.983		2.249e-03		11.659
7		0.00		6.00		1.236e-02		-47.623		2.468e-03		10.177
7		0.00		6.40		1.335e-02		-50.522		3.375e-03		11.163
7		0.00		6.80		1.487e-02		-49.398		3.888e-03		13.622
7		0.00		7.20		1.697e-02		-51.050		4.719e-03		14.617
7		0.00		7.60		1.827e-02		-50.743		5.206e-03		13.324
7		0.00		8.00		2.033e-02		-52.781		5.823e-03		13.069
7		0.00		8.40		2.323e-02		-50.027		6.584e-03		7.749
7		0.00		8.80		2.628e-02		-49.654		6.843e-03		7.769
7		0.00		9.20		2.873e-02		-50.112		6.978e-03		6.840
7		0.00		9.60		3.231e-02		-49.623		7.364e-03		6.899
7		0.00		10.00		3.502e-02		-49.793		7.533e-03		7.151
7		0.00		9.60		3.636e-02		-49.036		7.194e-03		6.434
7		0.00		9.20		3.689e-02		-50.751		7.288e-03		7.463
7		0.00		8.80		3.636e-02		-48.968		7.177e-03		6.737
7		0.00		8.40		3.585e-02		-49.072		7.195e-03		6.370
7		0.00		8.00		3.529e-02		-47.749		7.863e-03		8.554
7		0.00		7.60		3.513e-02		-49.897		8.265e-03		8.389
7		0.00		7.20		3.473e-02		-50.923		8.614e-03		12.041
7		0.00		6.80		3.389e-02		-51.138		8.900e-03		14.853
7		0.00		6.40		3.408e-02		-49.835		8.657e-03		13.739
7		0.00		6.00		3.341e-02		-50.043		8.655e-03		9.530
7		0.00		5.60		3.267e-02		-49.083		8.794e-03		8.704
7		0.00		5.20		3.193e-02		-49.208		8.304e-03		7.681
7		0.00		4.80		3.214e-02		-49.446		8.060e-03		6.921
7		0.00		4.40		3.216e-02		-49.262		7.138e-03		6.183
7		0.00		4.00		3.249e-02		-48.476		6.464e-03		5.949
7		0.00		3.60		3.225e-02		-49.423		6.276e-03		5.886
7		0.00		3.20		3.196e-02		-50.316		6.286e-03		6.166
7		0.00		2.80		3.114e-02		-49.426		5.873e-03		6.101
7		0.00		2.40		3.084e-02		-48.497		6.408e-03		7.063
7		0.00		2.00		3.046e-02		-48.928		7.064e-03		6.676
7		0.00		1.60		3.035e-02		-49.053		7.211e-03		9.406
7		0.00		1.20		3.017e-02		-48.972		7.158e-03		9.852
7		0.00		0.80		3.053e-02		-48.125		7.601e-03		10.309
7		0.00		0.40		2.987e-02		-49.626		7.502e-03		14.377
7		0.00		0.00		2.994e-02		-50.201		7.604e-03		10.116
7		0.00		-0.40		3.004e-02		-50.828		7.474e-03		6.679
7		0.00		-0.80		2.960e-02		-48.816		6.448e-03		5.849
7		0.00		-1.20		2.971e-02		-48.933		5.850e-03		6.473
7		0.00		-1.60		2.821e-02		-47.694		5.169e-03		5.336
7		0.00		-2.00		2.695e-02		-49.031		4.817e-03		6.056
7		0.00		-2.40		2.478e-02		-49.243		4.740e-03		6.980
7		0.00		-2.80		2.178e-02		-49.290		4.572e-03		8.507
7		0.00		-3.20		1.907e-02		-47.013		4.511e-03		10.078
7		0.00		-3.60		1.654e-02		-49.054		4.020e-03		10.826
7		0.00		-4.00		1.278e-02		-45.006		3.842e-03		9.052
7		0.00		-4.40		9.980e-03		-43.536		3.213e-03		15.416
7		0.00		-4.80		7.634e-03		-44.090		2.680e-03		13.550
7		0.00		-5.20		4.483e-03		-33.463		2.414e-03		24.159
7		0.00		-5.60		3.117e-03		-19.671		1.626e-03		48.131
7		0.00		-6.00		2.828e-03		61.053		1.369e-03		64.443
7		0.00		-6.40		4.670e-03		100.708		2.245e-03		42.217
7		0.00		-6.80		6.915e-03		121.519		2.541e-03		23.668
7		0.00		-7.20		8.702e-03		121.609		2.823e-03		18.231
7		0.00		-7.60		1.043e-02		126.188		3.164e-03		14.707
7		0.00		-8.00		1.264e-02		123.106		3.670e-03		17.203
7		0.00		-8.40		1.446e-02		122.136		4.212e-03		16.138
7		0.00		-8.80		1.466e-02		124.065		4.472e-03		15.346
7		0.00		-9.20		1.662e-02		126.652		4.754e-03		9.710
7		0.00		-9.60		1.717e-02		125.366		4.530e-03		8.201
7		0.00		-10.00		1.874e-02		127.520		4.451e-03		7.241
7		0.00		-9.60		1.946e-02		129.260		4.173e-03		6.732
7		0.00		-9.20		1.866e-02		128.188		4.147e-03		7.281
7		0.00		-8.80		1.840e-02		128.940		4.461e-03		7.020
7		0.00		-8.40		1.816e-02		129.792		4.500e-03		6.703
7		0.00		-8.00		1.718e-02		126.601		4.603e-03		9.581
7		0.00		-7.60		1.730e-02		122.681		4.899e-03		15.072
7		0.00		-7.20		1.688e-02		123.092		4.892e-03		18.982
7		0.00		-6.80		1.639e-02		122.382		4.683e-03		17.599
7		0.00		-6.40		1.547e-02		125.983		4.445e-03		10.513
7		0.00		-6.00		1.495e-02		127.650		4.097e-03		7.995
7		0.00		-5.60		1.448e-02		127.906		3.531e-03		8.697
7		0.00		-5.20		1.320e-02		128.927		2.967e-03		9.808
7		0.00		-4.80		1.334e-02		126.320		2.816e-03		7.843
7		0.00		-4.40		1.192e-02		125.135		2.761e-03		10.029
7		0.00		-4.00		1.127e-02		125.714		2.609e-03		9.332
7		0.00		-3.60		1.072e-02		128.415		2.603e-03		9.876
7		0.00		-3.20		9.771e-03		123.767		2.583e-03		13.802
7		0.00		-2.80		9.024e-03		127.991		2.388e-03		17.956
7		0.00		-2.40		8.593e-03		121.290		2.424e-03		20.489
7		0.00		-2.00		7.831e-03		120.528		2.287e-03		28.772
7		0.00		-1.60		7.413e-03		123.922		2.266e-03		21.454
7		0.00		-1.20		6.635e-03		127.578		2.194e-03		19.107
7		0.00		-0.80		6.350e-03		124.882		1.898e-03		16.024
7		0.00		-0.40		5.732e-03		129.453		1.700e-03		16.781
8		0.00		0.00		5.203e-03		124.375		1.686e-03		17.284
8		0.00		0.40		4.907e-03		126.741		1.594e-03		24.925
8		0.00		0.80		4.568e-03		109.116		1.540e-03		30.090
8		0.00		1.20		3.748e-03		107.223		1.441e-03		36.750
8		0.00		1.60		3.072e-03		97.703		1.208e-03		44.250
8		0.00		2.00		2.419e-03		80.546		9.917e-04		52.477
8		0.00		2.40		2.197e-03		68.522		9.719e-04		65.275
8		0.00		2.80		1.928e-03		36.890		9.823e-04		72.108
8		0.00		3.20		1.910e-03		-18.040		7.543e-04		57.261
8		0.00		3.60		2.197e-03		-21.915		9.076e-04		55.320
8		0.00		4.00		2.790e-03		-41.963		1.110e-03		41.891
8		0.00		4.40		3.596e-03		-37.634		1.122e-03		28.384
8		0.00		4.80		4.471e-03		-36.787		1.370e-03		23.818
8		0.00		5.20		5.567e-03		-47.467		1.781e-03		18.561
8		0.00		5.60		7.022e-03		-45.558		2.029e-03		12.745
8		0.00		6.00		8.434e-03		-49.983		2.217e-03		11.522
8		0.00		6.40		1.016e-02		-43.497		2.471e-03		11.602
8		0.00		6.80		1.196e-02		-50.690		2.600e-03		10.679
8		0.00		7.20		1.463e-02		-47.485		2.950e-03		9.182
8		0.00		7.60		1.770e-02		-48.428		3.413e-03		8.669
8		0.00		8.00		2.026e-02		-49.154		3.911e-03		9.563
8		0.00		8.40		2.295e-02		-50.392		4.306e-03		8.460
8		0.00		8.80		2.679e-02		-48.068		5.156e-03		7.384
8		0.00		9.20		2.915e-02		-49.499		6.159e-03		6.608
8		0.00		9.60		3.238e-02		-48.450		7.107e-03		6.973
8		0.00		10.00		3.393e-02		-48.987		8.252e-03		7.381
8		0.00		9.60		3.476e-02		-48.164		8.662e-03		6.684
8		0.00		9.20		3.499e-02		-49.206		8.916e-03		9.317
8		0.00		8.80		3.476e-02		-49.627		8.670e-03		10.463
8		0.00		8.40		3.466e-02		-50.986		8.999e-03		15.154
8		0.00		8.00		3.460e-02		-50.769		9.121e-03		12.931
8		0.00		7.60		3.446e-02		-50.369		9.118e-03		10.165
8		0.00		7.20		3.442e-02		-50.011		8.840e-03		7.056
8		0.00		6.80		3.386e-02		-50.268		8.418e-03		6.738
8		0.00		6.40		3.424e-02		-51.420		8.130e-03		6.829
8		0.00		6.00		3.362e-02		-48.391		7.466e-03		5.540
8		0.00		5.60		3.333e-02		-49.663		7.253e-03		6.253
8		0.00		5.20		3.248e-02		-49.884		6.878e-03		6.117
8		0.00		4.80		3.212e-02		-48.188		6.894e-03		6.134
8		0.00		4.40		3.168e-02		-48.679		6.302e-03		6.786
8		0.00		4.00		3.204e-02		-48.867		6.545e-03		6.759
8		0.00		3.60		3.108e-02		-48.286		6.584e-03		6.885
8		0.00		3.20		3.101e-02		-48.528		7.172e-03		6.810
8		0.00		2.80		3.054e-02		-48.321		7.371e-03		7.104
8		0.00		2.40		2.898e-02		-49.509		8.059e-03		8.901
8		0.00		2.00		2.939e-02		-49.016		8.133e-03		10.111
8		0.00		1.60		2.946e-02		-50.678		8.114e-03		12.454
8		0.00		1.20		2.947e-02		-50.245		7.540e-03		8.858
8		0.00		0.80		3.039e-02		-48.313		7.792e-03		8.333
8		0.00		0.40		3.032e-02		-49.413		7.811e-03		7.447
8		0.00		0.00		3.069e-02		-48.973		7.264e-03		7.144
8		0.00		-0.40		3.037e-02		-48.673		6.392e-03		5.816
8		0.00		-0.80		3.012e-02		-47.228		6.051e-03		6.196
8		0.00		-1.20		2.928e-02		-49.689		5.458e-03		5.783
8		0.00		-1.60		2.902e-02		-51.007		5.182e-03		6.703
8		0.00		-2.00		2.666e-02		-48.436		4.840e-03		7.691
8		0.00		-2.40		2.516e-02		-48.507		4.698e-03		7.231
8		0.00		-2.80		2.206e-02		-47.885		4.580e-03		7.885
8		0.00		-3.20		1.940e-02		-47.779		4.437e-03		8.808
8		0.00		-3.60		1.565e-02		-45.718		3.723e-03		9.296
8		0.00		-4.00		1.232e-02		-47.040		3.151e-03		9.593
8		0.00		-4.40		9.932e-03		-44.983		2.944e-03		10.817
8		0.00		-4.80		5.830e-03		-41.900		2.306e-03		17.953
8		0.00		-5.20		3.368e-03		-41.307		1.815e-03		42.091
8		0.00		-5.60		2.322e-03		8.813		1.146e-03		68.112
8		0.00		-6.00		3.405e-03		80.248		1.624e-03		55.558
8		0.00		-6.40		6.540e-03		107.716		2.648e-03		35.845
8		0.00		-6.80		7.921e-03		116.754		2.975e-03		24.089
8		0.00		-7.20		9.483e-03		117.734		3.156e-03		18.837
8		0.00		-7.60		1.086e-02		122.590		3.610e-03		22.521
8		0.00		-8.00		1.304e-02		125.396		3.621e-03		10.139
8		0.00		-8.40		1.442e-02		124.870		3.945e-03		10.067
8		0.00		-8.80		1.576e-02		127.188		4.257e-03		10.081
8		0.00		-9.20		1.664e-02		126.805		4.173e-03		10.090
8		0.00		-9.60		1.703e-02		126.911		4.284e-03		6.879
8		0.00		-10.00		1.879e-02		127.961		4.459e-03		6.921
8		0.00		-9.60		1.758e-02		127.996		4.511e-03		8.381
8		0.00		-9.20		1.716e-02		123.776		4.896e-03		7.576
8		0.00		-8.80		1.684e-02		125.623		4.941e-03		9.646
8		0.00		-8.40		1.695e-02		128.103		5.446e-03		9.993
8		0.00		-8.00		1.576e-02		125.150		5.074e-03		13.014
8		0.00		-7.60		1.550e-02		123.911		5.352e-03		15.919
8		0.00		-7.20		1.478e-02		120.029		4.956e-03		21.196
8		0.00		-6.80		1.393e-02		120.550		4.768e-03		22.545
8		0.00		-6.40		1.316e-02		122.144		4.597e-03		21.949
8		0.00		-6.00		1.294e-02		122.757		4.570e-03		18.840
8		0.00		-5.60		1.259e-02		123.373		4.466e-03		15.369
8		0.00		-5.20		1.192e-02		123.304		3.681e-03		9.192
8		0.00		-4.80		1.127e-02		124.315		3.320e-03		12.838
8		0.00		-4.40		1.104e-02		127.837		3.069e-03		11.907
8		0.00		-4.00		1.023e-02		126.325		2.940e-03		11.244
8		0.00		-3.60		9.561e-03		128.991		2.730e-03		11.452
8		0.00		-3.20		8.855e-03		126.013		2.422e-03		14.832
8		0.00		-2.80		8.240e-03		126.462		2.470e-03		13.873
8		0.00		-2.40		7.793e-03		123.877		2.578e-03		14.197
8		0.00		-2.00		6.956e-03		124.771		2.047e-03		14.444
8		0.00		-1.60		6.110e-03		118.810		2.083e-03		28.835
8		0.00		-1.20		5.738e-03		114.461		2.064e-03		30.630
8		0.00		-0.80		5.224e-03		107.933		1.895e-03		25.632
8		0.00		-0.40		4.760e-03		114.083		1.835e-03		35.372
