# Date of analysis: 2023-11-20 16;19
# 
# Loop index	Read Volt (V)	Write Volt (V)	Amplitude (a.u)	Phase (deg)	Sigma Amp (a.u)	Sigma Pha (deg)	
1		0.00		0.00		2.447e-02		-50.113		5.440e-03		9.104
1		0.00		0.40		2.443e-02		-51.318		5.704e-03		10.888
1		0.00		0.80		2.427e-02		-50.812		5.747e-03		9.417
1		0.00		1.20		2.421e-02		-51.993		5.414e-03		12.067
1		0.00		1.60		2.417e-02		-50.218		5.620e-03		8.567
1		0.00		2.00		2.380e-02		-49.133		5.722e-03		10.807
1		0.00		2.40		2.419e-02		-50.664		6.091e-03		10.214
1		0.00		2.80		2.358e-02		-51.930		6.019e-03		9.258
1		0.00		3.20		2.360e-02		-52.111		6.068e-03		9.882
1		0.00		3.60		2.403e-02		-51.057		5.722e-03		9.053
1		0.00		4.00		2.463e-02		-53.554		6.061e-03		10.516
1		0.00		4.40		2.504e-02		-52.024		5.704e-03		7.330
1		0.00		4.80		2.566e-02		-52.670		5.512e-03		7.978
1		0.00		5.20		2.585e-02		-51.306		5.414e-03		7.996
1		0.00		5.60		2.651e-02		-51.021		5.250e-03		7.391
1		0.00		6.00		2.797e-02		-51.120		5.363e-03		8.158
1		0.00		6.40		2.896e-02		-50.668		5.051e-03		6.769
1		0.00		6.80		2.970e-02		-49.751		5.109e-03		7.887
1		0.00		7.20		3.105e-02		-49.849		5.415e-03		8.107
1		0.00		7.60		3.197e-02		-50.423		5.532e-03		7.310
1		0.00		8.00		3.365e-02		-50.743		6.205e-03		6.555
1		0.00		8.40		3.535e-02		-50.956		6.574e-03		7.727
1		0.00		8.80		3.958e-02		-49.733		8.115e-03		8.351
1		0.00		9.20		4.199e-02		-50.901		9.334e-03		8.406
1		0.00		9.60		4.527e-02		-50.844		1.068e-02		10.667
1		0.00		10.00		4.770e-02		-51.654		1.235e-02		14.622
1		0.00		9.60		4.884e-02		-52.318		1.385e-02		13.986
1		0.00		9.20		4.880e-02		-52.308		1.368e-02		13.423
1		0.00		8.80		4.904e-02		-53.028		1.390e-02		12.887
1		0.00		8.40		4.840e-02		-52.203		1.357e-02		10.007
1		0.00		8.00		4.950e-02		-51.865		1.283e-02		8.555
1		0.00		7.60		4.992e-02		-51.668		1.207e-02		7.962
1		0.00		7.20		4.845e-02		-50.715		1.003e-02		6.913
1		0.00		6.80		4.923e-02		-51.908		9.813e-03		6.680
1		0.00		6.40		4.932e-02		-51.103		9.487e-03		6.736
1		0.00		6.00		4.962e-02		-50.864		8.630e-03		5.784
1		0.00		5.60		4.909e-02		-49.425		8.543e-03		6.224
1		0.00		5.20		4.730e-02		-49.431		8.304e-03		7.199
1		0.00		4.80		4.852e-02		-49.421		8.798e-03		6.534
1		0.00		4.40		4.694e-02		-50.054		9.061e-03		9.391
1		0.00		4.00		4.757e-02		-49.778		9.246e-03		6.796
1		0.00		3.60		4.723e-02		-49.808		9.916e-03		8.496
1		0.00		3.20		4.683e-02		-51.351		1.022e-02		9.274
1		0.00		2.80		4.652e-02		-50.296		1.093e-02		10.302
1		0.00		2.40		4.605e-02		-51.669		1.090e-02		11.383
1		0.00		2.00		4.558e-02		-52.489		1.192e-02		12.260
1		0.00		1.60		4.481e-02		-51.097		1.225e-02		9.298
1		0.00		1.20		4.488e-02		-52.073		1.192e-02		9.001
1		0.00		0.80		4.407e-02		-52.236		1.069e-02		7.984
1		0.00		0.40		4.441e-02		-51.412		9.458e-03		6.049
1		0.00		0.00		4.493e-02		-51.989		9.289e-03		7.293
1		0.00		-0.40		4.503e-02		-51.637		9.276e-03		6.216
1		0.00		-0.80		4.327e-02		-51.672		9.015e-03		7.518
1		0.00		-1.20		4.260e-02		-51.283		8.560e-03		6.625
1		0.00		-1.60		4.352e-02		-49.738		8.481e-03		5.503
1		0.00		-2.00		4.079e-02		-50.178		8.164e-03		7.759
1		0.00		-2.40		3.979e-02		-49.962		8.368e-03		8.226
1		0.00		-2.80		3.871e-02		-49.487		8.436e-03		8.474
1		0.00		-3.20		3.532e-02		-48.823		7.725e-03		9.035
1		0.00		-3.60		3.325e-02		-50.013		7.543e-03		10.156
1		0.00		-4.00		2.944e-02		-50.019		6.995e-03		10.757
1		0.00		-4.40		2.369e-02		-49.699		5.835e-03		8.139
1		0.00		-4.80		1.972e-02		-48.352		4.686e-03		11.261
1		0.00		-5.20		1.565e-02		-49.730		3.728e-03		10.113
1		0.00		-5.60		1.103e-02		-46.022		2.537e-03		12.360
1		0.00		-6.00		6.401e-03		-46.362		2.042e-03		16.305
1		0.00		-6.40		2.050e-03		14.376		8.940e-04		70.471
1		0.00		-6.80		5.412e-03		115.155		1.717e-03		25.781
1		0.00		-7.20		8.231e-03		127.409		2.240e-03		13.167
1		0.00		-7.60		1.239e-02		126.513		2.846e-03		9.960
1		0.00		-8.00		1.502e-02		124.329		3.480e-03		9.927
1		0.00		-8.40		1.725e-02		125.595		3.912e-03		9.941
1		0.00		-8.80		1.938e-02		124.533		4.524e-03		11.281
1		0.00		-9.20		2.016e-02		126.191		5.132e-03		14.834
1		0.00		-9.60		2.184e-02		126.591		5.787e-03		12.620
1		0.00		-10.00		2.325e-02		125.218		5.811e-03		12.746
1		0.00		-9.60		2.452e-02		126.963		6.033e-03		11.063
1		0.00		-9.20		2.491e-02		127.000		5.893e-03		10.251
1		0.00		-8.80		2.416e-02		126.052		5.040e-03		8.884
1		0.00		-8.40		2.355e-02		124.231		4.898e-03		8.583
1		0.00		-8.00		2.467e-02		126.165		4.737e-03		6.733
1		0.00		-7.60		2.438e-02		127.322		4.407e-03		6.859
1		0.00		-7.20		2.439e-02		126.067		4.321e-03		6.801
1		0.00		-6.80		2.293e-02		127.067		4.384e-03		7.744
1		0.00		-6.40		2.201e-02		125.038		3.991e-03		7.458
1		0.00		-6.00		2.079e-02		128.628		4.199e-03		8.630
1		0.00		-5.60		1.999e-02		127.828		4.325e-03		8.880
1		0.00		-5.20		1.938e-02		127.295		4.490e-03		9.021
1		0.00		-4.80		1.859e-02		127.323		4.397e-03		10.886
1		0.00		-4.40		1.741e-02		125.047		4.513e-03		11.310
1		0.00		-4.00		1.721e-02		124.895		4.918e-03		16.675
1		0.00		-3.60		1.663e-02		126.316		4.782e-03		16.357
1		0.00		-3.20		1.597e-02		125.589		4.452e-03		13.380
1		0.00		-2.80		1.560e-02		126.283		4.105e-03		15.033
1		0.00		-2.40		1.548e-02		126.386		4.073e-03		11.387
1		0.00		-2.00		1.495e-02		124.305		3.726e-03		10.802
1		0.00		-1.60		1.497e-02		125.346		3.280e-03		9.562
1		0.00		-1.20		1.470e-02		127.686		2.973e-03		7.381
1		0.00		-0.80		1.461e-02		125.180		2.778e-03		9.814
1		0.00		-0.40		1.417e-02		125.832		2.678e-03		9.886
2		0.00		0.00		1.421e-02		128.496		2.586e-03		10.240
2		0.00		0.40		1.360e-02		127.601		2.363e-03		8.697
2		0.00		0.80		1.308e-02		129.099		2.430e-03		9.034
2		0.00		1.20		1.261e-02		124.474		2.507e-03		9.092
2		0.00		1.60		1.167e-02		131.732		2.511e-03		11.002
2		0.00		2.00		1.072e-02		129.107		2.215e-03		12.625
2		0.00		2.40		9.945e-03		129.749		2.207e-03		10.782
2		0.00		2.80		8.370e-03		126.470		2.066e-03		14.047
2		0.00		3.20		7.534e-03		130.700		2.146e-03		15.343
2		0.00		3.60		6.364e-03		124.277		1.707e-03		16.145
2		0.00		4.00		4.950e-03		122.919		1.666e-03		23.546
2		0.00		4.40		3.986e-03		109.918		1.358e-03		52.620
2		0.00		4.80		3.215e-03		114.689		1.168e-03		44.812
2		0.00		5.20		1.875e-03		-35.028		6.966e-04		76.018
2		0.00		5.60		2.457e-03		-58.842		9.151e-04		41.308
2		0.00		6.00		3.930e-03		-60.847		1.414e-03		24.370
2		0.00		6.40		5.540e-03		-53.790		1.620e-03		20.414
2		0.00		6.80		7.990e-03		-54.063		2.012e-03		12.990
2		0.00		7.20		1.170e-02		-51.658		2.638e-03		10.868
2		0.00		7.60		1.509e-02		-50.502		3.164e-03		11.018
2		0.00		8.00		1.889e-02		-53.285		3.607e-03		8.634
2		0.00		8.40		2.326e-02		-53.467		4.415e-03		6.760
2		0.00		8.80		3.073e-02		-52.683		5.620e-03		7.547
2		0.00		9.20		3.520e-02		-51.415		6.158e-03		6.366
2		0.00		9.60		4.083e-02		-51.486		7.282e-03		5.469
2		0.00		10.00		4.457e-02		-52.296		8.501e-03		5.752
2		0.00		9.60		4.774e-02		-52.913		9.599e-03		6.012
2		0.00		9.20		4.787e-02		-50.702		8.799e-03		5.688
2		0.00		8.80		4.751e-02		-50.994		8.594e-03		6.617
2		0.00		8.40		4.767e-02		-50.168		9.001e-03		6.030
2		0.00		8.00		4.752e-02		-50.208		9.204e-03		6.505
2		0.00		7.60		4.744e-02		-50.774		9.403e-03		7.498
2		0.00		7.20		4.682e-02		-49.962		9.561e-03		8.494
2		0.00		6.80		4.593e-02		-50.670		9.809e-03		6.644
2		0.00		6.40		4.557e-02		-49.328		9.974e-03		7.319
2		0.00		6.00		4.610e-02		-50.787		9.453e-03		6.422
2		0.00		5.60		4.508e-02		-49.311		9.205e-03		6.572
2		0.00		5.20		4.515e-02		-50.093		9.589e-03		6.804
2		0.00		4.80		4.460e-02		-50.143		9.723e-03		7.491
2		0.00		4.40		4.474e-02		-51.123		1.021e-02		6.489
2		0.00		4.00		4.451e-02		-49.853		9.925e-03		7.068
2		0.00		3.60		4.471e-02		-50.853		9.476e-03		9.147
2		0.00		3.20		4.371e-02		-50.223		9.924e-03		8.631
2		0.00		2.80		4.355e-02		-50.892		1.012e-02		10.507
2		0.00		2.40		4.282e-02		-51.080		1.031e-02		8.632
2		0.00		2.00		4.285e-02		-51.581		1.078e-02		9.867
2		0.00		1.60		4.215e-02		-50.428		1.051e-02		9.284
2		0.00		1.20		4.259e-02		-53.043		1.095e-02		9.997
2		0.00		0.80		4.289e-02		-52.165		1.028e-02		7.962
2		0.00		0.40		4.204e-02		-52.573		1.092e-02		9.694
2		0.00		0.00		4.155e-02		-51.772		1.014e-02		8.727
2		0.00		-0.40		4.205e-02		-52.304		1.042e-02		8.843
2		0.00		-0.80		4.217e-02		-51.539		1.011e-02		7.936
2		0.00		-1.20		4.212e-02		-52.123		9.716e-03		6.836
2		0.00		-1.60		4.223e-02		-52.068		9.018e-03		6.789
2		0.00		-2.00		4.242e-02		-51.728		8.666e-03		5.773
2		0.00		-2.40		4.178e-02		-52.448		8.649e-03		6.962
2		0.00		-2.80		4.020e-02		-51.909		8.212e-03		7.526
2		0.00		-3.20		3.838e-02		-52.528		7.398e-03		7.167
2		0.00		-3.60		3.599e-02		-52.159		6.997e-03		5.829
2		0.00		-4.00		3.283e-02		-51.370		6.226e-03		6.341
2		0.00		-4.40		2.850e-02		-49.871		5.298e-03		6.999
2		0.00		-4.80		2.381e-02		-51.017		4.665e-03		8.961
2		0.00		-5.20		1.842e-02		-49.322		3.871e-03		9.657
2		0.00		-5.60		1.369e-02		-49.768		3.000e-03		12.938
2		0.00		-6.00		8.413e-03		-45.536		2.150e-03		15.995
2		0.00		-6.40		4.608e-03		-41.671		1.667e-03		21.684
2		0.00		-6.80		2.095e-03		53.484		9.547e-04		63.569
2		0.00		-7.20		6.067e-03		112.589		1.957e-03		17.370
2		0.00		-7.60		8.971e-03		120.371		2.364e-03		12.785
2		0.00		-8.00		1.169e-02		122.630		2.460e-03		11.718
2		0.00		-8.40		1.369e-02		124.912		2.892e-03		10.024
2		0.00		-8.80		1.543e-02		125.445		3.336e-03		10.378
2		0.00		-9.20		1.674e-02		124.469		3.332e-03		8.125
2		0.00		-9.60		1.796e-02		125.045		3.689e-03		8.948
2		0.00		-10.00		1.984e-02		126.913		3.756e-03		9.408
2		0.00		-9.60		1.976e-02		126.157		3.753e-03		8.154
2		0.00		-9.20		2.030e-02		125.135		3.932e-03		9.509
2		0.00		-8.80		1.971e-02		128.284		3.926e-03		8.877
2		0.00		-8.40		1.961e-02		125.629		4.119e-03		11.347
2		0.00		-8.00		2.002e-02		127.259		4.273e-03		9.923
2		0.00		-7.60		1.893e-02		126.397		4.023e-03		11.809
2		0.00		-7.20		1.841e-02		125.638		4.310e-03		12.644
2		0.00		-6.80		1.776e-02		124.679		4.280e-03		13.448
2		0.00		-6.40		1.699e-02		124.480		4.285e-03		16.342
2		0.00		-6.00		1.627e-02		124.874		4.035e-03		16.009
2		0.00		-5.60		1.531e-02		125.277		4.005e-03		14.123
2		0.00		-5.20		1.512e-02		123.871		3.782e-03		14.337
2		0.00		-4.80		1.417e-02		124.647		3.910e-03		13.830
2		0.00		-4.40		1.353e-02		125.355		3.462e-03		14.385
2		0.00		-4.00		1.332e-02		124.827		3.565e-03		11.835
2		0.00		-3.60		1.240e-02		124.977		3.453e-03		13.464
2		0.00		-3.20		1.189e-02		125.285		2.816e-03		11.906
2		0.00		-2.80		1.140e-02		125.761		2.491e-03		12.359
2		0.00		-2.40		1.169e-02		124.899		2.795e-03		12.213
2		0.00		-2.00		1.108e-02		124.933		2.629e-03		11.740
2		0.00		-1.60		1.063e-02		125.375		2.352e-03		13.223
2		0.00		-1.20		1.042e-02		124.905		2.606e-03		10.428
2		0.00		-0.80		9.967e-03		127.356		2.331e-03		11.235
2		0.00		-0.40		9.912e-03		125.284		2.100e-03		11.261
3		0.00		0.00		9.352e-03		124.942		2.259e-03		11.069
3		0.00		0.40		8.961e-03		124.147		1.861e-03		10.420
3		0.00		0.80		8.974e-03		123.576		2.162e-03		12.891
3		0.00		1.20		7.950e-03		128.386		1.859e-03		11.812
3		0.00		1.60		7.193e-03		124.907		1.795e-03		16.662
3		0.00		2.00		6.700e-03		124.111		1.692e-03		14.443
3		0.00		2.40		5.809e-03		123.510		1.672e-03		15.328
3		0.00		2.80		4.950e-03		116.590		1.334e-03		46.516
3		0.00		3.20		4.314e-03		124.151		1.373e-03		30.766
3		0.00		3.60		3.143e-03		109.983		1.135e-03		54.269
3		0.00		4.00		2.010e-03		52.865		8.958e-04		81.679
3		0.00		4.40		1.808e-03		-24.042		7.300e-04		84.035
3		0.00		4.80		2.999e-03		-56.622		1.093e-03		31.237
3		0.00		5.20		6.385e-03		-54.048		1.608e-03		15.607
3		0.00		5.60		8.698e-03		-52.714		1.902e-03		17.624
3		0.00		6.00		1.064e-02		-53.637		2.372e-03		16.862
3		0.00		6.40		1.418e-02		-50.701		3.087e-03		12.629
3		0.00		6.80		1.572e-02		-47.737		3.556e-03		9.923
3		0.00		7.20		1.691e-02		-51.890		4.018e-03		10.553
3		0.00		7.60		1.867e-02		-52.805		4.277e-03		10.995
3		0.00		8.00		2.123e-02		-51.319		4.925e-03		11.100
3		0.00		8.40		2.313e-02		-52.788		5.307e-03		11.238
3		0.00		8.80		2.578e-02		-52.868		6.332e-03		9.401
3		0.00		9.20		3.018e-02		-51.595		7.521e-03		8.271
3		0.00		9.60		3.373e-02		-52.025		8.383e-03		9.370
3		0.00		10.00		3.811e-02		-52.156		9.333e-03		8.464
3		0.00		9.60		4.022e-02		-51.953		1.036e-02		10.049
3		0.00		9.20		4.077e-02		-51.931		1.065e-02		10.749
3		0.00		8.80		4.149e-02		-51.708		1.053e-02		9.544
3		0.00		8.40		4.150e-02		-52.508		1.107e-02		10.853
3		0.00		8.00		4.099e-02		-53.757		1.084e-02		9.093
3		0.00		7.60		4.089e-02		-52.902		1.041e-02		9.016
3		0.00		7.20		4.111e-02		-52.990		9.668e-03		9.569
3		0.00		6.80		4.092e-02		-51.640		9.165e-03		8.056
3		0.00		6.40		4.047e-02		-51.905		9.209e-03		7.235
3		0.00		6.00		3.972e-02		-52.126		8.552e-03		7.710
3		0.00		5.60		3.999e-02		-53.103		8.424e-03		6.938
3		0.00		5.20		3.996e-02		-52.478		8.019e-03		6.694
3		0.00		4.80		4.002e-02		-52.450		7.953e-03		5.870
3		0.00		4.40		3.852e-02		-52.442		7.260e-03		6.361
3		0.00		4.00		3.869e-02		-52.258		7.144e-03		6.407
3		0.00		3.60		3.799e-02		-51.340		7.060e-03		5.791
3		0.00		3.20		3.744e-02		-52.706		7.171e-03		5.680
3		0.00		2.80		3.735e-02		-52.291		7.387e-03		5.926
3		0.00		2.40		3.700e-02		-51.668		7.171e-03		6.442
3		0.00		2.00		3.721e-02		-51.567		7.252e-03		6.477
3		0.00		1.60		3.721e-02		-50.554		6.889e-03		5.991
3		0.00		1.20		3.716e-02		-50.542		6.852e-03		5.354
3		0.00		0.80		3.645e-02		-52.109		6.958e-03		6.930
3		0.00		0.40		3.693e-02		-50.048		6.700e-03		6.496
3		0.00		0.00		3.688e-02		-50.962		6.291e-03		6.278
3		0.00		-0.40		3.712e-02		-50.888		6.501e-03		6.484
3		0.00		-0.80		3.735e-02		-50.088		6.112e-03		6.031
3		0.00		-1.20		3.734e-02		-51.028		6.247e-03		5.964
3		0.00		-1.60		3.653e-02		-51.123		6.043e-03		6.590
3		0.00		-2.00		3.568e-02		-51.287		5.657e-03		5.901
3		0.00		-2.40		3.430e-02		-49.702		5.603e-03		7.165
3		0.00		-2.80		3.311e-02		-51.726		5.439e-03		6.939
3		0.00		-3.20		3.209e-02		-49.374		5.219e-03		6.970
3		0.00		-3.60		3.018e-02		-49.675		4.983e-03		7.575
3		0.00		-4.00		2.745e-02		-49.237		4.660e-03		7.859
3		0.00		-4.40		2.372e-02		-50.229		4.366e-03		7.095
3		0.00		-4.80		1.875e-02		-46.867		3.407e-03		8.783
3		0.00		-5.20		1.277e-02		-48.953		2.645e-03		11.098
3		0.00		-5.60		8.924e-03		-46.560		2.172e-03		16.234
3		0.00		-6.00		5.561e-03		-46.328		1.828e-03		20.920
3		0.00		-6.40		2.101e-03		-33.301		9.581e-04		52.340
3		0.00		-6.80		2.665e-03		76.455		1.234e-03		57.314
3		0.00		-7.20		4.983e-03		118.398		1.911e-03		28.851
3		0.00		-7.60		7.845e-03		127.263		2.151e-03		16.713
3		0.00		-8.00		1.070e-02		126.767		2.594e-03		12.992
3		0.00		-8.40		1.171e-02		124.795		2.620e-03		13.799
3		0.00		-8.80		1.441e-02		126.084		3.216e-03		12.581
3		0.00		-9.20		1.655e-02		125.488		3.538e-03		10.296
3		0.00		-9.60		1.784e-02		127.842		3.844e-03		9.326
3		0.00		-10.00		1.944e-02		125.385		4.394e-03		9.759
3		0.00		-9.60		1.957e-02		125.140		4.456e-03		11.308
3		0.00		-9.20		1.960e-02		126.104		4.442e-03		11.073
3		0.00		-8.80		1.987e-02		126.441		4.472e-03		8.737
3		0.00		-8.40		1.919e-02		126.766		4.384e-03		10.277
3		0.00		-8.00		1.832e-02		126.456		4.546e-03		15.795
3		0.00		-7.60		1.705e-02		125.410		4.188e-03		14.756
3		0.00		-7.20		1.678e-02		124.625		4.500e-03		15.711
3		0.00		-6.80		1.640e-02		124.421		4.297e-03		14.764
3		0.00		-6.40		1.562e-02		124.665		3.870e-03		16.351
3		0.00		-6.00		1.479e-02		125.380		3.956e-03		17.468
3		0.00		-5.60		1.411e-02		124.520		3.878e-03		17.593
3		0.00		-5.20		1.307e-02		122.064		3.614e-03		15.840
3		0.00		-4.80		1.275e-02		123.869		3.380e-03		15.942
3		0.00		-4.40		1.215e-02		123.659		3.401e-03		16.169
3		0.00		-4.00		1.142e-02		121.918		2.965e-03		16.557
3		0.00		-3.60		1.132e-02		122.831		2.744e-03		17.458
3		0.00		-3.20		1.052e-02		125.408		2.513e-03		15.049
3		0.00		-2.80		9.880e-03		124.086		2.436e-03		15.080
3		0.00		-2.40		9.748e-03		128.905		2.465e-03		16.164
3		0.00		-2.00		9.412e-03		125.731		2.477e-03		13.742
3		0.00		-1.60		8.648e-03		123.782		2.267e-03		15.244
3		0.00		-1.20		8.132e-03		126.971		2.154e-03		16.119
3		0.00		-0.80		8.333e-03		123.957		2.106e-03		13.945
3		0.00		-0.40		7.727e-03		125.426		2.169e-03		18.376
4		0.00		0.00		7.248e-03		123.428		1.954e-03		19.714
4		0.00		0.40		6.600e-03		123.578		2.120e-03		19.543
4		0.00		0.80		6.302e-03		116.894		1.725e-03		20.637
4		0.00		1.20		6.008e-03		123.931		1.916e-03		13.000
4		0.00		1.60		5.481e-03		117.951		1.556e-03		21.653
4		0.00		2.00		4.890e-03		115.400		1.556e-03		27.567
4		0.00		2.40		4.039e-03		118.740		1.565e-03		29.886
4		0.00		2.80		3.833e-03		119.823		1.280e-03		26.730
4		0.00		3.20		3.023e-03		95.610		1.044e-03		53.466
4		0.00		3.60		2.193e-03		56.610		9.816e-04		86.692
4		0.00		4.00		1.612e-03		-6.929		7.136e-04		73.284
4		0.00		4.40		1.961e-03		-46.493		8.589e-04		58.580
4		0.00		4.80		2.745e-03		-64.851		1.050e-03		44.950
4		0.00		5.20		4.421e-03		-42.407		1.244e-03		24.471
4		0.00		5.60		7.114e-03		-51.607		1.717e-03		16.681
4		0.00		6.00		8.545e-03		-51.706		1.959e-03		14.260
4		0.00		6.40		9.859e-03		-51.362		1.982e-03		13.718
4		0.00		6.80		1.133e-02		-51.581		2.102e-03		12.678
4		0.00		7.20		1.435e-02		-49.278		2.709e-03		11.552
4		0.00		7.60		1.585e-02		-51.498		2.895e-03		8.773
4		0.00		8.00		1.782e-02		-52.690		3.251e-03		9.848
4		0.00		8.40		2.093e-02		-50.350		3.475e-03		9.231
4		0.00		8.80		2.381e-02		-51.450		4.298e-03		9.208
4		0.00		9.20		2.824e-02		-50.441		5.074e-03		6.179
4		0.00		9.60		3.208e-02		-51.824		5.829e-03		8.018
4		0.00		10.00		3.590e-02		-51.834		6.405e-03		6.580
4		0.00		9.60		3.797e-02		-52.787		7.383e-03		6.164
4		0.00		9.20		3.850e-02		-51.280		7.027e-03		6.345
4		0.00		8.80		3.957e-02		-52.191		6.958e-03		6.334
4		0.00		8.40		3.921e-02		-52.062		6.615e-03		6.281
4		0.00		8.00		3.915e-02		-51.285		6.468e-03		6.443
4		0.00		7.60		3.860e-02		-51.567		6.575e-03		6.570
4		0.00		7.20		3.901e-02		-51.430		6.311e-03		7.018
4		0.00		6.80		3.887e-02		-50.953		6.577e-03		5.181
4		0.00		6.40		3.830e-02		-51.928		6.822e-03		6.100
4		0.00		6.00		3.786e-02		-51.572		6.663e-03		6.006
4		0.00		5.60		3.763e-02		-51.589		6.702e-03		6.167
4		0.00		5.20		3.759e-02		-52.418		6.941e-03		5.940
4		0.00		4.80		3.709e-02		-52.313		7.732e-03		6.630
4		0.00		4.40		3.610e-02		-52.168		7.875e-03		6.713
4		0.00		4.00		3.549e-02		-52.398		8.028e-03		7.456
4		0.00		3.60		3.588e-02		-51.783		8.323e-03		8.296
4		0.00		3.20		3.507e-02		-51.304		8.501e-03		8.893
4		0.00		2.80		3.516e-02		-52.938		8.894e-03		10.360
4		0.00		2.40		3.453e-02		-51.469		8.515e-03		8.477
4		0.00		2.00		3.423e-02		-52.903		8.493e-03		9.600
4		0.00		1.60		3.416e-02		-49.893		8.207e-03		9.055
4		0.00		1.20		3.439e-02		-50.640		7.656e-03		8.245
4		0.00		0.80		3.507e-02		-50.427		7.466e-03		9.760
4		0.00		0.40		3.519e-02		-50.632		6.967e-03		8.482
4		0.00		0.00		3.544e-02		-48.818		6.622e-03		7.677
4		0.00		-0.40		3.550e-02		-49.369		6.462e-03		6.389
4		0.00		-0.80		3.496e-02		-49.585		6.081e-03		6.493
4		0.00		-1.20		3.491e-02		-50.875		5.660e-03		6.171
4		0.00		-1.60		3.406e-02		-48.967		5.335e-03		7.022
4		0.00		-2.00		3.411e-02		-51.426		5.616e-03		6.626
4		0.00		-2.40		3.330e-02		-52.200		5.740e-03		6.663
4		0.00		-2.80		3.199e-02		-51.612		5.691e-03		6.713
4		0.00		-3.20		3.048e-02		-52.973		5.862e-03		7.165
4		0.00		-3.60		2.878e-02		-50.798		5.694e-03		7.173
4		0.00		-4.00		2.645e-02		-51.716		5.590e-03		6.778
4		0.00		-4.40		2.308e-02		-51.379		5.003e-03		7.984
4		0.00		-4.80		1.894e-02		-48.942		4.762e-03		9.140
4		0.00		-5.20		1.364e-02		-49.633		3.685e-03		12.000
4		0.00		-5.60		9.785e-03		-47.942		2.679e-03		16.092
4		0.00		-6.00		5.435e-03		-47.502		1.762e-03		24.169
4		0.00		-6.40		2.830e-03		-29.536		1.204e-03		42.695
4		0.00		-6.80		2.264e-03		64.256		1.061e-03		66.530
4		0.00		-7.20		4.312e-03		103.098		1.639e-03		30.362
4		0.00		-7.60		6.731e-03		116.767		2.039e-03		22.246
4		0.00		-8.00		8.736e-03		123.000		2.298e-03		17.863
4		0.00		-8.40		1.098e-02		125.539		2.476e-03		10.580
4		0.00		-8.80		1.289e-02		124.890		2.581e-03		10.424
4		0.00		-9.20		1.443e-02		124.255		2.583e-03		10.636
4		0.00		-9.60		1.625e-02		124.925		3.249e-03		9.477
4		0.00		-10.00		1.689e-02		126.138		3.083e-03		8.937
4		0.00		-9.60		1.773e-02		125.290		3.492e-03		8.873
4		0.00		-9.20		1.790e-02		123.276		3.367e-03		9.217
4		0.00		-8.80		1.746e-02		125.375		3.302e-03		9.240
4		0.00		-8.40		1.727e-02		124.390		3.271e-03		8.451
4		0.00		-8.00		1.704e-02		125.252		3.554e-03		9.352
4		0.00		-7.60		1.579e-02		123.620		3.553e-03		9.005
4		0.00		-7.20		1.526e-02		126.638		3.512e-03		11.291
4		0.00		-6.80		1.468e-02		127.545		3.644e-03		12.743
4		0.00		-6.40		1.376e-02		126.971		3.423e-03		12.572
4		0.00		-6.00		1.331e-02		126.269		3.314e-03		13.172
4		0.00		-5.60		1.232e-02		126.859		2.754e-03		15.332
4		0.00		-5.20		1.191e-02		124.437		2.959e-03		14.767
4		0.00		-4.80		1.143e-02		125.651		2.671e-03		15.459
4		0.00		-4.40		1.068e-02		127.426		2.440e-03		15.555
4		0.00		-4.00		9.674e-03		125.171		2.222e-03		14.777
4		0.00		-3.60		9.439e-03		126.938		2.072e-03		12.007
4		0.00		-3.20		8.952e-03		125.327		2.097e-03		13.488
4		0.00		-2.80		8.301e-03		124.339		1.880e-03		12.973
4		0.00		-2.40		8.041e-03		125.755		1.871e-03		11.507
4		0.00		-2.00		7.645e-03		125.560		1.868e-03		14.541
4		0.00		-1.60		7.161e-03		120.956		1.751e-03		16.373
4		0.00		-1.20		6.930e-03		124.337		1.863e-03		12.155
4		0.00		-0.80		6.734e-03		127.511		1.815e-03		13.026
4		0.00		-0.40		6.382e-03		124.666		1.770e-03		18.269
5		0.00		0.00		5.598e-03		117.445		1.685e-03		17.810
5		0.00		0.40		5.742e-03		124.514		1.684e-03		15.635
5		0.00		0.80		5.238e-03		121.143		1.545e-03		16.562
5		0.00		1.20		5.028e-03		117.654		1.315e-03		17.913
5		0.00		1.60		4.261e-03		121.910		1.456e-03		26.992
5		0.00		2.00		3.876e-03		114.026		1.378e-03		36.223
5		0.00		2.40		3.363e-03		106.375		1.181e-03		38.824
5		0.00		2.80		2.728e-03		97.441		1.113e-03		49.474
5		0.00		3.20		2.001e-03		54.035		8.674e-04		78.502
5		0.00		3.60		1.671e-03		-13.424		7.327e-04		70.644
5		0.00		4.00		1.831e-03		-38.115		8.204e-04		56.246
5		0.00		4.40		3.084e-03		-52.842		1.095e-03		34.990
5		0.00		4.80		3.844e-03		-59.647		1.318e-03		27.483
5		0.00		5.20		5.048e-03		-51.728		1.572e-03		24.520
5		0.00		5.60		6.181e-03		-54.870		1.528e-03		17.677
5		0.00		6.00		7.101e-03		-55.062		1.845e-03		17.746
5		0.00		6.40		8.799e-03		-50.877		2.336e-03		13.551
5		0.00		6.80		1.059e-02		-51.969		2.639e-03		12.632
5		0.00		7.20		1.259e-02		-54.003		3.228e-03		11.723
5		0.00		7.60		1.570e-02		-52.238		3.782e-03		10.512
5		0.00		8.00		1.780e-02		-51.393		4.527e-03		10.835
5		0.00		8.40		2.011e-02		-51.518		4.923e-03		9.238
5		0.00		8.80		2.318e-02		-51.100		5.316e-03		8.478
5		0.00		9.20		2.591e-02		-52.807		6.046e-03		7.570
5		0.00		9.60		3.142e-02		-51.978		6.968e-03		8.315
5		0.00		10.00		3.562e-02		-53.211		8.097e-03		8.136
5		0.00		9.60		3.649e-02		-51.295		8.043e-03		7.864
5		0.00		9.20		3.767e-02		-51.609		7.911e-03		7.393
5		0.00		8.80		3.768e-02		-52.875		7.935e-03		7.064
5		0.00		8.40		3.820e-02		-52.168		7.609e-03		5.551
5		0.00		8.00		3.765e-02		-52.767		7.181e-03		6.568
5		0.00		7.60		3.716e-02		-53.215		7.353e-03		6.622
5		0.00		7.20		3.658e-02		-51.909		7.043e-03		5.596
5		0.00		6.80		3.600e-02		-52.032		7.090e-03		6.317
5		0.00		6.40		3.568e-02		-51.937		6.906e-03		6.733
5		0.00		6.00		3.528e-02		-52.336		6.350e-03		6.420
5		0.00		5.60		3.498e-02		-51.431		6.129e-03		5.369
5		0.00		5.20		3.547e-02		-50.477		6.446e-03		6.280
5		0.00		4.80		3.436e-02		-51.856		6.172e-03		5.911
5		0.00		4.40		3.404e-02		-51.935		6.294e-03		6.668
5		0.00		4.00		3.414e-02		-51.929		5.742e-03		7.196
5		0.00		3.60		3.379e-02		-50.378		5.725e-03		6.817
5		0.00		3.20		3.393e-02		-49.313		5.691e-03		7.113
5		0.00		2.80		3.337e-02		-50.923		6.108e-03		7.207
5		0.00		2.40		3.317e-02		-50.224		6.111e-03		7.623
5		0.00		2.00		3.315e-02		-48.955		6.106e-03		7.742
5		0.00		1.60		3.307e-02		-49.182		6.532e-03		8.194
5		0.00		1.20		3.273e-02		-51.704		6.741e-03		8.955
5		0.00		0.80		3.260e-02		-49.201		7.211e-03		8.716
5		0.00		0.40		3.279e-02		-51.142		7.107e-03		8.571
5		0.00		0.00		3.227e-02		-50.490		7.453e-03		9.008
5		0.00		-0.40		3.194e-02		-52.091		7.784e-03		9.377
5		0.00		-0.80		3.185e-02		-51.577		7.894e-03		8.969
5		0.00		-1.20		3.186e-02		-52.660		7.706e-03		9.345
5		0.00		-1.60		3.195e-02		-52.090		7.399e-03		6.687
5		0.00		-2.00		3.173e-02		-51.598		6.620e-03		6.914
5		0.00		-2.40		3.122e-02		-51.711		6.076e-03		7.089
5		0.00		-2.80		3.062e-02		-51.790		5.580e-03		7.338
5		0.00		-3.20		2.861e-02		-52.973		5.125e-03		6.295
5		0.00		-3.60		2.633e-02		-51.389		4.194e-03		7.680
5		0.00		-4.00		2.374e-02		-50.835		4.092e-03		7.954
5		0.00		-4.40		1.994e-02		-48.193		3.230e-03		9.335
5		0.00		-4.80		1.576e-02		-46.918		2.542e-03		10.465
5		0.00		-5.20		1.274e-02		-49.143		2.284e-03		9.718
5		0.00		-5.60		9.341e-03		-46.898		2.100e-03		16.030
5		0.00		-6.00		7.416e-03		-47.434		1.680e-03		17.294
5		0.00		-6.40		3.992e-03		-63.541		1.722e-03		27.548
5		0.00		-6.80		2.203e-03		-14.909		8.921e-04		59.313
5		0.00		-7.20		2.597e-03		72.548		1.215e-03		66.036
5		0.00		-7.60		5.841e-03		114.002		1.819e-03		21.634
5		0.00		-8.00		7.759e-03		124.589		2.138e-03		21.386
5		0.00		-8.40		8.998e-03		116.457		2.616e-03		21.885
5		0.00		-8.80		1.116e-02		121.550		3.328e-03		15.946
5		0.00		-9.20		1.300e-02		121.366		3.752e-03		14.588
5		0.00		-9.60		1.391e-02		123.322		3.947e-03		14.143
5		0.00		-10.00		1.550e-02		124.345		4.197e-03		10.942
5		0.00		-9.60		1.599e-02		124.829		4.306e-03		10.333
5		0.00		-9.20		1.599e-02		122.044		4.025e-03		8.192
5		0.00		-8.80		1.621e-02		124.137		3.815e-03		8.473
5		0.00		-8.40		1.564e-02		124.962		3.621e-03		9.893
5		0.00		-8.00		1.519e-02		124.345		3.077e-03		8.749
5		0.00		-7.60		1.451e-02		126.202		2.856e-03		8.524
5		0.00		-7.20		1.441e-02		125.598		2.701e-03		10.074
5		0.00		-6.80		1.401e-02		127.031		2.861e-03		9.435
5		0.00		-6.40		1.368e-02		123.930		2.863e-03		10.458
5		0.00		-6.00		1.261e-02		126.111		2.572e-03		11.104
5		0.00		-5.60		1.202e-02		126.711		2.589e-03		10.361
5		0.00		-5.20		1.077e-02		123.605		2.445e-03		16.139
5		0.00		-4.80		1.037e-02		128.883		2.468e-03		14.067
5		0.00		-4.40		9.659e-03		123.355		2.465e-03		14.070
5		0.00		-4.00		8.820e-03		125.555		2.501e-03		13.554
5		0.00		-3.60		8.623e-03		122.548		2.197e-03		15.694
5		0.00		-3.20		7.436e-03		119.431		1.902e-03		15.970
5		0.00		-2.80		6.973e-03		121.212		1.939e-03		14.751
5		0.00		-2.40		6.778e-03		129.005		1.754e-03		12.469
5		0.00		-2.00		6.433e-03		121.768		1.605e-03		15.381
5		0.00		-1.60		5.643e-03		120.623		1.574e-03		14.032
5		0.00		-1.20		5.311e-03		123.985		1.707e-03		16.823
5		0.00		-0.80		4.995e-03		127.230		1.392e-03		15.834
5		0.00		-0.40		5.132e-03		123.605		1.548e-03		25.775
6		0.00		0.00		4.427e-03		123.035		1.410e-03		19.048
6		0.00		0.40		4.359e-03		115.015		1.409e-03		32.943
6		0.00		0.80		4.105e-03		109.365		1.450e-03		33.009
6		0.00		1.20		3.613e-03		111.962		1.337e-03		46.038
6		0.00		1.60		3.355e-03		107.522		1.223e-03		52.393
6		0.00		2.00		2.857e-03		106.181		1.243e-03		43.812
6		0.00		2.40		2.348e-03		83.131		9.114e-04		58.535
6		0.00		2.80		1.989e-03		58.216		8.866e-04		71.935
6		0.00		3.20		1.729e-03		18.579		7.179e-04		73.858
6		0.00		3.60		1.888e-03		-31.290		7.665e-04		59.988
6		0.00		4.00		2.628e-03		-57.234		9.252e-04		41.095
6		0.00		4.40		3.665e-03		-48.163		1.340e-03		26.202
6		0.00		4.80		4.449e-03		-53.389		1.459e-03		27.880
6		0.00		5.20		5.540e-03		-59.688		1.662e-03		16.628
6		0.00		5.60		6.850e-03		-52.921		1.942e-03		17.228
6		0.00		6.00		8.168e-03		-55.763		2.299e-03		15.510
6		0.00		6.40		1.026e-02		-52.711		2.767e-03		12.695
6		0.00		6.80		1.312e-02		-50.222		3.248e-03		11.259
6		0.00		7.20		1.691e-02		-51.980		4.228e-03		10.085
6		0.00		7.60		1.889e-02		-52.312		4.184e-03		7.941
6		0.00		8.00		2.456e-02		-52.605		4.894e-03		8.143
6		0.00		8.40		2.596e-02		-50.169		4.650e-03		7.389
6		0.00		8.80		2.715e-02		-49.438		4.457e-03		7.225
6		0.00		9.20		2.872e-02		-50.520		4.611e-03		8.146
6		0.00		9.60		3.074e-02		-50.061		5.347e-03		7.542
6		0.00		10.00		3.317e-02		-49.735		6.379e-03		6.931
6		0.00		9.60		3.457e-02		-49.723		6.866e-03		7.931
6		0.00		9.20		3.470e-02		-49.877		7.853e-03		9.249
6		0.00		8.80		3.513e-02		-51.959		8.126e-03		9.997
6		0.00		8.40		3.540e-02		-50.950		8.461e-03		8.705
6		0.00		8.00		3.516e-02		-51.631		7.694e-03		8.213
6		0.00		7.60		3.494e-02		-52.380		7.342e-03		6.545
6		0.00		7.20		3.459e-02		-52.087		6.567e-03		5.959
6		0.00		6.80		3.464e-02		-50.689		5.868e-03		6.041
6		0.00		6.40		3.472e-02		-51.628		5.652e-03		6.734
6		0.00		6.00		3.444e-02		-50.953		5.653e-03		6.942
6		0.00		5.60		3.350e-02		-49.740		5.779e-03		7.258
6		0.00		5.20		3.299e-02		-49.665		6.321e-03		7.784
6		0.00		4.80		3.207e-02		-49.513		7.082e-03		9.468
6		0.00		4.40		3.129e-02		-49.495		7.412e-03		9.819
6		0.00		4.00		3.096e-02		-49.496		7.923e-03		8.936
6		0.00		3.60		3.127e-02		-50.809		7.400e-03		7.735
6		0.00		3.20		3.164e-02		-50.298		6.540e-03		7.008
6		0.00		2.80		3.205e-02		-51.191		5.720e-03		7.319
6		0.00		2.40		3.182e-02		-51.388		5.196e-03		6.307
6		0.00		2.00		3.162e-02		-51.113		4.918e-03		6.732
6		0.00		1.60		3.164e-02		-50.367		5.332e-03		7.650
6		0.00		1.20		3.073e-02		-49.718		5.572e-03		7.305
6		0.00		0.80		3.057e-02		-48.924		6.272e-03		6.529
6		0.00		0.40		3.062e-02		-49.413		6.592e-03		7.599
6		0.00		0.00		3.017e-02		-50.783		7.034e-03		10.172
6		0.00		-0.40		2.949e-02		-51.094		7.493e-03		9.521
6		0.00		-0.80		2.983e-02		-50.918		7.273e-03		6.754
6		0.00		-1.20		2.967e-02		-50.849		6.575e-03		6.227
6		0.00		-1.60		2.932e-02		-50.079		5.537e-03		7.397
6		0.00		-2.00		2.937e-02		-51.359		5.424e-03		7.037
6		0.00		-2.40		2.771e-02		-49.575		5.227e-03		8.553
6		0.00		-2.80		2.651e-02		-49.973		5.895e-03		9.137
6		0.00		-3.20		2.449e-02		-49.776		5.926e-03		9.557
6		0.00		-3.60		2.238e-02		-50.803		6.093e-03		11.074
6		0.00		-4.00		2.063e-02		-49.836		5.667e-03		10.594
6		0.00		-4.40		1.818e-02		-53.752		4.455e-03		9.811
6		0.00		-4.80		1.516e-02		-50.228		3.265e-03		9.792
6		0.00		-5.20		1.131e-02		-52.901		2.460e-03		12.132
6		0.00		-5.60		8.678e-03		-51.578		1.895e-03		12.359
6		0.00		-6.00		6.890e-03		-50.569		2.019e-03		14.688
6		0.00		-6.40		3.146e-03		-48.981		1.432e-03		31.484
6		0.00		-6.80		2.186e-03		-10.680		8.348e-04		66.818
6		0.00		-7.20		2.967e-03		84.602		1.506e-03		62.984
6		0.00		-7.60		5.677e-03		115.765		1.967e-03		19.907
6		0.00		-8.00		8.266e-03		118.954		2.357e-03		11.583
6		0.00		-8.40		9.642e-03		127.019		2.510e-03		11.189
6		0.00		-8.80		1.044e-02		121.086		2.449e-03		9.420
6		0.00		-9.20		1.260e-02		125.906		2.848e-03		8.270
6		0.00		-9.60		1.322e-02		125.495		3.321e-03		12.114
6		0.00		-10.00		1.414e-02		125.953		3.886e-03		15.613
6		0.00		-9.60		1.463e-02		128.107		4.262e-03		14.922
6		0.00		-9.20		1.492e-02		125.602		3.987e-03		10.822
6		0.00		-8.80		1.478e-02		125.063		3.662e-03		10.311
6		0.00		-8.40		1.504e-02		124.927		3.091e-03		8.231
6		0.00		-8.00		1.421e-02		122.854		3.139e-03		8.413
6		0.00		-7.60		1.338e-02		123.480		2.902e-03		10.477
6		0.00		-7.20		1.254e-02		126.520		2.824e-03		9.201
6		0.00		-6.80		1.173e-02		123.717		2.949e-03		12.711
6		0.00		-6.40		1.159e-02		126.105		3.221e-03		18.353
6		0.00		-6.00		1.101e-02		123.795		2.919e-03		13.914
6		0.00		-5.60		1.018e-02		122.220		2.581e-03		11.268
6		0.00		-5.20		9.458e-03		123.565		2.151e-03		10.810
6		0.00		-4.80		8.583e-03		123.822		1.916e-03		13.669
6		0.00		-4.40		7.524e-03		125.480		1.727e-03		13.322
6		0.00		-4.00		7.316e-03		123.735		1.887e-03		13.584
6		0.00		-3.60		6.157e-03		118.432		1.900e-03		26.801
6		0.00		-3.20		6.273e-03		122.245		1.697e-03		17.827
6		0.00		-2.80		5.341e-03		119.594		1.777e-03		28.542
6		0.00		-2.40		4.884e-03		122.394		1.724e-03		19.508
6		0.00		-2.00		4.540e-03		118.259		1.382e-03		17.828
6		0.00		-1.60		4.539e-03		119.150		1.410e-03		30.404
6		0.00		-1.20		4.039e-03		109.992		1.200e-03		30.138
6		0.00		-0.80		3.511e-03		111.264		1.220e-03		28.801
6		0.00		-0.40		3.442e-03		112.956		1.330e-03		42.543
7		0.00		0.00		3.454e-03		102.220		1.362e-03		45.495
7		0.00		0.40		3.277e-03		97.604		1.245e-03		37.752
7		0.00		0.80		2.933e-03		101.814		1.272e-03		45.241
7		0.00		1.20		2.405e-03		71.572		1.135e-03		58.386
7		0.00		1.60		2.242e-03		57.366		9.459e-04		72.757
7		0.00		2.00		1.785e-03		22.642		6.855e-04		83.316
7		0.00		2.40		1.756e-03		17.509		6.682e-04		81.879
7		0.00		2.80		1.847e-03		-23.548		7.924e-04		60.214
7		0.00		3.20		2.185e-03		-46.482		9.846e-04		43.725
7		0.00		3.60		2.670e-03		-46.455		1.085e-03		48.284
7		0.00		4.00		3.458e-03		-45.734		1.101e-03		24.973
7		0.00		4.40		4.357e-03		-46.153		1.506e-03		23.503
7		0.00		4.80		5.796e-03		-53.146		1.445e-03		20.825
7		0.00		5.20		6.855e-03		-50.786		1.677e-03		16.913
7		0.00		5.60		8.103e-03		-56.281		1.665e-03		14.913
7		0.00		6.00		9.452e-03		-48.707		1.808e-03		12.969
7		0.00		6.40		1.067e-02		-53.039		2.317e-03		11.496
7		0.00		6.80		1.161e-02		-52.068		2.863e-03		12.299
7		0.00		7.20		1.278e-02		-50.050		3.616e-03		14.508
7		0.00		7.60		1.451e-02		-51.086		3.872e-03		11.700
7		0.00		8.00		1.676e-02		-50.076		4.427e-03		7.751
7		0.00		8.40		1.969e-02		-51.383		4.383e-03		8.355
7		0.00		8.80		2.160e-02		-52.069		4.180e-03		7.956
7		0.00		9.20		2.467e-02		-50.391		4.737e-03		7.910
7		0.00		9.60		2.750e-02		-51.708		5.344e-03		8.022
7		0.00		10.00		3.260e-02		-48.535		6.470e-03		8.731
7		0.00		9.60		3.276e-02		-50.020		7.367e-03		9.755
7		0.00		9.20		3.414e-02		-51.428		8.186e-03		8.916
7		0.00		8.80		3.384e-02		-52.470		8.040e-03		9.463
7		0.00		8.40		3.428e-02		-52.714		7.798e-03		8.352
7		0.00		8.00		3.498e-02		-51.448		6.762e-03		6.767
7		0.00		7.60		3.474e-02		-51.482		5.679e-03		5.542
7		0.00		7.20		3.374e-02		-50.616		5.412e-03		6.702
7		0.00		6.80		3.356e-02		-50.907		5.840e-03		6.683
7		0.00		6.40		3.244e-02		-49.540		6.334e-03		7.576
7		0.00		6.00		3.204e-02		-50.683		7.669e-03		9.672
7		0.00		5.60		3.064e-02		-50.672		8.103e-03		10.198
7		0.00		5.20		3.064e-02		-51.218		8.367e-03		10.575
7		0.00		4.80		3.092e-02		-52.297		7.872e-03		8.515
7		0.00		4.40		3.023e-02		-52.705		6.731e-03		7.210
7		0.00		4.00		3.013e-02		-51.834		5.905e-03		6.857
7		0.00		3.60		2.983e-02		-51.117		5.481e-03		6.401
7		0.00		3.20		2.983e-02		-50.909		5.920e-03		6.968
7		0.00		2.80		2.972e-02		-49.258		6.157e-03		7.296
7		0.00		2.40		2.940e-02		-51.050		6.752e-03		9.503
7		0.00		2.00		2.933e-02		-50.186		6.904e-03		9.215
7		0.00		1.60		2.929e-02		-51.518		6.980e-03		9.209
7		0.00		1.20		2.932e-02		-51.037		6.428e-03		7.460
7		0.00		0.80		2.945e-02		-51.924		5.949e-03		7.627
7		0.00		0.40		2.934e-02		-51.918		5.171e-03		7.859
7		0.00		0.00		2.940e-02		-49.694		4.585e-03		7.437
7		0.00		-0.40		2.928e-02		-49.589		5.082e-03		6.411
7		0.00		-0.80		2.895e-02		-48.223		5.164e-03		6.686
7		0.00		-1.20		2.848e-02		-49.684		6.021e-03		9.170
7		0.00		-1.60		2.735e-02		-51.097		6.504e-03		10.226
7		0.00		-2.00		2.673e-02		-50.676		6.893e-03		10.427
7		0.00		-2.40		2.668e-02		-52.996		6.559e-03		8.939
7		0.00		-2.80		2.564e-02		-52.097		5.594e-03		7.467
7		0.00		-3.20		2.433e-02		-51.499		4.547e-03		7.031
7		0.00		-3.60		2.235e-02		-51.383		3.887e-03		8.350
7		0.00		-4.00		1.987e-02		-51.016		3.662e-03		8.582
7		0.00		-4.40		1.784e-02		-50.424		3.556e-03		9.839
7		0.00		-4.80		1.486e-02		-51.287		3.034e-03		10.065
7		0.00		-5.20		1.073e-02		-52.298		2.939e-03		11.444
7		0.00		-5.60		8.695e-03		-51.654		2.361e-03		16.708
7		0.00		-6.00		6.009e-03		-49.404		2.024e-03		18.954
7		0.00		-6.40		4.055e-03		-32.957		1.549e-03		25.125
7		0.00		-6.80		2.094e-03		26.923		8.262e-04		69.072
7		0.00		-7.20		3.227e-03		96.836		1.540e-03		48.182
7		0.00		-7.60		5.623e-03		120.666		1.823e-03		22.067
7		0.00		-8.00		7.438e-03		122.438		1.914e-03		16.721
7		0.00		-8.40		9.474e-03		127.512		2.162e-03		11.830
7		0.00		-8.80		1.077e-02		127.150		2.330e-03		10.234
7		0.00		-9.20		1.149e-02		123.810		3.054e-03		14.729
7		0.00		-9.60		1.252e-02		123.215		3.201e-03		17.609
7		0.00		-10.00		1.378e-02		124.120		3.683e-03		12.286
7		0.00		-9.60		1.441e-02		122.770		3.539e-03		9.434
7		0.00		-9.20		1.449e-02		123.448		3.418e-03		10.196
7		0.00		-8.80		1.436e-02		123.345		3.337e-03		8.953
7		0.00		-8.40		1.404e-02		123.515		2.955e-03		10.565
7		0.00		-8.00		1.415e-02		127.181		3.197e-03		10.781
7		0.00		-7.60		1.369e-02		122.385		3.537e-03		11.166
7		0.00		-7.20		1.291e-02		122.798		3.776e-03		17.548
7		0.00		-6.80		1.245e-02		124.915		3.546e-03		17.921
7		0.00		-6.40		1.182e-02		127.114		3.409e-03		11.771
7		0.00		-6.00		1.082e-02		124.934		2.838e-03		12.266
7		0.00		-5.60		1.035e-02		124.465		2.560e-03		10.493
7		0.00		-5.20		9.552e-03		123.787		2.272e-03		12.615
7		0.00		-4.80		8.578e-03		126.622		1.872e-03		10.874
7		0.00		-4.40		7.759e-03		124.042		1.862e-03		12.276
7		0.00		-4.00		7.204e-03		127.521		1.820e-03		16.883
7		0.00		-3.60		6.045e-03		123.025		1.671e-03		16.937
7		0.00		-3.20		6.109e-03		122.169		2.035e-03		21.794
7		0.00		-2.80		5.624e-03		120.847		1.511e-03		28.358
7		0.00		-2.40		4.892e-03		115.764		1.531e-03		23.167
7		0.00		-2.00		4.655e-03		115.464		1.541e-03		17.508
7		0.00		-1.60		4.059e-03		117.695		1.397e-03		33.446
7		0.00		-1.20		4.150e-03		113.815		1.487e-03		36.496
7		0.00		-0.80		3.925e-03		108.977		1.228e-03		24.986
7		0.00		-0.40		3.389e-03		108.467		1.177e-03		31.876
8		0.00		0.00		2.873e-03		93.294		1.101e-03		58.053
8		0.00		0.40		2.788e-03		102.677		9.517e-04		38.577
8		0.00		0.80		2.493e-03		84.524		1.058e-03		62.135
8		0.00		1.20		2.315e-03		78.961		8.283e-04		61.874
8		0.00		1.60		1.880e-03		41.984		8.312e-04		79.621
8		0.00		2.00		1.808e-03		32.056		7.073e-04		83.660
8		0.00		2.40		1.789e-03		7.998		6.780e-04		67.171
8		0.00		2.80		1.790e-03		-21.002		6.543e-04		58.097
8		0.00		3.20		2.184e-03		-40.684		9.801e-04		51.282
8		0.00		3.60		2.962e-03		-35.578		1.167e-03		36.577
8		0.00		4.00		3.515e-03		-56.152		1.306e-03		29.104
8		0.00		4.40		4.372e-03		-56.694		1.367e-03		21.039
8		0.00		4.80		5.516e-03		-46.499		1.400e-03		19.951
8		0.00		5.20		6.997e-03		-46.588		1.500e-03		14.360
8		0.00		5.60		7.871e-03		-48.329		1.839e-03		16.271
8		0.00		6.00		9.238e-03		-51.109		1.854e-03		12.306
8		0.00		6.40		1.025e-02		-53.171		2.431e-03		12.780
8		0.00		6.80		1.138e-02		-51.719		3.085e-03		12.190
8		0.00		7.20		1.298e-02		-52.523		3.460e-03		10.682
8		0.00		7.60		1.501e-02		-51.850		3.469e-03		8.176
8		0.00		8.00		1.705e-02		-52.748		3.586e-03		9.306
8		0.00		8.40		1.870e-02		-51.773		3.676e-03		10.240
8		0.00		8.80		2.129e-02		-51.433		4.013e-03		9.248
8		0.00		9.20		2.325e-02		-49.702		5.087e-03		9.033
8		0.00		9.60		2.558e-02		-51.033		6.321e-03		9.895
8		0.00		10.00		2.796e-02		-50.233		7.261e-03		9.545
8		0.00		9.60		2.994e-02		-52.011		8.037e-03		12.111
8		0.00		9.20		3.088e-02		-51.933		7.758e-03		10.989
8		0.00		8.80		3.193e-02		-53.783		7.040e-03		6.884
8		0.00		8.40		3.222e-02		-51.771		5.915e-03		6.968
8		0.00		8.00		3.214e-02		-49.800		5.590e-03		6.618
8		0.00		7.60		3.199e-02		-50.415		5.308e-03		6.959
8		0.00		7.20		3.107e-02		-50.368		5.617e-03		6.611
8		0.00		6.80		2.961e-02		-49.229		5.870e-03		9.516
8		0.00		6.40		2.993e-02		-51.828		6.500e-03		9.622
8		0.00		6.00		2.949e-02		-48.792		6.842e-03		8.372
8		0.00		5.60		2.912e-02		-50.244		7.037e-03		8.536
8		0.00		5.20		2.867e-02		-52.434		7.293e-03		9.626
8		0.00		4.80		2.841e-02		-50.891		6.978e-03		8.220
8		0.00		4.40		2.842e-02		-52.261		6.276e-03		6.652
8		0.00		4.00		2.834e-02		-50.194		5.581e-03		6.754
8		0.00		3.60		2.797e-02		-52.317		4.942e-03		7.387
8		0.00		3.20		2.777e-02		-49.605		5.363e-03		7.650
8		0.00		2.80		2.761e-02		-51.570		5.523e-03		7.333
8		0.00		2.40		2.665e-02		-49.363		5.929e-03		7.385
8		0.00		2.00		2.695e-02		-50.823		6.364e-03		9.280
8		0.00		1.60		2.642e-02		-50.023		6.842e-03		10.610
8		0.00		1.20		2.678e-02		-51.802		7.000e-03		11.110
8		0.00		0.80		2.692e-02		-50.013		6.505e-03		7.151
8		0.00		0.40		2.741e-02		-51.651		6.169e-03		6.692
8		0.00		0.00		2.769e-02		-51.350		5.367e-03		7.422
8		0.00		-0.40		2.724e-02		-53.029		5.054e-03		6.055
8		0.00		-0.80		2.712e-02		-50.574		4.771e-03		7.332
8		0.00		-1.20		2.692e-02		-48.765		5.107e-03		7.886
8		0.00		-1.60		2.657e-02		-48.793		5.336e-03		8.025
8		0.00		-2.00		2.589e-02		-49.979		5.714e-03		8.984
8		0.00		-2.40		2.564e-02		-50.818		5.963e-03		7.858
8		0.00		-2.80		2.412e-02		-51.747		6.055e-03		10.832
8		0.00		-3.20		2.289e-02		-51.587		5.912e-03		8.364
8		0.00		-3.60		2.162e-02		-52.463		5.421e-03		7.249
8		0.00		-4.00		1.975e-02		-53.158		4.583e-03		9.013
8		0.00		-4.40		1.749e-02		-54.380		4.054e-03		10.340
8		0.00		-4.80		1.466e-02		-52.513		3.047e-03		9.079
8		0.00		-5.20		1.135e-02		-50.153		2.648e-03		11.350
8		0.00		-5.60		7.631e-03		-47.900		2.218e-03		17.083
8		0.00		-6.00		4.774e-03		-44.817		1.848e-03		16.861
8		0.00		-6.40		3.041e-03		-39.084		1.384e-03		46.172
8		0.00		-6.80		2.337e-03		35.072		9.377e-04		69.874
8		0.00		-7.20		2.884e-03		73.397		1.382e-03		66.558
8		0.00		-7.60		5.348e-03		114.465		1.771e-03		26.568
8		0.00		-8.00		7.583e-03		123.184		2.273e-03		14.525
8		0.00		-8.40		8.626e-03		126.146		2.183e-03		13.734
8		0.00		-8.80		1.045e-02		122.703		2.588e-03		10.375
8		0.00		-9.20		1.223e-02		124.259		2.833e-03		10.569
8		0.00		-9.60		1.309e-02		124.234		2.720e-03		8.404
8		0.00		-10.00		1.350e-02		128.510		2.851e-03		9.875
8		0.00		-9.60		1.434e-02		127.195		2.884e-03		9.494
8		0.00		-9.20		1.499e-02		126.566		3.151e-03		8.919
8		0.00		-8.80		1.491e-02		127.446		3.419e-03		9.492
8		0.00		-8.40		1.382e-02		128.042		3.471e-03		13.660
8		0.00		-8.00		1.355e-02		125.107		3.631e-03		13.227
8		0.00		-7.60		1.360e-02		123.221		3.873e-03		18.485
8		0.00		-7.20		1.320e-02		122.352		3.708e-03		17.799
8		0.00		-6.80		1.206e-02		122.868		3.417e-03		16.908
8		0.00		-6.40		1.162e-02		122.290		3.180e-03		10.544
8		0.00		-6.00		1.100e-02		121.270		3.101e-03		12.272
8		0.00		-5.60		1.040e-02		120.392		2.535e-03		11.711
8		0.00		-5.20		9.701e-03		122.674		2.421e-03		10.751
8		0.00		-4.80		9.020e-03		124.745		2.119e-03		12.941
8		0.00		-4.40		8.322e-03		126.101		1.999e-03		11.237
8		0.00		-4.00		7.475e-03		126.551		1.843e-03		13.467
8		0.00		-3.60		7.024e-03		126.143		1.874e-03		14.170
8		0.00		-3.20		6.452e-03		123.675		1.778e-03		18.360
8		0.00		-2.80		6.326e-03		120.996		1.807e-03		19.263
8		0.00		-2.40		5.633e-03		121.105		1.750e-03		20.391
8		0.00		-2.00		5.558e-03		117.588		1.851e-03		26.892
8		0.00		-1.60		4.754e-03		108.413		1.551e-03		40.966
8		0.00		-1.20		4.573e-03		116.895		1.652e-03		34.997
8		0.00		-0.80		4.027e-03		116.844		1.478e-03		28.375
8		0.00		-0.40		3.666e-03		114.604		1.275e-03		29.619
