# Date of analysis: 2024-03-08 10;59
# Segment other properties: height: -56.92748571022843, diff height: 566.3817211248382, deflection: 33.317816861373124, deflection error: 2.740951994774308, adhesion: 39.33442549325272, phase offset: 0
# 
# Loop index	Read Volt (V)	Write Volt (V)	Amplitude (a.u)	Phase (deg)	Sigma Amp (a.u)	Sigma Pha (deg)	
1		0.00		0.00		5.335e-03		-47.559		1.502e-03		19.765
1		0.00		0.40		5.130e-03		-50.455		1.336e-03		17.563
1		0.00		0.80		5.196e-03		-46.439		1.455e-03		19.575
1		0.00		1.20		5.105e-03		-46.453		1.538e-03		22.412
1		0.00		1.60		5.241e-03		-47.212		1.708e-03		21.659
1		0.00		2.00		4.802e-03		-52.570		1.697e-03		25.568
1		0.00		2.40		4.781e-03		-54.667		1.473e-03		18.017
1		0.00		2.80		5.008e-03		-47.480		1.560e-03		20.013
1		0.00		3.20		5.422e-03		-56.570		1.417e-03		16.701
1		0.00		3.60		5.739e-03		-49.404		1.701e-03		19.010
1		0.00		4.00		6.637e-03		-51.952		1.678e-03		14.742
1		0.00		4.40		7.238e-03		-50.989		1.787e-03		18.006
1		0.00		4.80		7.786e-03		-52.708		2.147e-03		15.970
1		0.00		5.20		8.295e-03		-49.689		2.223e-03		18.126
1		0.00		5.60		8.964e-03		-56.802		2.012e-03		17.136
1		0.00		6.00		9.850e-03		-51.254		2.125e-03		14.076
1		0.00		6.40		1.021e-02		-50.418		2.145e-03		14.783
1		0.00		6.80		1.102e-02		-49.093		2.499e-03		13.507
1		0.00		7.20		1.252e-02		-47.803		3.051e-03		12.189
1		0.00		7.60		1.318e-02		-53.766		3.527e-03		15.544
1		0.00		8.00		1.409e-02		-53.850		3.743e-03		9.559
1		0.00		8.40		1.555e-02		-55.256		3.752e-03		9.914
1		0.00		8.80		1.740e-02		-56.124		3.723e-03		12.161
1		0.00		9.20		1.982e-02		-53.450		3.927e-03		10.239
1		0.00		9.60		2.227e-02		-50.973		4.628e-03		10.968
1		0.00		10.00		2.409e-02		-51.453		6.015e-03		9.918
1		0.00		9.60		2.583e-02		-51.874		7.068e-03		11.487
1		0.00		9.20		2.610e-02		-52.041		6.962e-03		10.772
1		0.00		8.80		2.696e-02		-53.353		6.951e-03		9.395
1		0.00		8.40		2.750e-02		-53.065		5.969e-03		9.491
1		0.00		8.00		2.746e-02		-53.294		5.978e-03		9.693
1		0.00		7.60		2.698e-02		-52.012		6.291e-03		10.458
1		0.00		7.20		2.752e-02		-51.357		6.594e-03		11.483
1		0.00		6.80		2.656e-02		-52.441		6.946e-03		11.578
1		0.00		6.40		2.634e-02		-52.546		6.791e-03		8.646
1		0.00		6.00		2.702e-02		-53.148		6.112e-03		8.801
1		0.00		5.60		2.703e-02		-54.484		5.624e-03		9.187
1		0.00		5.20		2.701e-02		-52.082		5.508e-03		8.684
1		0.00		4.80		2.615e-02		-49.705		5.475e-03		9.931
1		0.00		4.40		2.571e-02		-50.936		5.848e-03		9.251
1		0.00		4.00		2.531e-02		-51.742		6.211e-03		10.225
1		0.00		3.60		2.482e-02		-50.610		6.359e-03		9.209
1		0.00		3.20		2.527e-02		-51.009		6.155e-03		9.839
1		0.00		2.80		2.549e-02		-54.994		5.623e-03		8.532
1		0.00		2.40		2.524e-02		-53.765		5.854e-03		10.443
1		0.00		2.00		2.578e-02		-52.208		5.876e-03		8.119
1		0.00		1.60		2.481e-02		-53.550		6.551e-03		12.491
1		0.00		1.20		2.456e-02		-49.104		6.534e-03		11.731
1		0.00		0.80		2.389e-02		-51.386		6.708e-03		12.055
1		0.00		0.40		2.412e-02		-51.417		6.502e-03		10.617
1		0.00		0.00		2.416e-02		-51.829		5.777e-03		9.500
1		0.00		-0.40		2.463e-02		-52.909		5.528e-03		10.310
1		0.00		-0.80		2.500e-02		-52.460		5.480e-03		10.768
1		0.00		-1.20		2.411e-02		-50.059		4.942e-03		9.653
1		0.00		-1.60		2.375e-02		-50.333		5.108e-03		11.349
1		0.00		-2.00		2.221e-02		-50.064		5.566e-03		12.381
1		0.00		-2.40		2.240e-02		-51.665		5.940e-03		10.521
1		0.00		-2.80		2.176e-02		-50.521		5.521e-03		9.039
1		0.00		-3.20		2.182e-02		-52.562		4.855e-03		8.718
1		0.00		-3.60		2.132e-02		-52.083		4.116e-03		9.267
1		0.00		-4.00		2.011e-02		-50.306		4.353e-03		9.996
1		0.00		-4.40		1.903e-02		-48.854		4.350e-03		10.761
1		0.00		-4.80		1.763e-02		-48.308		4.255e-03		12.287
1		0.00		-5.20		1.570e-02		-49.784		4.381e-03		12.053
1		0.00		-5.60		1.454e-02		-52.375		3.755e-03		9.127
1		0.00		-6.00		1.219e-02		-48.790		2.738e-03		10.556
1		0.00		-6.40		8.895e-03		-48.273		2.368e-03		13.877
1		0.00		-6.80		5.908e-03		-44.242		1.639e-03		20.658
1		0.00		-7.20		2.748e-03		-44.647		1.218e-03		41.025
1		0.00		-7.60		2.066e-03		46.090		8.950e-04		58.402
1		0.00		-8.00		4.050e-03		99.670		1.610e-03		43.384
1		0.00		-8.40		5.800e-03		121.197		2.126e-03		18.824
1		0.00		-8.80		8.106e-03		118.758		2.417e-03		17.765
1		0.00		-9.20		1.027e-02		125.292		2.627e-03		11.558
1		0.00		-9.60		1.227e-02		125.518		2.822e-03		10.281
1		0.00		-10.00		1.452e-02		124.146		3.318e-03		10.775
1		0.00		-9.60		1.504e-02		125.455		3.669e-03		12.541
1		0.00		-9.20		1.514e-02		123.872		4.106e-03		14.011
1		0.00		-8.80		1.590e-02		125.239		4.169e-03		10.580
1		0.00		-8.40		1.555e-02		123.765		3.686e-03		9.252
1		0.00		-8.00		1.624e-02		125.404		3.706e-03		10.003
1		0.00		-7.60		1.577e-02		123.452		3.549e-03		10.146
1		0.00		-7.20		1.536e-02		125.536		3.786e-03		10.402
1		0.00		-6.80		1.485e-02		127.312		3.947e-03		18.844
1		0.00		-6.40		1.417e-02		125.473		4.106e-03		13.577
1		0.00		-6.00		1.399e-02		121.917		4.015e-03		10.130
1		0.00		-5.60		1.404e-02		122.974		3.764e-03		10.442
1		0.00		-5.20		1.358e-02		123.912		3.343e-03		10.775
1		0.00		-4.80		1.347e-02		125.975		3.414e-03		12.582
1		0.00		-4.40		1.315e-02		124.122		3.925e-03		14.667
1		0.00		-4.00		1.260e-02		123.584		3.822e-03		14.838
1		0.00		-3.60		1.217e-02		123.394		3.572e-03		12.825
1		0.00		-3.20		1.230e-02		123.962		3.211e-03		9.873
1		0.00		-2.80		1.223e-02		125.635		2.949e-03		10.316
1		0.00		-2.40		1.173e-02		126.386		2.763e-03		11.613
1		0.00		-2.00		1.202e-02		126.794		2.729e-03		11.078
1		0.00		-1.60		1.150e-02		124.485		3.058e-03		16.945
1		0.00		-1.20		1.101e-02		126.622		2.861e-03		13.380
1		0.00		-0.80		1.090e-02		121.972		2.854e-03		13.094
1		0.00		-0.40		1.088e-02		122.213		2.562e-03		11.846
2		0.00		0.00		1.056e-02		128.426		2.508e-03		12.195
2		0.00		0.40		1.036e-02		131.064		2.545e-03		12.275
2		0.00		0.80		9.898e-03		121.089		2.735e-03		18.843
2		0.00		1.20		9.635e-03		123.402		2.585e-03		18.495
2		0.00		1.60		9.072e-03		123.048		2.378e-03		17.683
2		0.00		2.00		8.448e-03		127.289		2.448e-03		11.442
2		0.00		2.40		8.047e-03		127.514		2.180e-03		13.279
2		0.00		2.80		7.164e-03		128.315		1.982e-03		15.744
2		0.00		3.20		6.683e-03		125.567		1.876e-03		14.586
2		0.00		3.60		5.531e-03		118.129		1.568e-03		23.215
2		0.00		4.00		4.457e-03		114.941		1.597e-03		35.451
2		0.00		4.40		3.861e-03		117.371		1.333e-03		36.665
2		0.00		4.80		3.071e-03		97.934		1.331e-03		55.439
2		0.00		5.20		2.379e-03		91.248		1.039e-03		61.504
2		0.00		5.60		1.819e-03		-15.014		7.085e-04		83.883
2		0.00		6.00		1.907e-03		-38.338		8.725e-04		70.930
2		0.00		6.40		2.059e-03		-46.761		8.377e-04		46.112
2		0.00		6.80		2.743e-03		-62.585		9.788e-04		36.698
2		0.00		7.20		3.962e-03		-54.244		1.073e-03		18.122
2		0.00		7.60		5.347e-03		-54.661		1.496e-03		19.392
2		0.00		8.00		7.050e-03		-57.506		1.581e-03		15.277
2		0.00		8.40		8.283e-03		-53.553		1.953e-03		17.424
2		0.00		8.80		9.901e-03		-52.086		2.508e-03		13.982
2		0.00		9.20		1.334e-02		-49.770		3.462e-03		14.274
2		0.00		9.60		1.567e-02		-51.079		3.996e-03		11.690
2		0.00		10.00		1.895e-02		-52.624		3.909e-03		9.158
2		0.00		9.60		2.088e-02		-52.429		4.494e-03		8.225
2		0.00		9.20		2.152e-02		-50.820		4.855e-03		9.862
2		0.00		8.80		2.243e-02		-52.599		5.550e-03		9.709
2		0.00		8.40		2.206e-02		-52.040		5.871e-03		10.945
2		0.00		8.00		2.201e-02		-51.722		6.395e-03		12.014
2		0.00		7.60		2.254e-02		-54.967		6.650e-03		9.349
2		0.00		7.20		2.306e-02		-53.275		5.777e-03		8.537
2		0.00		6.80		2.301e-02		-53.196		5.589e-03		8.310
2		0.00		6.40		2.264e-02		-53.746		5.451e-03		10.863
2		0.00		6.00		2.230e-02		-53.898		5.337e-03		11.822
2		0.00		5.60		2.115e-02		-54.070		5.701e-03		11.746
2		0.00		5.20		2.063e-02		-53.240		5.159e-03		13.412
2		0.00		4.80		2.132e-02		-52.256		5.026e-03		10.445
2		0.00		4.40		2.099e-02		-53.469		4.619e-03		9.279
2		0.00		4.00		2.052e-02		-54.140		4.481e-03		10.989
2		0.00		3.60		2.010e-02		-51.659		4.729e-03		12.177
2		0.00		3.20		2.023e-02		-51.775		4.772e-03		11.035
2		0.00		2.80		1.984e-02		-53.464		5.106e-03		11.294
2		0.00		2.40		2.006e-02		-51.929		5.095e-03		9.194
2		0.00		2.00		2.014e-02		-51.935		4.193e-03		9.183
2		0.00		1.60		2.011e-02		-52.674		4.106e-03		9.821
2		0.00		1.20		2.031e-02		-49.794		4.310e-03		8.099
2		0.00		0.80		1.923e-02		-51.743		4.792e-03		11.314
2		0.00		0.40		1.898e-02		-50.792		5.246e-03		11.275
2		0.00		0.00		1.884e-02		-50.887		5.177e-03		10.719
2		0.00		-0.40		1.899e-02		-51.614		4.549e-03		8.125
2		0.00		-0.80		1.930e-02		-52.831		3.898e-03		9.654
2		0.00		-1.20		1.872e-02		-54.082		4.303e-03		10.572
2		0.00		-1.60		1.842e-02		-49.080		4.278e-03		10.601
2		0.00		-2.00		1.780e-02		-50.965		4.923e-03		12.451
2		0.00		-2.40		1.721e-02		-49.205		4.905e-03		11.248
2		0.00		-2.80		1.748e-02		-52.847		4.010e-03		10.703
2		0.00		-3.20		1.741e-02		-50.453		3.530e-03		10.480
2		0.00		-3.60		1.712e-02		-53.716		3.621e-03		11.670
2		0.00		-4.00		1.595e-02		-49.666		3.577e-03		9.729
2		0.00		-4.40		1.493e-02		-53.185		3.818e-03		15.872
2		0.00		-4.80		1.363e-02		-52.899		3.407e-03		11.387
2		0.00		-5.20		1.249e-02		-51.385		2.653e-03		10.098
2		0.00		-5.60		1.079e-02		-53.556		2.317e-03		11.647
2		0.00		-6.00		9.098e-03		-43.848		2.115e-03		12.556
2		0.00		-6.40		7.375e-03		-48.865		1.931e-03		14.633
2		0.00		-6.80		5.159e-03		-43.986		1.543e-03		17.494
2		0.00		-7.20		3.122e-03		-47.826		1.111e-03		33.498
2		0.00		-7.60		1.752e-03		22.277		6.994e-04		63.768
2		0.00		-8.00		3.777e-03		109.551		1.365e-03		37.511
2		0.00		-8.40		5.875e-03		118.203		1.670e-03		16.111
2		0.00		-8.80		7.658e-03		120.114		2.171e-03		19.091
2		0.00		-9.20		9.430e-03		125.610		2.928e-03		21.805
2		0.00		-9.60		1.143e-02		124.049		3.689e-03		14.041
2		0.00		-10.00		1.359e-02		124.739		3.666e-03		10.475
2		0.00		-9.60		1.479e-02		125.447		3.734e-03		10.430
2		0.00		-9.20		1.545e-02		123.692		3.827e-03		10.284
2		0.00		-8.80		1.531e-02		125.218		3.841e-03		12.014
2		0.00		-8.40		1.519e-02		123.975		3.655e-03		14.531
2		0.00		-8.00		1.483e-02		126.334		3.747e-03		12.514
2		0.00		-7.60		1.495e-02		126.379		3.788e-03		9.579
2		0.00		-7.20		1.524e-02		123.313		3.262e-03		9.081
2		0.00		-6.80		1.483e-02		126.137		3.036e-03		9.507
2		0.00		-6.40		1.499e-02		125.802		3.042e-03		10.608
2		0.00		-6.00		1.438e-02		127.925		3.131e-03		14.703
2		0.00		-5.60		1.388e-02		124.144		3.470e-03		15.940
2		0.00		-5.20		1.372e-02		124.905		3.534e-03		11.611
2		0.00		-4.80		1.356e-02		123.728		3.122e-03		10.156
2		0.00		-4.40		1.335e-02		124.958		2.761e-03		12.187
2		0.00		-4.00		1.324e-02		128.493		2.704e-03		10.219
2		0.00		-3.60		1.321e-02		125.900		2.827e-03		9.824
2		0.00		-3.20		1.260e-02		127.544		3.129e-03		13.760
2		0.00		-2.80		1.239e-02		121.757		3.187e-03		18.977
2		0.00		-2.40		1.200e-02		124.776		3.087e-03		11.857
2		0.00		-2.00		1.194e-02		125.232		3.010e-03		11.221
2		0.00		-1.60		1.209e-02		126.114		2.809e-03		11.393
2		0.00		-1.20		1.226e-02		123.580		2.613e-03		9.439
2		0.00		-0.80		1.199e-02		126.373		2.703e-03		11.305
2		0.00		-0.40		1.162e-02		127.138		2.630e-03		12.601
3		0.00		0.00		1.181e-02		127.366		3.101e-03		16.049
3		0.00		0.40		1.140e-02		127.032		2.893e-03		12.717
3		0.00		0.80		1.131e-02		125.860		2.657e-03		10.360
3		0.00		1.20		1.097e-02		126.705		2.423e-03		12.357
3		0.00		1.60		1.038e-02		127.748		2.179e-03		9.853
3		0.00		2.00		1.009e-02		125.427		2.306e-03		12.138
3		0.00		2.40		9.190e-03		129.306		2.044e-03		14.256
3		0.00		2.80		8.714e-03		124.792		2.163e-03		22.239
3		0.00		3.20		7.277e-03		123.955		2.029e-03		20.438
3		0.00		3.60		6.443e-03		122.406		1.690e-03		16.289
3		0.00		4.00		5.593e-03		125.119		1.789e-03		33.001
3		0.00		4.40		4.763e-03		122.060		1.465e-03		19.518
3		0.00		4.80		3.759e-03		112.493		1.257e-03		39.751
3		0.00		5.20		3.215e-03		95.462		1.143e-03		62.961
3		0.00		5.60		2.248e-03		57.457		9.441e-04		83.685
3		0.00		6.00		1.933e-03		53.023		8.731e-04		76.967
3		0.00		6.40		1.806e-03		-36.240		6.133e-04		77.842
3		0.00		6.80		2.862e-03		-62.366		1.204e-03		40.358
3		0.00		7.20		3.234e-03		-73.438		1.304e-03		34.700
3		0.00		7.60		4.418e-03		-50.590		1.406e-03		26.884
3		0.00		8.00		5.851e-03		-54.440		1.672e-03		19.260
3		0.00		8.40		6.961e-03		-53.047		2.123e-03		18.498
3		0.00		8.80		7.855e-03		-52.234		2.227e-03		19.630
3		0.00		9.20		1.078e-02		-56.101		2.305e-03		11.463
3		0.00		9.60		1.386e-02		-52.739		2.724e-03		10.826
3		0.00		10.00		1.672e-02		-52.270		3.141e-03		9.590
3		0.00		9.60		1.867e-02		-51.383		3.405e-03		9.598
3		0.00		9.20		1.973e-02		-50.387		4.028e-03		9.103
3		0.00		8.80		2.030e-02		-50.513		4.668e-03		11.215
3		0.00		8.40		2.060e-02		-50.260		4.656e-03		9.250
3		0.00		8.00		2.111e-02		-53.349		4.335e-03		8.892
3		0.00		7.60		2.133e-02		-53.029		3.885e-03		7.850
3		0.00		7.20		2.169e-02		-52.031		3.855e-03		8.508
3		0.00		6.80		2.140e-02		-52.438		3.626e-03		7.599
3		0.00		6.40		2.068e-02		-50.619		4.096e-03		8.703
3		0.00		6.00		2.010e-02		-50.274		4.768e-03		9.795
3		0.00		5.60		1.977e-02		-50.436		4.216e-03		11.066
3		0.00		5.20		1.946e-02		-52.972		4.224e-03		10.763
3		0.00		4.80		2.004e-02		-53.081		3.637e-03		8.064
3		0.00		4.40		2.021e-02		-52.263		3.550e-03		8.565
3		0.00		4.00		1.987e-02		-52.000		3.733e-03		9.817
3		0.00		3.60		1.943e-02		-50.832		3.875e-03		9.911
3		0.00		3.20		1.924e-02		-50.914		3.955e-03		9.419
3		0.00		2.80		1.857e-02		-50.201		4.064e-03		10.975
3		0.00		2.40		1.863e-02		-51.673		3.956e-03		9.815
3		0.00		2.00		1.881e-02		-51.000		3.678e-03		9.854
3		0.00		1.60		1.900e-02		-52.606		3.479e-03		10.360
3		0.00		1.20		1.893e-02		-50.712		3.074e-03		8.546
3		0.00		0.80		1.871e-02		-52.572		3.467e-03		9.292
3		0.00		0.40		1.818e-02		-52.566		3.472e-03		9.221
3		0.00		0.00		1.820e-02		-50.090		3.856e-03		10.878
3		0.00		-0.40		1.827e-02		-49.679		4.189e-03		8.906
3		0.00		-0.80		1.768e-02		-49.031		4.086e-03		9.681
3		0.00		-1.20		1.791e-02		-49.653		4.167e-03		9.575
3		0.00		-1.60		1.722e-02		-53.402		3.863e-03		11.038
3		0.00		-2.00		1.718e-02		-52.781		3.400e-03		10.187
3		0.00		-2.40		1.655e-02		-50.765		3.411e-03		10.278
3		0.00		-2.80		1.608e-02		-50.253		3.234e-03		10.479
3		0.00		-3.20		1.517e-02		-50.065		3.426e-03		12.098
3		0.00		-3.60		1.439e-02		-50.735		3.526e-03		13.066
3		0.00		-4.00		1.361e-02		-49.244		3.296e-03		11.995
3		0.00		-4.40		1.291e-02		-53.996		3.475e-03		14.950
3		0.00		-4.80		1.232e-02		-47.474		3.079e-03		11.634
3		0.00		-5.20		1.162e-02		-51.469		2.410e-03		11.894
3		0.00		-5.60		1.062e-02		-55.106		2.372e-03		11.247
3		0.00		-6.00		8.520e-03		-49.484		1.946e-03		11.475
3		0.00		-6.40		7.357e-03		-50.244		1.813e-03		16.598
3		0.00		-6.80		5.346e-03		-49.845		1.329e-03		16.661
3		0.00		-7.20		3.454e-03		-52.877		1.252e-03		30.619
3		0.00		-7.60		1.729e-03		-30.124		7.015e-04		62.354
3		0.00		-8.00		2.402e-03		80.575		9.210e-04		64.341
3		0.00		-8.40		3.966e-03		110.839		1.148e-03		37.982
3		0.00		-8.80		5.761e-03		115.624		1.604e-03		21.945
3		0.00		-9.20		8.146e-03		119.884		2.131e-03		16.900
3		0.00		-9.60		1.019e-02		128.031		2.438e-03		12.645
3		0.00		-10.00		1.287e-02		122.412		2.846e-03		9.254
3		0.00		-9.60		1.464e-02		126.260		3.156e-03		10.394
3		0.00		-9.20		1.524e-02		125.811		2.808e-03		9.209
3		0.00		-8.80		1.634e-02		124.961		2.493e-03		8.300
3		0.00		-8.40		1.592e-02		127.879		2.974e-03		8.869
3		0.00		-8.00		1.582e-02		127.399		2.914e-03		9.187
3		0.00		-7.60		1.498e-02		126.722		3.192e-03		10.493
3		0.00		-7.20		1.482e-02		123.261		3.245e-03		16.396
3		0.00		-6.80		1.420e-02		125.959		3.122e-03		16.673
3		0.00		-6.40		1.437e-02		126.643		2.998e-03		11.527
3		0.00		-6.00		1.445e-02		128.126		3.116e-03		16.570
3		0.00		-5.60		1.399e-02		127.395		3.106e-03		10.329
3		0.00		-5.20		1.366e-02		126.579		2.991e-03		9.553
3		0.00		-4.80		1.366e-02		129.981		2.776e-03		9.186
3		0.00		-4.40		1.312e-02		125.454		2.348e-03		10.104
3		0.00		-4.00		1.293e-02		126.202		2.836e-03		10.361
3		0.00		-3.60		1.275e-02		128.347		2.491e-03		10.195
3		0.00		-3.20		1.302e-02		128.404		2.456e-03		9.223
3		0.00		-2.80		1.256e-02		126.824		2.416e-03		11.161
3		0.00		-2.40		1.251e-02		127.864		2.565e-03		11.329
3		0.00		-2.00		1.212e-02		131.019		2.492e-03		9.534
3		0.00		-1.60		1.177e-02		129.283		2.542e-03		11.657
3		0.00		-1.20		1.180e-02		125.379		2.726e-03		12.343
3		0.00		-0.80		1.142e-02		126.911		2.635e-03		10.009
3		0.00		-0.40		1.107e-02		127.297		2.581e-03		13.778
4		0.00		0.00		1.140e-02		119.990		2.923e-03		18.380
4		0.00		0.40		1.075e-02		125.320		2.508e-03		14.375
4		0.00		0.80		1.065e-02		122.783		2.674e-03		13.525
4		0.00		1.20		1.033e-02		127.629		2.648e-03		13.562
4		0.00		1.60		9.643e-03		122.866		2.277e-03		12.988
4		0.00		2.00		9.361e-03		124.096		2.336e-03		12.563
4		0.00		2.40		8.859e-03		125.574		2.115e-03		11.227
4		0.00		2.80		8.387e-03		123.083		2.065e-03		13.140
4		0.00		3.20		7.197e-03		127.312		1.663e-03		15.031
4		0.00		3.60		6.086e-03		129.068		1.862e-03		21.354
4		0.00		4.00		4.999e-03		128.569		1.578e-03		19.262
4		0.00		4.40		4.153e-03		115.690		1.235e-03		29.909
4		0.00		4.80		3.491e-03		113.272		1.289e-03		43.302
4		0.00		5.20		2.568e-03		88.910		1.065e-03		67.291
4		0.00		5.60		1.875e-03		28.330		7.734e-04		87.886
4		0.00		6.00		1.879e-03		-17.204		8.005e-04		71.120
4		0.00		6.40		1.862e-03		-30.955		7.709e-04		55.482
4		0.00		6.80		2.691e-03		-44.136		1.074e-03		38.245
4		0.00		7.20		3.397e-03		-53.261		1.228e-03		26.852
4		0.00		7.60		4.734e-03		-52.950		1.518e-03		23.367
4		0.00		8.00		5.972e-03		-58.791		1.328e-03		14.307
4		0.00		8.40		7.241e-03		-51.050		1.875e-03		15.821
4		0.00		8.80		9.448e-03		-53.727		2.507e-03		11.383
4		0.00		9.20		1.072e-02		-52.087		2.772e-03		12.054
4		0.00		9.60		1.391e-02		-52.129		3.435e-03		9.516
4		0.00		10.00		1.658e-02		-51.479		3.831e-03		12.889
4		0.00		9.60		1.794e-02		-52.181		4.106e-03		8.682
4		0.00		9.20		1.905e-02		-51.609		3.976e-03		9.868
4		0.00		8.80		1.953e-02		-53.861		4.009e-03		9.365
4		0.00		8.40		1.929e-02		-53.743		3.718e-03		9.323
4		0.00		8.00		2.010e-02		-52.637		4.019e-03		8.254
4		0.00		7.60		1.991e-02		-52.229		3.999e-03		8.825
4		0.00		7.20		1.977e-02		-51.905		3.706e-03		9.678
4		0.00		6.80		2.047e-02		-54.001		4.014e-03		8.590
4		0.00		6.40		2.012e-02		-53.992		3.769e-03		9.893
4		0.00		6.00		1.965e-02		-51.583		3.986e-03		8.151
4		0.00		5.60		1.976e-02		-52.998		4.241e-03		9.433
4		0.00		5.20		1.909e-02		-51.511		4.379e-03		10.253
4		0.00		4.80		1.887e-02		-55.224		4.169e-03		10.640
4		0.00		4.40		1.921e-02		-52.637		4.024e-03		8.422
4		0.00		4.00		1.859e-02		-52.117		4.216e-03		10.412
4		0.00		3.60		1.785e-02		-50.881		4.218e-03		10.436
4		0.00		3.20		1.834e-02		-52.547		4.302e-03		11.159
4		0.00		2.80		1.803e-02		-50.537		4.027e-03		12.708
4		0.00		2.40		1.780e-02		-52.080		4.136e-03		11.287
4		0.00		2.00		1.718e-02		-48.768		3.942e-03		13.372
4		0.00		1.60		1.710e-02		-51.083		4.149e-03		13.790
4		0.00		1.20		1.707e-02		-49.807		3.983e-03		11.742
4		0.00		0.80		1.737e-02		-50.333		4.349e-03		11.021
4		0.00		0.40		1.704e-02		-51.370		4.293e-03		10.853
4		0.00		0.00		1.745e-02		-50.725		4.035e-03		8.829
4		0.00		-0.40		1.678e-02		-49.800		4.080e-03		8.903
4		0.00		-0.80		1.682e-02		-50.333		3.770e-03		9.134
4		0.00		-1.20		1.662e-02		-53.151		3.582e-03		9.566
4		0.00		-1.60		1.673e-02		-53.087		3.581e-03		10.212
4		0.00		-2.00		1.674e-02		-50.935		3.407e-03		10.324
4		0.00		-2.40		1.588e-02		-50.619		3.331e-03		11.063
4		0.00		-2.80		1.566e-02		-53.069		3.222e-03		9.496
4		0.00		-3.20		1.530e-02		-51.796		2.809e-03		10.739
4		0.00		-3.60		1.523e-02		-53.043		2.911e-03		9.817
4		0.00		-4.00		1.399e-02		-52.540		2.676e-03		9.003
4		0.00		-4.40		1.365e-02		-53.922		2.580e-03		9.479
4		0.00		-4.80		1.294e-02		-52.690		2.281e-03		11.005
4		0.00		-5.20		1.209e-02		-51.177		2.406e-03		8.004
4		0.00		-5.60		1.044e-02		-50.285		2.182e-03		11.902
4		0.00		-6.00		9.334e-03		-50.752		1.876e-03		12.143
4		0.00		-6.40		7.955e-03		-52.587		1.831e-03		14.200
4		0.00		-6.80		6.138e-03		-41.548		1.606e-03		13.932
4		0.00		-7.20		3.698e-03		-57.244		1.183e-03		31.063
4		0.00		-7.60		1.980e-03		-21.888		7.463e-04		65.979
4		0.00		-8.00		2.159e-03		60.681		8.427e-04		63.055
4		0.00		-8.40		3.404e-03		109.940		1.320e-03		45.940
4		0.00		-8.80		5.722e-03		124.461		1.558e-03		15.760
4		0.00		-9.20		7.601e-03		125.231		2.323e-03		17.694
4		0.00		-9.60		9.756e-03		124.169		2.696e-03		15.431
4		0.00		-10.00		1.188e-02		123.063		2.986e-03		12.789
4		0.00		-9.60		1.358e-02		124.151		3.521e-03		13.665
4		0.00		-9.20		1.360e-02		126.618		3.670e-03		13.373
4		0.00		-8.80		1.416e-02		125.504		3.663e-03		13.550
4		0.00		-8.40		1.429e-02		125.682		3.747e-03		15.616
4		0.00		-8.00		1.430e-02		123.571		3.877e-03		15.606
4		0.00		-7.60		1.403e-02		126.626		3.558e-03		13.381
4		0.00		-7.20		1.410e-02		125.262		3.311e-03		15.321
4		0.00		-6.80		1.349e-02		126.422		3.207e-03		13.516
4		0.00		-6.40		1.326e-02		126.338		2.949e-03		15.003
4		0.00		-6.00		1.272e-02		125.492		3.236e-03		17.991
4		0.00		-5.60		1.309e-02		126.604		3.204e-03		15.119
4		0.00		-5.20		1.256e-02		128.548		3.148e-03		16.779
4		0.00		-4.80		1.221e-02		126.384		3.193e-03		19.020
4		0.00		-4.40		1.186e-02		124.064		2.903e-03		13.756
4		0.00		-4.00		1.180e-02		123.483		3.197e-03		17.590
4		0.00		-3.60		1.207e-02		124.714		2.882e-03		16.714
4		0.00		-3.20		1.167e-02		125.227		3.059e-03		13.827
4		0.00		-2.80		1.139e-02		125.723		2.703e-03		18.176
4		0.00		-2.40		1.121e-02		121.980		3.085e-03		15.972
4		0.00		-2.00		1.113e-02		123.455		3.003e-03		19.480
4		0.00		-1.60		1.120e-02		121.244		2.916e-03		16.104
4		0.00		-1.20		1.076e-02		123.257		2.912e-03		20.446
4		0.00		-0.80		1.090e-02		122.640		3.049e-03		19.442
4		0.00		-0.40		1.059e-02		128.518		2.878e-03		13.030
5		0.00		0.00		1.091e-02		119.404		3.123e-03		20.626
5		0.00		0.40		1.079e-02		129.514		2.831e-03		13.855
5		0.00		0.80		1.068e-02		129.148		2.673e-03		16.839
5		0.00		1.20		1.027e-02		124.593		2.456e-03		15.190
5		0.00		1.60		9.328e-03		128.540		2.194e-03		14.160
5		0.00		2.00		8.957e-03		126.036		2.444e-03		17.018
5		0.00		2.40		8.283e-03		129.008		2.398e-03		16.003
5		0.00		2.80		7.983e-03		127.243		2.222e-03		17.095
5		0.00		3.20		6.723e-03		122.766		2.011e-03		17.915
5		0.00		3.60		5.761e-03		126.053		1.890e-03		22.958
5		0.00		4.00		5.447e-03		122.962		1.733e-03		27.421
5		0.00		4.40		4.161e-03		120.003		1.566e-03		31.949
5		0.00		4.80		3.712e-03		120.995		1.445e-03		37.717
5		0.00		5.20		3.058e-03		105.135		1.157e-03		56.250
5		0.00		5.60		2.311e-03		71.655		9.226e-04		69.403
5		0.00		6.00		1.915e-03		36.671		6.986e-04		84.355
5		0.00		6.40		1.818e-03		-17.015		6.948e-04		77.342
5		0.00		6.80		2.049e-03		-44.217		8.134e-04		51.481
5		0.00		7.20		2.933e-03		-56.983		1.080e-03		29.080
5		0.00		7.60		3.602e-03		-48.021		1.332e-03		31.878
5		0.00		8.00		4.755e-03		-49.899		1.566e-03		21.914
5		0.00		8.40		6.550e-03		-52.249		1.869e-03		20.200
5		0.00		8.80		7.570e-03		-52.020		2.274e-03		15.497
5		0.00		9.20		9.249e-03		-54.330		2.323e-03		13.069
5		0.00		9.60		1.067e-02		-54.908		2.880e-03		11.037
5		0.00		10.00		1.370e-02		-51.360		3.540e-03		11.768
5		0.00		9.60		1.516e-02		-55.958		3.777e-03		12.156
5		0.00		9.20		1.642e-02		-48.912		4.185e-03		9.150
5		0.00		8.80		1.667e-02		-53.279		4.107e-03		8.749
5		0.00		8.40		1.694e-02		-51.779		4.167e-03		10.759
5		0.00		8.00		1.684e-02		-51.282		4.063e-03		10.148
5		0.00		7.60		1.709e-02		-54.597		4.112e-03		9.903
5		0.00		7.20		1.721e-02		-50.938		3.980e-03		8.587
5		0.00		6.80		1.685e-02		-51.648		3.791e-03		9.916
5		0.00		6.40		1.723e-02		-52.649		3.779e-03		9.617
5		0.00		6.00		1.685e-02		-50.798		3.956e-03		9.141
5		0.00		5.60		1.660e-02		-53.791		3.996e-03		12.996
5		0.00		5.20		1.674e-02		-52.632		3.654e-03		9.070
5		0.00		4.80		1.659e-02		-49.862		3.382e-03		11.410
5		0.00		4.40		1.633e-02		-52.976		3.253e-03		9.948
5		0.00		4.00		1.620e-02		-50.503		3.519e-03		10.586
5		0.00		3.60		1.603e-02		-51.859		3.197e-03		10.052
5		0.00		3.20		1.573e-02		-52.219		3.054e-03		9.588
5		0.00		2.80		1.529e-02		-49.738		3.234e-03		11.084
5		0.00		2.40		1.536e-02		-53.883		3.035e-03		9.731
5		0.00		2.00		1.513e-02		-52.787		3.083e-03		10.474
5		0.00		1.60		1.544e-02		-52.086		3.427e-03		9.441
5		0.00		1.20		1.554e-02		-52.148		3.036e-03		10.261
5		0.00		0.80		1.523e-02		-51.129		3.461e-03		10.616
5		0.00		0.40		1.526e-02		-52.981		3.342e-03		12.817
5		0.00		0.00		1.435e-02		-49.975		3.672e-03		10.312
5		0.00		-0.40		1.443e-02		-49.331		3.678e-03		12.749
5		0.00		-0.80		1.398e-02		-50.889		3.652e-03		12.822
5		0.00		-1.20		1.401e-02		-49.957		3.747e-03		11.911
5		0.00		-1.60		1.392e-02		-50.857		3.695e-03		13.805
5		0.00		-2.00		1.344e-02		-51.729		3.735e-03		14.548
5		0.00		-2.40		1.329e-02		-52.040		3.759e-03		18.088
5		0.00		-2.80		1.275e-02		-51.353		3.437e-03		14.591
5		0.00		-3.20		1.248e-02		-52.101		3.639e-03		12.696
5		0.00		-3.60		1.230e-02		-46.960		3.261e-03		12.276
5		0.00		-4.00		1.214e-02		-48.688		3.043e-03		10.705
5		0.00		-4.40		1.146e-02		-50.231		2.839e-03		10.274
5		0.00		-4.80		1.090e-02		-48.892		2.665e-03		11.401
5		0.00		-5.20		9.542e-03		-49.345		2.239e-03		12.069
5		0.00		-5.60		8.813e-03		-58.352		2.177e-03		15.010
5		0.00		-6.00		7.956e-03		-48.600		1.777e-03		13.198
5		0.00		-6.40		6.047e-03		-56.097		1.526e-03		19.227
5		0.00		-6.80		4.809e-03		-52.420		1.356e-03		21.437
5		0.00		-7.20		3.297e-03		-46.263		1.273e-03		32.459
5		0.00		-7.60		2.050e-03		-37.694		9.010e-04		51.454
5		0.00		-8.00		1.983e-03		61.703		1.042e-03		73.890
5		0.00		-8.40		3.476e-03		107.577		1.289e-03		46.312
5		0.00		-8.80		5.083e-03		118.857		1.680e-03		24.913
5		0.00		-9.20		7.428e-03		117.910		2.045e-03		17.480
5		0.00		-9.60		9.343e-03		121.379		2.651e-03		20.897
5		0.00		-10.00		1.176e-02		123.668		3.298e-03		15.291
5		0.00		-9.60		1.249e-02		123.728		3.718e-03		13.389
5		0.00		-9.20		1.312e-02		126.808		3.886e-03		10.224
5		0.00		-8.80		1.351e-02		126.799		3.444e-03		9.984
5		0.00		-8.40		1.365e-02		126.397		3.292e-03		8.373
5		0.00		-8.00		1.381e-02		123.932		2.878e-03		8.681
5		0.00		-7.60		1.331e-02		126.367		3.043e-03		10.297
5		0.00		-7.20		1.332e-02		126.408		2.754e-03		11.819
5		0.00		-6.80		1.273e-02		125.499		2.704e-03		10.212
5		0.00		-6.40		1.267e-02		128.329		2.996e-03		11.905
5		0.00		-6.00		1.219e-02		124.673		2.824e-03		14.774
5		0.00		-5.60		1.167e-02		125.137		2.825e-03		15.720
5		0.00		-5.20		1.200e-02		125.084		3.154e-03		15.221
5		0.00		-4.80		1.138e-02		128.224		3.010e-03		15.751
5		0.00		-4.40		1.173e-02		126.127		3.126e-03		11.500
5		0.00		-4.00		1.133e-02		126.520		3.124e-03		12.214
5		0.00		-3.60		1.121e-02		124.473		2.970e-03		12.215
5		0.00		-3.20		1.104e-02		125.507		2.842e-03		9.645
5		0.00		-2.80		1.073e-02		125.458		2.575e-03		11.213
5		0.00		-2.40		1.061e-02		125.715		2.496e-03		10.589
5		0.00		-2.00		1.000e-02		123.408		2.718e-03		14.398
5		0.00		-1.60		1.002e-02		121.739		2.658e-03		13.565
5		0.00		-1.20		1.025e-02		124.301		2.792e-03		16.909
5		0.00		-0.80		9.827e-03		121.436		2.909e-03		25.461
5		0.00		-0.40		9.787e-03		125.274		2.873e-03		16.960
6		0.00		0.00		9.513e-03		125.420		2.520e-03		13.904
6		0.00		0.40		9.713e-03		123.446		2.534e-03		13.228
6		0.00		0.80		1.019e-02		127.579		2.035e-03		10.068
6		0.00		1.20		9.456e-03		130.192		1.869e-03		10.632
6		0.00		1.60		9.498e-03		128.893		1.977e-03		10.258
6		0.00		2.00		8.830e-03		128.309		1.779e-03		14.592
6		0.00		2.40		8.054e-03		128.576		1.934e-03		14.206
6		0.00		2.80		7.387e-03		125.766		2.073e-03		15.441
6		0.00		3.20		6.361e-03		121.772		1.838e-03		25.571
6		0.00		3.60		5.717e-03		123.641		1.660e-03		36.308
6		0.00		4.00		4.751e-03		126.493		1.413e-03		22.364
6		0.00		4.40		3.959e-03		117.004		1.247e-03		25.970
6		0.00		4.80		3.268e-03		104.636		1.315e-03		54.085
6		0.00		5.20		2.628e-03		101.917		1.037e-03		52.421
6		0.00		5.60		1.970e-03		33.105		8.799e-04		87.902
6		0.00		6.00		1.786e-03		-10.242		7.287e-04		93.635
6		0.00		6.40		1.796e-03		-24.055		6.922e-04		79.908
6		0.00		6.80		2.252e-03		-52.122		9.706e-04		52.538
6		0.00		7.20		2.860e-03		-50.879		1.232e-03		36.484
6		0.00		7.60		3.748e-03		-63.836		1.251e-03		24.767
6		0.00		8.00		4.894e-03		-50.589		1.320e-03		22.398
6		0.00		8.40		6.388e-03		-50.433		1.512e-03		20.178
6		0.00		8.80		7.848e-03		-52.197		1.823e-03		16.827
6		0.00		9.20		9.451e-03		-54.104		2.060e-03		14.204
6		0.00		9.60		1.131e-02		-54.279		2.757e-03		16.684
6		0.00		10.00		1.369e-02		-49.167		3.481e-03		13.822
6		0.00		9.60		1.465e-02		-49.797		3.807e-03		10.454
6		0.00		9.20		1.584e-02		-48.463		3.809e-03		12.052
6		0.00		8.80		1.631e-02		-52.479		3.902e-03		9.686
6		0.00		8.40		1.733e-02		-50.732		3.718e-03		9.081
6		0.00		8.00		1.709e-02		-51.299		3.641e-03		8.580
6		0.00		7.60		1.662e-02		-51.011		3.505e-03		10.385
6		0.00		7.20		1.636e-02		-51.196		3.615e-03		10.034
6		0.00		6.80		1.613e-02		-48.288		4.153e-03		10.798
6		0.00		6.40		1.561e-02		-51.757		4.247e-03		13.378
6		0.00		6.00		1.535e-02		-52.316		4.458e-03		14.581
6		0.00		5.60		1.517e-02		-51.345		4.312e-03		11.168
6		0.00		5.20		1.552e-02		-51.593		4.395e-03		10.211
6		0.00		4.80		1.541e-02		-50.997		3.607e-03		11.809
6		0.00		4.40		1.530e-02		-53.853		3.270e-03		9.379
6		0.00		4.00		1.552e-02		-52.152		3.477e-03		10.132
6		0.00		3.60		1.498e-02		-51.132		3.371e-03		10.943
6		0.00		3.20		1.485e-02		-51.940		3.406e-03		11.497
6		0.00		2.80		1.468e-02		-51.737		3.780e-03		15.731
6		0.00		2.40		1.444e-02		-46.090		3.775e-03		10.371
6		0.00		2.00		1.406e-02		-49.617		3.531e-03		12.162
6		0.00		1.60		1.431e-02		-51.202		3.429e-03		10.170
6		0.00		1.20		1.458e-02		-49.771		3.054e-03		10.144
6		0.00		0.80		1.458e-02		-54.046		2.937e-03		10.408
6		0.00		0.40		1.445e-02		-51.599		2.970e-03		11.126
6		0.00		0.00		1.432e-02		-47.049		3.269e-03		11.103
6		0.00		-0.40		1.410e-02		-52.126		3.122e-03		11.815
6		0.00		-0.80		1.383e-02		-47.762		3.663e-03		12.444
6		0.00		-1.20		1.351e-02		-52.450		3.569e-03		12.562
6		0.00		-1.60		1.344e-02		-54.764		3.520e-03		12.631
6		0.00		-2.00		1.376e-02		-50.983		3.128e-03		11.243
6		0.00		-2.40		1.342e-02		-50.786		2.568e-03		11.235
6		0.00		-2.80		1.339e-02		-48.636		2.682e-03		10.590
6		0.00		-3.20		1.296e-02		-49.362		2.810e-03		10.333
6		0.00		-3.60		1.245e-02		-48.754		2.908e-03		12.915
6		0.00		-4.00		1.158e-02		-51.395		2.958e-03		14.928
6		0.00		-4.40		1.113e-02		-50.772		2.675e-03		13.396
6		0.00		-4.80		1.052e-02		-54.809		2.633e-03		15.071
6		0.00		-5.20		9.760e-03		-49.233		2.261e-03		13.759
6		0.00		-5.60		9.175e-03		-48.448		2.035e-03		12.826
6		0.00		-6.00		7.725e-03		-51.295		1.760e-03		13.092
6		0.00		-6.40		6.065e-03		-47.302		1.484e-03		18.025
6		0.00		-6.80		4.650e-03		-38.531		1.404e-03		20.239
6		0.00		-7.20		3.123e-03		-31.513		1.187e-03		31.367
6		0.00		-7.60		1.812e-03		-20.185		8.507e-04		66.482
6		0.00		-8.00		2.101e-03		58.591		8.683e-04		67.594
6		0.00		-8.40		3.719e-03		113.056		1.331e-03		35.931
6		0.00		-8.80		6.452e-03		124.291		2.070e-03		17.761
6		0.00		-9.20		8.115e-03		119.859		2.395e-03		13.769
6		0.00		-9.60		1.043e-02		123.072		2.700e-03		14.309
6		0.00		-10.00		1.167e-02		123.573		2.703e-03		10.286
6		0.00		-9.60		1.274e-02		126.313		2.627e-03		10.390
6		0.00		-9.20		1.406e-02		123.389		3.094e-03		10.929
6		0.00		-8.80		1.414e-02		127.814		3.485e-03		9.986
6		0.00		-8.40		1.394e-02		125.748		3.699e-03		12.771
6		0.00		-8.00		1.367e-02		123.602		3.710e-03		16.581
6		0.00		-7.60		1.363e-02		124.410		3.738e-03		19.534
6		0.00		-7.20		1.311e-02		124.271		3.702e-03		14.991
6		0.00		-6.80		1.296e-02		125.093		3.382e-03		12.359
6		0.00		-6.40		1.279e-02		128.683		3.101e-03		9.275
6		0.00		-6.00		1.264e-02		127.013		2.966e-03		8.904
6		0.00		-5.60		1.256e-02		127.049		2.546e-03		10.668
6		0.00		-5.20		1.261e-02		126.542		2.627e-03		9.282
6		0.00		-4.80		1.223e-02		126.375		2.716e-03		12.246
6		0.00		-4.40		1.178e-02		125.108		2.946e-03		13.311
6		0.00		-4.00		1.141e-02		124.870		2.697e-03		14.559
6		0.00		-3.60		1.125e-02		125.652		2.889e-03		15.491
6		0.00		-3.20		1.095e-02		122.057		3.047e-03		15.784
6		0.00		-2.80		1.087e-02		123.069		3.046e-03		14.060
6		0.00		-2.40		1.107e-02		125.701		2.766e-03		11.399
6		0.00		-2.00		1.077e-02		125.842		2.678e-03		10.218
6		0.00		-1.60		1.048e-02		125.800		2.281e-03		10.952
6		0.00		-1.20		1.110e-02		124.470		2.412e-03		10.368
6		0.00		-0.80		1.082e-02		128.741		2.297e-03		11.435
6		0.00		-0.40		1.026e-02		127.767		2.126e-03		10.976
7		0.00		0.00		1.034e-02		125.515		2.716e-03		13.679
7		0.00		0.40		9.943e-03		126.966		2.611e-03		15.465
7		0.00		0.80		9.669e-03		124.824		2.377e-03		16.977
7		0.00		1.20		9.321e-03		126.374		2.339e-03		15.916
7		0.00		1.60		9.209e-03		126.836		2.435e-03		15.081
7		0.00		2.00		8.435e-03		126.732		2.114e-03		14.577
7		0.00		2.40		7.473e-03		125.482		1.998e-03		13.135
7		0.00		2.80		7.479e-03		127.677		1.779e-03		15.349
7		0.00		3.20		6.671e-03		127.901		1.645e-03		14.107
7		0.00		3.60		5.735e-03		129.956		1.541e-03		15.260
7		0.00		4.00		4.634e-03		124.548		1.625e-03		30.880
7		0.00		4.40		4.046e-03		118.505		1.359e-03		32.753
7		0.00		4.80		3.624e-03		99.345		1.293e-03		54.095
7		0.00		5.20		2.889e-03		92.519		1.176e-03		75.959
7		0.00		5.60		2.357e-03		58.357		8.234e-04		88.694
7		0.00		6.00		1.946e-03		41.522		8.168e-04		82.502
7		0.00		6.40		1.757e-03		-31.914		7.579e-04		75.172
7		0.00		6.80		1.979e-03		-32.305		8.139e-04		45.072
7		0.00		7.20		2.801e-03		-43.190		8.777e-04		35.076
7		0.00		7.60		3.667e-03		-48.282		1.437e-03		31.903
7		0.00		8.00		4.667e-03		-63.666		1.650e-03		28.783
7		0.00		8.40		5.842e-03		-51.147		1.939e-03		21.829
7		0.00		8.80		7.204e-03		-54.700		2.251e-03		18.045
7		0.00		9.20		8.232e-03		-54.662		2.122e-03		12.641
7		0.00		9.60		9.950e-03		-59.214		2.638e-03		9.606
7		0.00		10.00		1.249e-02		-53.561		2.603e-03		10.312
7		0.00		9.60		1.385e-02		-51.083		2.801e-03		10.959
7		0.00		9.20		1.470e-02		-54.149		2.768e-03		10.937
7		0.00		8.80		1.504e-02		-52.562		3.091e-03		10.371
7		0.00		8.40		1.514e-02		-50.103		3.438e-03		10.790
7		0.00		8.00		1.502e-02		-51.809		3.660e-03		12.353
7		0.00		7.60		1.483e-02		-52.155		3.736e-03		12.071
7		0.00		7.20		1.548e-02		-48.298		3.779e-03		9.961
7		0.00		6.80		1.530e-02		-51.922		3.796e-03		11.043
7		0.00		6.40		1.543e-02		-51.426		3.479e-03		9.962
7		0.00		6.00		1.541e-02		-52.844		3.049e-03		10.611
7		0.00		5.60		1.505e-02		-49.788		3.048e-03		10.611
7		0.00		5.20		1.493e-02		-53.746		3.181e-03		9.624
7		0.00		4.80		1.450e-02		-49.992		3.232e-03		11.142
7		0.00		4.40		1.433e-02		-51.957		3.426e-03		11.243
7		0.00		4.00		1.418e-02		-49.704		3.714e-03		12.894
7		0.00		3.60		1.348e-02		-48.123		3.457e-03		13.000
7		0.00		3.20		1.424e-02		-50.570		3.217e-03		9.958
7		0.00		2.80		1.411e-02		-49.576		2.842e-03		9.049
7		0.00		2.40		1.423e-02		-50.846		2.793e-03		10.848
7		0.00		2.00		1.427e-02		-53.447		3.005e-03		11.098
7		0.00		1.60		1.404e-02		-50.440		2.997e-03		9.723
7		0.00		1.20		1.353e-02		-51.472		2.882e-03		12.003
7		0.00		0.80		1.360e-02		-46.222		3.237e-03		12.566
7		0.00		0.40		1.366e-02		-50.443		3.096e-03		10.449
7		0.00		0.00		1.326e-02		-50.611		3.022e-03		10.444
7		0.00		-0.40		1.350e-02		-50.019		2.807e-03		10.411
7		0.00		-0.80		1.372e-02		-51.607		2.698e-03		9.659
7		0.00		-1.20		1.356e-02		-49.724		2.675e-03		11.839
7		0.00		-1.60		1.300e-02		-50.456		2.535e-03		10.895
7		0.00		-2.00		1.220e-02		-49.044		2.924e-03		12.315
7		0.00		-2.40		1.210e-02		-48.548		2.873e-03		13.119
7		0.00		-2.80		1.138e-02		-46.546		3.189e-03		15.644
7		0.00		-3.20		1.089e-02		-52.795		3.180e-03		13.173
7		0.00		-3.60		1.100e-02		-49.426		3.098e-03		12.552
7		0.00		-4.00		1.033e-02		-50.424		2.959e-03		11.668
7		0.00		-4.40		1.058e-02		-48.120		2.618e-03		11.687
7		0.00		-4.80		9.482e-03		-50.301		2.287e-03		14.293
7		0.00		-5.20		8.816e-03		-55.722		1.766e-03		12.444
7		0.00		-5.60		8.041e-03		-49.942		2.074e-03		14.451
7		0.00		-6.00		6.471e-03		-43.010		1.579e-03		18.694
7		0.00		-6.40		5.380e-03		-53.510		1.560e-03		18.107
7		0.00		-6.80		3.959e-03		-52.438		1.279e-03		20.767
7		0.00		-7.20		2.423e-03		-43.809		1.038e-03		42.395
7		0.00		-7.60		1.982e-03		-15.394		8.037e-04		82.273
7		0.00		-8.00		2.324e-03		64.207		1.050e-03		70.255
7		0.00		-8.40		4.218e-03		113.719		1.467e-03		23.845
7		0.00		-8.80		5.353e-03		118.121		1.616e-03		16.169
7		0.00		-9.20		8.898e-03		122.716		2.073e-03		10.798
7		0.00		-9.60		1.040e-02		121.621		2.372e-03		9.720
7		0.00		-10.00		1.258e-02		126.456		2.755e-03		10.330
7		0.00		-9.60		1.252e-02		124.970		3.205e-03		12.099
7		0.00		-9.20		1.296e-02		122.330		3.572e-03		20.037
7		0.00		-8.80		1.284e-02		120.218		3.583e-03		18.335
7		0.00		-8.40		1.350e-02		125.903		3.675e-03		11.164
7		0.00		-8.00		1.283e-02		124.854		3.291e-03		10.327
7		0.00		-7.60		1.376e-02		124.959		3.027e-03		8.575
7		0.00		-7.20		1.323e-02		124.677		2.922e-03		8.643
7		0.00		-6.80		1.334e-02		124.559		2.694e-03		10.184
7		0.00		-6.40		1.280e-02		125.022		2.637e-03		10.226
7		0.00		-6.00		1.280e-02		125.818		3.114e-03		11.584
7		0.00		-5.60		1.260e-02		123.371		3.124e-03		15.792
7		0.00		-5.20		1.228e-02		124.283		3.315e-03		16.992
7		0.00		-4.80		1.206e-02		124.942		3.083e-03		9.896
7		0.00		-4.40		1.173e-02		125.934		2.613e-03		9.852
7		0.00		-4.00		1.160e-02		123.318		2.316e-03		9.656
7		0.00		-3.60		1.171e-02		127.997		2.049e-03		10.537
7		0.00		-3.20		1.128e-02		129.789		2.215e-03		10.220
7		0.00		-2.80		1.096e-02		124.120		2.532e-03		12.613
7		0.00		-2.40		1.087e-02		126.516		2.754e-03		11.839
7		0.00		-2.00		1.127e-02		125.662		3.024e-03		11.594
7		0.00		-1.60		1.074e-02		128.982		3.030e-03		10.077
7		0.00		-1.20		1.033e-02		126.770		2.736e-03		11.171
7		0.00		-0.80		1.018e-02		126.291		2.587e-03		10.627
7		0.00		-0.40		1.018e-02		128.666		2.489e-03		10.522
8		0.00		0.00		1.032e-02		127.658		2.516e-03		13.693
8		0.00		0.40		9.595e-03		126.124		2.355e-03		14.516
8		0.00		0.80		9.418e-03		123.557		2.468e-03		20.118
8		0.00		1.20		9.204e-03		121.395		2.646e-03		24.674
8		0.00		1.60		8.851e-03		126.108		2.519e-03		11.956
8		0.00		2.00		8.506e-03		121.557		2.051e-03		10.737
8		0.00		2.40		8.112e-03		127.928		1.775e-03		12.588
8		0.00		2.80		7.711e-03		123.930		1.938e-03		13.035
8		0.00		3.20		6.779e-03		125.622		1.800e-03		12.581
8		0.00		3.60		6.062e-03		124.162		1.797e-03		19.313
8		0.00		4.00		4.952e-03		127.086		1.454e-03		21.312
8		0.00		4.40		4.074e-03		116.952		1.512e-03		33.259
8		0.00		4.80		3.360e-03		120.346		1.173e-03		35.270
8		0.00		5.20		3.064e-03		88.639		1.210e-03		69.198
8		0.00		5.60		2.125e-03		64.713		8.817e-04		69.357
8		0.00		6.00		1.667e-03		6.093		5.977e-04		87.136
8		0.00		6.40		2.011e-03		-18.233		7.538e-04		64.989
8		0.00		6.80		2.107e-03		-45.488		8.171e-04		60.511
8		0.00		7.20		2.616e-03		-54.197		1.073e-03		36.870
8		0.00		7.60		3.417e-03		-59.949		1.149e-03		23.752
8		0.00		8.00		4.614e-03		-42.404		1.603e-03		22.416
8		0.00		8.40		5.557e-03		-46.977		1.759e-03		21.181
8		0.00		8.80		7.056e-03		-54.532		1.928e-03		11.966
8		0.00		9.20		8.599e-03		-53.450		2.139e-03		13.046
8		0.00		9.60		1.136e-02		-53.418		2.384e-03		12.119
8		0.00		10.00		1.309e-02		-48.833		2.651e-03		11.823
8		0.00		9.60		1.413e-02		-49.331		3.230e-03		12.429
8		0.00		9.20		1.486e-02		-49.120		3.588e-03		12.653
8		0.00		8.80		1.470e-02		-49.452		4.076e-03		12.745
8		0.00		8.40		1.529e-02		-48.830		3.866e-03		11.705
8		0.00		8.00		1.489e-02		-56.687		3.647e-03		9.527
8		0.00		7.60		1.548e-02		-51.622		3.150e-03		10.479
8		0.00		7.20		1.537e-02		-51.457		2.665e-03		11.988
8		0.00		6.80		1.534e-02		-53.090		2.876e-03		11.164
8		0.00		6.40		1.475e-02		-49.888		3.374e-03		11.156
8		0.00		6.00		1.443e-02		-51.104		3.626e-03		14.703
8		0.00		5.60		1.442e-02		-48.405		3.582e-03		11.790
8		0.00		5.20		1.432e-02		-53.854		4.065e-03		11.846
8		0.00		4.80		1.374e-02		-52.245		3.607e-03		12.542
8		0.00		4.40		1.387e-02		-50.541		3.195e-03		11.445
8		0.00		4.00		1.395e-02		-52.813		3.288e-03		11.830
8		0.00		3.60		1.397e-02		-52.875		3.307e-03		11.651
8		0.00		3.20		1.364e-02		-53.600		3.367e-03		11.281
8		0.00		2.80		1.301e-02		-52.753		3.474e-03		13.206
8		0.00		2.40		1.279e-02		-47.522		3.909e-03		14.170
8		0.00		2.00		1.294e-02		-52.749		3.691e-03		14.663
8		0.00		1.60		1.322e-02		-51.131		3.304e-03		9.813
8		0.00		1.20		1.311e-02		-50.827		2.841e-03		9.869
8		0.00		0.80		1.302e-02		-52.432		2.774e-03		10.959
8		0.00		0.40		1.366e-02		-51.608		2.758e-03		10.962
8		0.00		0.00		1.331e-02		-52.406		2.936e-03		12.012
8		0.00		-0.40		1.282e-02		-48.457		3.338e-03		15.093
8		0.00		-0.80		1.256e-02		-48.744		3.350e-03		18.009
8		0.00		-1.20		1.233e-02		-49.498		3.137e-03		12.200
8		0.00		-1.60		1.253e-02		-52.283		3.044e-03		12.195
8		0.00		-2.00		1.235e-02		-49.704		2.658e-03		10.635
8		0.00		-2.40		1.192e-02		-53.006		2.687e-03		11.662
8		0.00		-2.80		1.172e-02		-50.512		2.745e-03		12.851
8		0.00		-3.20		1.148e-02		-47.484		2.944e-03		11.658
8		0.00		-3.60		1.088e-02		-51.970		3.004e-03		14.421
8		0.00		-4.00		1.076e-02		-53.567		3.070e-03		13.038
8		0.00		-4.40		1.063e-02		-50.676		2.441e-03		11.817
8		0.00		-4.80		9.880e-03		-48.338		2.009e-03		13.224
8		0.00		-5.20		9.303e-03		-49.521		1.967e-03		16.697
8		0.00		-5.60		7.770e-03		-48.883		1.912e-03		15.155
8		0.00		-6.00		6.518e-03		-49.942		2.043e-03		17.350
8		0.00		-6.40		5.136e-03		-40.684		1.852e-03		28.449
8		0.00		-6.80		4.036e-03		-47.011		1.427e-03		18.587
8		0.00		-7.20		2.852e-03		-54.533		1.079e-03		35.496
8		0.00		-7.60		1.934e-03		-37.694		8.878e-04		61.741
8		0.00		-8.00		2.233e-03		65.077		8.930e-04		78.699
8		0.00		-8.40		3.538e-03		111.807		1.164e-03		42.156
8		0.00		-8.80		5.631e-03		116.915		1.694e-03		23.159
8		0.00		-9.20		6.370e-03		120.203		1.957e-03		20.872
8		0.00		-9.60		8.698e-03		120.678		2.471e-03		19.305
8		0.00		-10.00		1.050e-02		123.967		3.074e-03		10.352
8		0.00		-9.60		1.183e-02		123.139		2.878e-03		9.764
8		0.00		-9.20		1.278e-02		124.617		2.654e-03		9.766
8		0.00		-8.80		1.269e-02		128.900		2.689e-03		11.500
8		0.00		-8.40		1.274e-02		129.296		2.985e-03		11.663
8		0.00		-8.00		1.285e-02		122.628		3.578e-03		16.500
8		0.00		-7.60		1.234e-02		121.328		3.868e-03		26.853
8		0.00		-7.20		1.194e-02		124.402		3.567e-03		12.483
8		0.00		-6.80		1.220e-02		124.510		3.426e-03		10.737
8		0.00		-6.40		1.181e-02		128.374		2.739e-03		10.801
8		0.00		-6.00		1.187e-02		122.627		2.795e-03		11.892
8		0.00		-5.60		1.158e-02		124.729		2.841e-03		12.394
8		0.00		-5.20		1.121e-02		129.988		3.136e-03		13.482
8		0.00		-4.80		1.106e-02		124.704		3.195e-03		17.565
8		0.00		-4.40		1.105e-02		122.084		3.041e-03		19.285
8		0.00		-4.00		1.101e-02		124.383		2.872e-03		12.042
8		0.00		-3.60		1.090e-02		127.541		2.494e-03		10.452
8		0.00		-3.20		1.104e-02		126.580		2.393e-03		10.573
8		0.00		-2.80		1.064e-02		126.654		2.428e-03		11.852
8		0.00		-2.40		1.035e-02		127.210		2.176e-03		11.470
8		0.00		-2.00		9.814e-03		128.471		2.469e-03		17.670
8		0.00		-1.60		9.700e-03		127.232		2.541e-03		21.432
8		0.00		-1.20		9.959e-03		127.159		2.607e-03		13.203
8		0.00		-0.80		9.749e-03		126.807		2.391e-03		11.370
8		0.00		-0.40		9.719e-03		128.207		2.242e-03		12.623
