# Date of analysis: 2023-11-20 16;19
# 
# Loop index	Read Volt (V)	Write Volt (V)	Amplitude (a.u)	Phase (deg)	Sigma Amp (a.u)	Sigma Pha (deg)	
1		0.00		0.00		2.870e-02		-52.233		5.523e-03		7.581
1		0.00		0.40		2.888e-02		-53.065		5.692e-03		8.834
1		0.00		0.80		2.869e-02		-51.927		5.621e-03		8.686
1		0.00		1.20		2.852e-02		-53.858		5.406e-03		8.018
1		0.00		1.60		2.829e-02		-52.579		5.427e-03		9.590
1		0.00		2.00		2.835e-02		-51.118		5.608e-03		8.097
1		0.00		2.40		2.820e-02		-53.423		5.712e-03		8.868
1		0.00		2.80		2.779e-02		-51.187		5.279e-03		8.568
1		0.00		3.20		2.766e-02		-49.615		5.583e-03		8.795
1		0.00		3.60		2.805e-02		-50.762		5.756e-03		9.331
1		0.00		4.00		2.803e-02		-52.358		6.040e-03		10.290
1		0.00		4.40		2.793e-02		-51.308		6.389e-03		10.283
1		0.00		4.80		2.888e-02		-51.871		6.510e-03		9.059
1		0.00		5.20		2.891e-02		-52.658		7.201e-03		11.148
1		0.00		5.60		2.968e-02		-49.863		7.718e-03		12.560
1		0.00		6.00		2.950e-02		-52.353		8.018e-03		12.798
1		0.00		6.40		2.844e-02		-52.344		8.382e-03		12.398
1		0.00		6.80		2.981e-02		-52.213		8.735e-03		13.149
1		0.00		7.20		3.090e-02		-53.727		9.026e-03		12.996
1		0.00		7.60		3.119e-02		-53.995		8.984e-03		10.089
1		0.00		8.00		3.296e-02		-52.942		9.506e-03		10.454
1		0.00		8.40		3.302e-02		-52.684		9.551e-03		8.012
1		0.00		8.80		3.702e-02		-52.959		1.046e-02		7.756
1		0.00		9.20		3.966e-02		-53.193		9.824e-03		7.917
1		0.00		9.60		4.169e-02		-53.287		9.695e-03		7.458
1		0.00		10.00		4.406e-02		-53.958		9.605e-03		7.085
1		0.00		9.60		4.531e-02		-52.784		9.099e-03		7.384
1		0.00		9.20		4.622e-02		-52.315		9.399e-03		7.852
1		0.00		8.80		4.731e-02		-54.154		9.633e-03		5.626
1		0.00		8.40		4.688e-02		-52.466		9.121e-03		5.720
1		0.00		8.00		4.634e-02		-52.684		9.229e-03		6.739
1		0.00		7.60		4.602e-02		-51.795		8.621e-03		6.420
1		0.00		7.20		4.642e-02		-52.438		8.622e-03		6.125
1		0.00		6.80		4.438e-02		-51.609		8.841e-03		7.223
1		0.00		6.40		4.409e-02		-51.857		8.375e-03		7.248
1		0.00		6.00		4.327e-02		-51.942		8.163e-03		6.997
1		0.00		5.60		4.304e-02		-52.008		8.420e-03		7.956
1		0.00		5.20		4.275e-02		-52.353		9.166e-03		8.947
1		0.00		4.80		4.191e-02		-51.912		8.656e-03		8.969
1		0.00		4.40		4.176e-02		-51.917		8.890e-03		8.452
1		0.00		4.00		4.207e-02		-52.064		9.219e-03		8.501
1		0.00		3.60		4.178e-02		-51.268		9.586e-03		8.609
1		0.00		3.20		4.084e-02		-50.991		1.011e-02		9.798
1		0.00		2.80		4.107e-02		-51.115		9.398e-03		10.367
1		0.00		2.40		4.095e-02		-50.836		9.575e-03		10.668
1		0.00		2.00		4.132e-02		-50.330		1.044e-02		9.369
1		0.00		1.60		4.114e-02		-51.858		1.020e-02		12.181
1		0.00		1.20		4.180e-02		-51.270		1.059e-02		11.871
1		0.00		0.80		4.192e-02		-51.558		1.054e-02		8.281
1		0.00		0.40		4.184e-02		-51.189		1.060e-02		9.441
1		0.00		0.00		4.108e-02		-52.922		1.009e-02		8.040
1		0.00		-0.40		4.162e-02		-51.768		9.551e-03		7.803
1		0.00		-0.80		4.130e-02		-51.506		9.635e-03		7.379
1		0.00		-1.20		4.068e-02		-51.970		9.243e-03		6.676
1		0.00		-1.60		4.059e-02		-52.313		8.665e-03		6.258
1		0.00		-2.00		3.968e-02		-53.378		8.557e-03		6.435
1		0.00		-2.40		3.792e-02		-51.224		8.213e-03		7.519
1		0.00		-2.80		3.570e-02		-52.240		7.276e-03		7.664
1		0.00		-3.20		3.192e-02		-52.718		7.070e-03		9.011
1		0.00		-3.60		2.896e-02		-53.208		6.215e-03		9.756
1		0.00		-4.00		2.570e-02		-50.836		5.719e-03		9.101
1		0.00		-4.40		2.314e-02		-51.413		5.279e-03		9.943
1		0.00		-4.80		1.951e-02		-50.796		4.324e-03		10.850
1		0.00		-5.20		1.477e-02		-51.371		3.332e-03		13.161
1		0.00		-5.60		1.119e-02		-48.423		2.876e-03		12.678
1		0.00		-6.00		6.986e-03		-39.191		2.257e-03		26.980
1		0.00		-6.40		3.326e-03		-57.549		1.564e-03		43.517
1		0.00		-6.80		2.300e-03		28.987		9.660e-04		67.343
1		0.00		-7.20		3.481e-03		87.365		1.784e-03		62.424
1		0.00		-7.60		6.850e-03		120.260		2.404e-03		38.216
1		0.00		-8.00		9.641e-03		119.209		3.038e-03		23.167
1		0.00		-8.40		1.090e-02		119.574		3.178e-03		15.743
1		0.00		-8.80		1.358e-02		122.277		3.736e-03		12.028
1		0.00		-9.20		1.425e-02		124.366		3.848e-03		8.847
1		0.00		-9.60		1.490e-02		124.186		4.105e-03		11.139
1		0.00		-10.00		1.674e-02		123.345		4.445e-03		10.720
1		0.00		-9.60		1.648e-02		125.504		4.083e-03		9.501
1		0.00		-9.20		1.703e-02		125.104		4.236e-03		8.539
1		0.00		-8.80		1.702e-02		123.924		3.795e-03		8.639
1		0.00		-8.40		1.728e-02		124.055		3.914e-03		9.020
1		0.00		-8.00		1.712e-02		126.406		3.855e-03		10.544
1		0.00		-7.60		1.614e-02		124.763		3.542e-03		8.499
1		0.00		-7.20		1.572e-02		123.775		3.340e-03		10.840
1		0.00		-6.80		1.474e-02		126.389		2.848e-03		9.498
1		0.00		-6.40		1.437e-02		125.789		2.983e-03		9.480
1		0.00		-6.00		1.322e-02		124.885		2.789e-03		10.724
1		0.00		-5.60		1.248e-02		124.237		2.848e-03		9.702
1		0.00		-5.20		1.204e-02		125.897		2.648e-03		10.116
1		0.00		-4.80		1.090e-02		125.047		2.350e-03		11.476
1		0.00		-4.40		1.043e-02		127.487		2.409e-03		11.664
1		0.00		-4.00		9.697e-03		124.715		2.388e-03		17.912
1		0.00		-3.60		9.154e-03		120.935		2.598e-03		17.419
1		0.00		-3.20		8.559e-03		122.817		2.324e-03		17.712
1		0.00		-2.80		7.429e-03		125.007		2.328e-03		21.387
1		0.00		-2.40		6.946e-03		117.887		2.325e-03		30.848
1		0.00		-2.00		6.545e-03		120.727		2.159e-03		35.543
1		0.00		-1.60		6.377e-03		120.995		2.231e-03		25.766
1		0.00		-1.20		6.000e-03		123.566		2.198e-03		23.327
1		0.00		-0.80		5.374e-03		113.327		1.993e-03		38.977
1		0.00		-0.40		5.393e-03		119.639		1.866e-03		20.313
2		0.00		0.00		5.412e-03		122.753		1.999e-03		18.395
2		0.00		0.40		4.636e-03		122.100		1.769e-03		29.790
2		0.00		0.80		4.642e-03		124.260		1.381e-03		18.541
2		0.00		1.20		3.965e-03		114.889		1.480e-03		51.687
2		0.00		1.60		3.709e-03		108.066		1.421e-03		48.851
2		0.00		2.00		2.838e-03		87.363		1.241e-03		61.410
2		0.00		2.40		2.897e-03		88.062		1.113e-03		68.545
2		0.00		2.80		2.069e-03		31.570		8.101e-04		82.651
2		0.00		3.20		1.909e-03		-29.018		8.076e-04		80.448
2		0.00		3.60		1.989e-03		-19.591		8.602e-04		75.723
2		0.00		4.00		2.843e-03		-51.807		1.204e-03		39.898
2		0.00		4.40		4.068e-03		-43.902		1.273e-03		21.606
2		0.00		4.80		4.602e-03		-57.047		1.377e-03		23.592
2		0.00		5.20		6.185e-03		-48.705		1.762e-03		22.693
2		0.00		5.60		6.880e-03		-57.081		1.676e-03		14.448
2		0.00		6.00		8.192e-03		-56.740		2.108e-03		13.280
2		0.00		6.40		9.519e-03		-56.478		2.128e-03		13.901
2		0.00		6.80		1.150e-02		-56.016		2.495e-03		12.079
2		0.00		7.20		1.299e-02		-58.771		2.579e-03		10.389
2		0.00		7.60		1.535e-02		-54.131		2.821e-03		11.605
2		0.00		8.00		1.677e-02		-52.883		3.140e-03		10.907
2		0.00		8.40		1.818e-02		-52.573		3.749e-03		10.647
2		0.00		8.80		2.101e-02		-53.967		4.445e-03		11.227
2		0.00		9.20		2.425e-02		-52.181		5.419e-03		12.817
2		0.00		9.60		2.792e-02		-51.603		6.331e-03		12.312
2		0.00		10.00		3.154e-02		-52.079		7.589e-03		10.295
2		0.00		9.60		3.403e-02		-53.920		7.677e-03		7.497
2		0.00		9.20		3.545e-02		-53.389		6.980e-03		7.295
2		0.00		8.80		3.619e-02		-53.022		6.390e-03		7.255
2		0.00		8.40		3.610e-02		-53.407		5.730e-03		6.577
2		0.00		8.00		3.598e-02		-53.078		6.069e-03		8.307
2		0.00		7.60		3.650e-02		-53.175		6.009e-03		7.219
2		0.00		7.20		3.515e-02		-51.201		6.903e-03		7.892
2		0.00		6.80		3.424e-02		-51.499		7.920e-03		10.517
2		0.00		6.40		3.366e-02		-52.529		8.240e-03		10.218
2		0.00		6.00		3.312e-02		-53.137		8.913e-03		12.721
2		0.00		5.60		3.268e-02		-51.693		8.609e-03		10.321
2		0.00		5.20		3.227e-02		-51.681		8.839e-03		9.486
2		0.00		4.80		3.196e-02		-53.089		8.022e-03		8.772
2		0.00		4.40		3.156e-02		-53.735		6.956e-03		8.067
2		0.00		4.00		3.146e-02		-54.813		6.119e-03		8.057
2		0.00		3.60		3.135e-02		-52.875		6.332e-03		7.463
2		0.00		3.20		3.117e-02		-52.606		5.991e-03		7.957
2		0.00		2.80		3.119e-02		-53.477		5.702e-03		7.821
2		0.00		2.40		3.101e-02		-51.513		5.638e-03		8.663
2		0.00		2.00		3.055e-02		-50.953		6.157e-03		8.708
2		0.00		1.60		3.065e-02		-52.557		6.531e-03		9.612
2		0.00		1.20		3.021e-02		-51.503		6.985e-03		11.922
2		0.00		0.80		3.018e-02		-50.859		6.969e-03		10.749
2		0.00		0.40		3.053e-02		-50.232		7.185e-03		8.812
2		0.00		0.00		3.014e-02		-51.208		6.718e-03		9.906
2		0.00		-0.40		3.048e-02		-53.410		6.215e-03		8.551
2		0.00		-0.80		3.012e-02		-53.238		5.873e-03		7.922
2		0.00		-1.20		3.033e-02		-52.019		5.687e-03		7.554
2		0.00		-1.60		3.001e-02		-52.002		5.222e-03		7.747
2		0.00		-2.00		2.986e-02		-52.798		4.953e-03		7.661
2		0.00		-2.40		2.936e-02		-52.035		5.044e-03		7.511
2		0.00		-2.80		2.831e-02		-52.166		5.213e-03		9.020
2		0.00		-3.20		2.718e-02		-51.518		5.245e-03		8.361
2		0.00		-3.60		2.581e-02		-52.803		5.261e-03		10.424
2		0.00		-4.00		2.323e-02		-50.881		5.206e-03		10.213
2		0.00		-4.40		2.153e-02		-52.328		5.106e-03		11.423
2		0.00		-4.80		1.862e-02		-51.943		4.590e-03		11.436
2		0.00		-5.20		1.495e-02		-49.705		3.328e-03		10.448
2		0.00		-5.60		1.082e-02		-47.697		2.769e-03		12.598
2		0.00		-6.00		7.470e-03		-55.108		1.798e-03		15.473
2		0.00		-6.40		3.340e-03		-42.391		1.335e-03		39.845
2		0.00		-6.80		2.109e-03		39.734		9.611e-04		72.463
2		0.00		-7.20		4.376e-03		110.263		1.462e-03		33.159
2		0.00		-7.60		7.236e-03		121.202		2.009e-03		13.636
2		0.00		-8.00		9.606e-03		122.975		2.142e-03		13.580
2		0.00		-8.40		1.193e-02		127.590		2.542e-03		9.392
2		0.00		-8.80		1.295e-02		125.436		3.023e-03		11.216
2		0.00		-9.20		1.403e-02		124.014		3.568e-03		13.072
2		0.00		-9.60		1.608e-02		126.628		4.541e-03		17.196
2		0.00		-10.00		1.756e-02		125.740		5.181e-03		13.030
2		0.00		-9.60		1.683e-02		124.855		4.639e-03		11.671
2		0.00		-9.20		1.707e-02		126.221		4.370e-03		10.302
2		0.00		-8.80		1.685e-02		126.349		4.133e-03		9.417
2		0.00		-8.40		1.610e-02		124.670		3.819e-03		8.707
2		0.00		-8.00		1.678e-02		125.238		3.645e-03		10.340
2		0.00		-7.60		1.553e-02		125.303		3.826e-03		10.439
2		0.00		-7.20		1.444e-02		125.747		3.810e-03		13.836
2		0.00		-6.80		1.391e-02		126.137		3.606e-03		15.560
2		0.00		-6.40		1.383e-02		125.115		3.908e-03		17.734
2		0.00		-6.00		1.325e-02		127.561		3.624e-03		11.525
2		0.00		-5.60		1.248e-02		125.871		3.227e-03		9.160
2		0.00		-5.20		1.243e-02		125.894		2.641e-03		10.303
2		0.00		-4.80		1.135e-02		123.803		2.515e-03		10.946
2		0.00		-4.40		1.083e-02		124.165		2.498e-03		10.352
2		0.00		-4.00		1.044e-02		126.736		2.326e-03		10.020
2		0.00		-3.60		9.958e-03		123.046		2.427e-03		13.759
2		0.00		-3.20		9.306e-03		124.868		2.407e-03		21.289
2		0.00		-2.80		8.954e-03		122.510		2.718e-03		25.911
2		0.00		-2.40		8.360e-03		121.435		2.500e-03		18.040
2		0.00		-2.00		8.064e-03		128.279		2.243e-03		13.418
2		0.00		-1.60		7.703e-03		127.567		2.068e-03		12.148
2		0.00		-1.20		7.522e-03		123.054		1.564e-03		11.449
2		0.00		-0.80		7.250e-03		123.190		1.676e-03		15.657
2		0.00		-0.40		7.029e-03		123.301		1.853e-03		15.832
3		0.00		0.00		6.705e-03		121.890		1.765e-03		15.524
3		0.00		0.40		6.485e-03		125.587		2.022e-03		21.991
3		0.00		0.80		5.995e-03		118.163		1.650e-03		19.527
3		0.00		1.20		5.809e-03		125.825		1.827e-03		20.229
3		0.00		1.60		4.804e-03		120.354		1.561e-03		26.925
3		0.00		2.00		4.130e-03		123.977		1.312e-03		21.159
3		0.00		2.40		3.415e-03		101.558		1.316e-03		47.763
3		0.00		2.80		2.858e-03		107.733		1.047e-03		54.171
3		0.00		3.20		2.031e-03		39.626		9.038e-04		92.263
3		0.00		3.60		1.752e-03		24.730		7.637e-04		66.612
3		0.00		4.00		1.998e-03		-31.839		8.814e-04		70.582
3		0.00		4.40		2.755e-03		-42.481		1.188e-03		39.337
3		0.00		4.80		3.436e-03		-62.912		1.205e-03		30.858
3		0.00		5.20		4.825e-03		-53.021		1.523e-03		24.119
3		0.00		5.60		6.022e-03		-55.388		1.475e-03		15.481
3		0.00		6.00		6.994e-03		-50.184		1.452e-03		15.530
3		0.00		6.40		7.857e-03		-56.154		1.764e-03		15.371
3		0.00		6.80		9.591e-03		-54.943		2.003e-03		12.127
3		0.00		7.20		1.084e-02		-51.984		2.685e-03		13.107
3		0.00		7.60		1.215e-02		-57.156		3.168e-03		16.223
3		0.00		8.00		1.364e-02		-53.250		3.744e-03		13.378
3		0.00		8.40		1.601e-02		-54.765		4.278e-03		12.436
3		0.00		8.80		1.864e-02		-57.254		4.006e-03		8.945
3		0.00		9.20		2.234e-02		-56.157		4.405e-03		8.821
3		0.00		9.60		2.541e-02		-54.817		4.780e-03		8.809
3		0.00		10.00		2.878e-02		-52.520		5.383e-03		8.657
3		0.00		9.60		3.077e-02		-52.772		5.888e-03		9.962
3		0.00		9.20		3.105e-02		-50.320		6.479e-03		9.102
3		0.00		8.80		3.142e-02		-51.302		7.557e-03		11.046
3		0.00		8.40		3.168e-02		-53.052		7.935e-03		11.592
3		0.00		8.00		3.142e-02		-52.420		7.311e-03		8.665
3		0.00		7.60		3.194e-02		-54.212		6.457e-03		6.244
3		0.00		7.20		3.184e-02		-52.321		5.822e-03		7.207
3		0.00		6.80		3.143e-02		-52.673		5.683e-03		8.013
3		0.00		6.40		3.139e-02		-51.568		5.465e-03		7.689
3		0.00		6.00		3.062e-02		-53.236		6.063e-03		8.333
3		0.00		5.60		2.966e-02		-52.155		7.260e-03		10.004
3		0.00		5.20		2.939e-02		-52.802		7.499e-03		10.535
3		0.00		4.80		2.919e-02		-53.440		7.619e-03		10.403
3		0.00		4.40		2.876e-02		-52.794		7.281e-03		8.427
3		0.00		4.00		2.903e-02		-53.028		6.223e-03		7.816
3		0.00		3.60		3.002e-02		-54.218		5.683e-03		7.698
3		0.00		3.20		2.946e-02		-53.150		5.575e-03		8.381
3		0.00		2.80		2.903e-02		-52.783		5.535e-03		9.036
3		0.00		2.40		2.862e-02		-51.052		6.140e-03		10.580
3		0.00		2.00		2.865e-02		-51.575		6.191e-03		13.100
3		0.00		1.60		2.854e-02		-50.933		6.355e-03		10.963
3		0.00		1.20		2.845e-02		-52.922		6.961e-03		10.501
3		0.00		0.80		2.823e-02		-52.600		5.907e-03		8.934
3		0.00		0.40		2.882e-02		-51.060		5.202e-03		7.225
3		0.00		0.00		2.878e-02		-52.239		4.569e-03		7.977
3		0.00		-0.40		2.862e-02		-52.994		4.821e-03		7.173
3		0.00		-0.80		2.774e-02		-52.599		4.822e-03		8.331
3		0.00		-1.20		2.713e-02		-51.219		5.453e-03		9.047
3		0.00		-1.60		2.672e-02		-51.232		5.512e-03		10.884
3		0.00		-2.00		2.582e-02		-53.328		6.698e-03		12.658
3		0.00		-2.40		2.534e-02		-51.799		6.653e-03		10.352
3		0.00		-2.80		2.452e-02		-53.389		5.950e-03		9.945
3		0.00		-3.20		2.456e-02		-52.831		4.806e-03		6.926
3		0.00		-3.60		2.354e-02		-51.511		4.318e-03		8.642
3		0.00		-4.00		2.219e-02		-53.566		4.429e-03		9.246
3		0.00		-4.40		2.031e-02		-52.832		4.426e-03		9.571
3		0.00		-4.80		1.726e-02		-53.029		4.206e-03		11.854
3		0.00		-5.20		1.539e-02		-50.373		4.053e-03		12.781
3		0.00		-5.60		1.199e-02		-50.184		3.271e-03		12.690
3		0.00		-6.00		7.311e-03		-52.125		1.962e-03		15.349
3		0.00		-6.40		3.397e-03		-51.262		1.307e-03		34.936
3		0.00		-6.80		2.005e-03		13.161		8.594e-04		76.650
3		0.00		-7.20		3.421e-03		103.938		1.399e-03		50.279
3		0.00		-7.60		5.440e-03		116.247		1.752e-03		21.583
3		0.00		-8.00		8.845e-03		127.026		2.228e-03		17.184
3		0.00		-8.40		1.137e-02		124.928		2.740e-03		14.073
3		0.00		-8.80		1.349e-02		126.601		3.207e-03		14.607
3		0.00		-9.20		1.391e-02		126.645		3.432e-03		15.512
3		0.00		-9.60		1.531e-02		125.559		4.078e-03		12.923
3		0.00		-10.00		1.669e-02		123.643		3.967e-03		10.249
3		0.00		-9.60		1.741e-02		124.922		3.950e-03		9.595
3		0.00		-9.20		1.703e-02		123.855		3.936e-03		9.198
3		0.00		-8.80		1.711e-02		125.662		3.376e-03		8.378
3		0.00		-8.40		1.670e-02		124.371		3.270e-03		8.891
3		0.00		-8.00		1.601e-02		127.836		2.904e-03		8.426
3		0.00		-7.60		1.574e-02		126.175		3.073e-03		10.068
3		0.00		-7.20		1.498e-02		128.891		3.131e-03		10.096
3		0.00		-6.80		1.391e-02		126.528		3.469e-03		15.477
3		0.00		-6.40		1.349e-02		126.714		3.658e-03		15.733
3		0.00		-6.00		1.302e-02		125.442		3.655e-03		20.908
3		0.00		-5.60		1.216e-02		125.319		3.228e-03		15.225
3		0.00		-5.20		1.167e-02		130.656		2.897e-03		11.505
3		0.00		-4.80		1.184e-02		124.894		2.653e-03		10.322
3		0.00		-4.40		1.098e-02		127.508		2.469e-03		10.923
3		0.00		-4.00		1.071e-02		127.045		2.171e-03		9.799
3		0.00		-3.60		1.018e-02		127.166		2.205e-03		9.990
3		0.00		-3.20		9.896e-03		123.213		2.081e-03		10.589
3		0.00		-2.80		9.364e-03		124.260		2.152e-03		12.752
3		0.00		-2.40		8.940e-03		124.915		1.942e-03		13.082
3		0.00		-2.00		8.182e-03		127.781		1.970e-03		17.607
3		0.00		-1.60		8.067e-03		123.409		2.342e-03		24.920
3		0.00		-1.20		7.474e-03		125.871		2.346e-03		24.713
3		0.00		-0.80		7.340e-03		124.183		2.272e-03		17.528
3		0.00		-0.40		7.466e-03		125.160		2.053e-03		13.897
4		0.00		0.00		6.637e-03		121.854		1.905e-03		16.750
4		0.00		0.40		6.031e-03		122.588		1.661e-03		15.752
4		0.00		0.80		6.009e-03		122.375		1.773e-03		20.666
4		0.00		1.20		5.538e-03		127.583		1.738e-03		14.679
4		0.00		1.60		4.959e-03		125.809		1.514e-03		18.105
4		0.00		2.00		4.597e-03		118.546		1.374e-03		34.905
4		0.00		2.40		3.534e-03		109.393		1.199e-03		46.092
4		0.00		2.80		2.830e-03		83.916		1.222e-03		69.582
4		0.00		3.20		2.128e-03		70.180		8.917e-04		62.011
4		0.00		3.60		1.645e-03		5.287		5.923e-04		76.645
4		0.00		4.00		1.800e-03		-20.191		7.202e-04		80.990
4		0.00		4.40		2.397e-03		-55.438		1.105e-03		47.299
4		0.00		4.80		3.229e-03		-57.545		1.193e-03		28.022
4		0.00		5.20		4.404e-03		-54.657		1.391e-03		22.797
4		0.00		5.60		5.450e-03		-61.822		1.224e-03		18.316
4		0.00		6.00		7.020e-03		-48.043		1.419e-03		17.701
4		0.00		6.40		8.463e-03		-53.036		1.606e-03		14.162
4		0.00		6.80		9.963e-03		-52.073		1.630e-03		13.386
4		0.00		7.20		1.133e-02		-49.623		2.239e-03		11.285
4		0.00		7.60		1.243e-02		-52.667		2.549e-03		10.159
4		0.00		8.00		1.380e-02		-53.788		3.094e-03		14.263
4		0.00		8.40		1.593e-02		-50.480		3.717e-03		12.355
4		0.00		8.80		1.754e-02		-52.752		4.615e-03		11.400
4		0.00		9.20		2.027e-02		-52.209		5.069e-03		8.845
4		0.00		9.60		2.386e-02		-54.694		5.352e-03		8.369
4		0.00		10.00		2.683e-02		-53.570		5.661e-03		7.729
4		0.00		9.60		2.879e-02		-54.688		4.708e-03		6.431
4		0.00		9.20		2.958e-02		-52.779		4.696e-03		8.977
4		0.00		8.80		2.973e-02		-51.221		5.135e-03		7.988
4		0.00		8.40		2.955e-02		-51.771		5.949e-03		8.874
4		0.00		8.00		2.877e-02		-50.688		6.473e-03		10.252
4		0.00		7.60		2.902e-02		-51.426		6.693e-03		11.616
4		0.00		7.20		2.867e-02		-51.678		7.087e-03		9.658
4		0.00		6.80		2.888e-02		-52.271		6.363e-03		9.011
4		0.00		6.40		2.940e-02		-51.818		5.707e-03		7.634
4		0.00		6.00		2.924e-02		-52.519		4.889e-03		7.825
4		0.00		5.60		2.883e-02		-52.498		4.972e-03		7.726
4		0.00		5.20		2.826e-02		-51.307		5.515e-03		8.690
4		0.00		4.80		2.714e-02		-51.743		5.526e-03		9.713
4		0.00		4.40		2.728e-02		-53.024		6.368e-03		12.106
4		0.00		4.00		2.680e-02		-52.098		6.808e-03		12.579
4		0.00		3.60		2.626e-02		-52.433		6.616e-03		11.068
4		0.00		3.20		2.622e-02		-52.900		5.991e-03		8.107
4		0.00		2.80		2.686e-02		-52.982		5.281e-03		7.910
4		0.00		2.40		2.660e-02		-53.309		4.498e-03		7.539
4		0.00		2.00		2.712e-02		-53.642		4.449e-03		8.294
4		0.00		1.60		2.655e-02		-51.202		4.627e-03		8.055
4		0.00		1.20		2.668e-02		-50.167		4.549e-03		7.723
4		0.00		0.80		2.629e-02		-50.293		5.179e-03		12.258
4		0.00		0.40		2.598e-02		-50.911		5.609e-03		11.483
4		0.00		0.00		2.622e-02		-51.257		5.579e-03		10.240
4		0.00		-0.40		2.591e-02		-51.522		5.487e-03		9.193
4		0.00		-0.80		2.610e-02		-52.617		4.744e-03		8.113
4		0.00		-1.20		2.600e-02		-54.974		4.041e-03		7.868
4		0.00		-1.60		2.585e-02		-51.543		3.595e-03		7.684
4		0.00		-2.00		2.629e-02		-52.411		3.454e-03		7.824
4		0.00		-2.40		2.565e-02		-51.968		3.880e-03		7.665
4		0.00		-2.80		2.521e-02		-50.935		4.168e-03		7.937
4		0.00		-3.20		2.364e-02		-53.032		4.760e-03		9.603
4		0.00		-3.60		2.228e-02		-51.908		4.720e-03		11.457
4		0.00		-4.00		2.068e-02		-52.080		5.076e-03		9.648
4		0.00		-4.40		1.842e-02		-51.473		4.467e-03		12.865
4		0.00		-4.80		1.629e-02		-49.933		3.734e-03		9.675
4		0.00		-5.20		1.427e-02		-51.411		2.828e-03		9.247
4		0.00		-5.60		1.205e-02		-55.800		2.183e-03		10.629
4		0.00		-6.00		8.955e-03		-50.421		1.558e-03		12.305
4		0.00		-6.40		5.459e-03		-51.796		1.373e-03		16.330
4		0.00		-6.80		2.170e-03		-46.950		7.873e-04		63.647
4		0.00		-7.20		2.953e-03		91.951		1.245e-03		58.049
4		0.00		-7.60		5.699e-03		125.187		1.888e-03		22.733
4		0.00		-8.00		8.464e-03		118.685		2.294e-03		19.384
4		0.00		-8.40		1.064e-02		123.305		2.701e-03		16.018
4		0.00		-8.80		1.172e-02		122.765		3.046e-03		15.053
4		0.00		-9.20		1.321e-02		123.632		3.265e-03		12.229
4		0.00		-9.60		1.499e-02		123.959		3.671e-03		10.005
4		0.00		-10.00		1.575e-02		125.625		3.281e-03		7.796
4		0.00		-9.60		1.689e-02		125.466		2.994e-03		8.790
4		0.00		-9.20		1.684e-02		127.077		3.261e-03		7.553
4		0.00		-8.80		1.656e-02		127.026		3.360e-03		9.080
4		0.00		-8.40		1.657e-02		125.920		3.587e-03		9.142
4		0.00		-8.00		1.549e-02		124.880		3.654e-03		11.883
4		0.00		-7.60		1.604e-02		128.969		3.911e-03		12.246
4		0.00		-7.20		1.534e-02		123.069		4.291e-03		17.500
4		0.00		-6.80		1.416e-02		123.224		4.061e-03		18.779
4		0.00		-6.40		1.337e-02		124.919		3.999e-03		13.125
4		0.00		-6.00		1.319e-02		123.405		3.394e-03		11.078
4		0.00		-5.60		1.284e-02		124.219		3.219e-03		8.486
4		0.00		-5.20		1.239e-02		127.540		2.681e-03		9.787
4		0.00		-4.80		1.185e-02		124.915		2.708e-03		8.224
4		0.00		-4.40		1.139e-02		122.726		2.482e-03		10.702
4		0.00		-4.00		1.071e-02		123.439		2.247e-03		11.170
4		0.00		-3.60		1.001e-02		125.180		2.583e-03		13.882
4		0.00		-3.20		9.451e-03		128.066		2.585e-03		17.516
4		0.00		-2.80		9.520e-03		124.985		2.497e-03		16.554
4		0.00		-2.40		8.868e-03		126.574		2.228e-03		15.166
4		0.00		-2.00		9.090e-03		125.343		2.125e-03		13.694
4		0.00		-1.60		8.491e-03		127.781		1.624e-03		10.730
4		0.00		-1.20		8.184e-03		126.448		1.844e-03		12.103
4		0.00		-0.80		8.281e-03		129.286		1.619e-03		12.035
4		0.00		-0.40		7.507e-03		124.982		1.589e-03		14.329
5		0.00		0.00		7.285e-03		126.763		1.980e-03		16.299
5		0.00		0.40		6.779e-03		122.360		1.906e-03		19.713
5		0.00		0.80		6.375e-03		127.155		1.835e-03		22.791
5		0.00		1.20		6.040e-03		122.382		1.877e-03		23.883
5		0.00		1.60		5.309e-03		130.576		1.652e-03		18.328
5		0.00		2.00		5.232e-03		127.377		1.595e-03		19.184
5		0.00		2.40		4.635e-03		123.946		1.397e-03		28.861
5		0.00		2.80		3.434e-03		114.770		1.078e-03		45.451
5		0.00		3.20		3.028e-03		107.273		1.083e-03		55.999
5		0.00		3.60		2.278e-03		70.228		9.733e-04		76.537
5		0.00		4.00		1.965e-03		7.102		7.966e-04		77.103
5		0.00		4.40		2.054e-03		-54.427		8.753e-04		50.671
5		0.00		4.80		2.848e-03		-58.642		1.040e-03		41.290
5		0.00		5.20		3.798e-03		-58.127		1.294e-03		27.927
5		0.00		5.60		5.470e-03		-57.792		1.410e-03		20.154
5		0.00		6.00		6.077e-03		-52.675		1.390e-03		17.181
5		0.00		6.40		7.325e-03		-56.546		1.697e-03		13.925
5		0.00		6.80		8.614e-03		-49.153		1.705e-03		12.486
5		0.00		7.20		1.049e-02		-55.155		2.096e-03		11.349
5		0.00		7.60		1.130e-02		-52.718		2.557e-03		14.589
5		0.00		8.00		1.330e-02		-55.690		3.229e-03		15.244
5		0.00		8.40		1.516e-02		-51.186		3.821e-03		12.470
5		0.00		8.80		1.639e-02		-53.780		4.138e-03		11.122
5		0.00		9.20		1.860e-02		-52.793		4.461e-03		10.464
5		0.00		9.60		2.224e-02		-53.581		4.780e-03		8.877
5		0.00		10.00		2.524e-02		-52.553		5.168e-03		7.178
5		0.00		9.60		2.625e-02		-54.604		4.928e-03		8.252
5		0.00		9.20		2.742e-02		-51.795		5.210e-03		7.464
5		0.00		8.80		2.748e-02		-52.271		5.322e-03		8.557
5		0.00		8.40		2.764e-02		-51.968		5.076e-03		8.142
5		0.00		8.00		2.727e-02		-52.601		5.105e-03		10.029
5		0.00		7.60		2.676e-02		-49.832		5.474e-03		10.195
5		0.00		7.20		2.684e-02		-51.017		5.912e-03		10.653
5		0.00		6.80		2.667e-02		-51.151		6.305e-03		11.919
5		0.00		6.40		2.618e-02		-52.322		6.102e-03		10.825
5		0.00		6.00		2.588e-02		-52.774		6.106e-03		9.904
5		0.00		5.60		2.525e-02		-54.641		5.530e-03		8.533
5		0.00		5.20		2.569e-02		-52.903		4.950e-03		7.190
5		0.00		4.80		2.568e-02		-51.033		4.565e-03		8.129
5		0.00		4.40		2.525e-02		-51.938		4.252e-03		7.265
5		0.00		4.00		2.477e-02		-51.438		4.247e-03		8.736
5		0.00		3.60		2.444e-02		-50.833		4.473e-03		9.595
5		0.00		3.20		2.372e-02		-50.975		4.589e-03		10.350
5		0.00		2.80		2.347e-02		-52.100		5.230e-03		10.901
5		0.00		2.40		2.331e-02		-50.248		5.292e-03		10.538
5		0.00		2.00		2.353e-02		-51.243		5.677e-03		12.458
5		0.00		1.60		2.324e-02		-52.362		6.212e-03		13.266
5		0.00		1.20		2.289e-02		-48.874		5.446e-03		9.047
5		0.00		0.80		2.357e-02		-52.761		5.001e-03		8.988
5		0.00		0.40		2.369e-02		-52.694		4.265e-03		8.639
5		0.00		0.00		2.487e-02		-53.719		4.069e-03		6.689
5		0.00		-0.40		2.460e-02		-52.703		3.954e-03		7.479
5		0.00		-0.80		2.435e-02		-51.892		3.959e-03		7.701
5		0.00		-1.20		2.394e-02		-50.790		4.182e-03		9.588
5		0.00		-1.60		2.350e-02		-50.603		4.578e-03		11.222
5		0.00		-2.00		2.306e-02		-52.369		5.042e-03		11.751
5		0.00		-2.40		2.283e-02		-51.615		5.235e-03		9.977
5		0.00		-2.80		2.196e-02		-52.642		5.065e-03		10.229
5		0.00		-3.20		2.149e-02		-52.097		4.284e-03		8.713
5		0.00		-3.60		2.120e-02		-53.380		3.715e-03		7.867
5		0.00		-4.00		2.007e-02		-52.385		3.383e-03		8.834
5		0.00		-4.40		1.821e-02		-54.130		3.022e-03		10.760
5		0.00		-4.80		1.591e-02		-52.273		2.825e-03		11.969
5		0.00		-5.20		1.317e-02		-52.401		2.539e-03		9.092
5		0.00		-5.60		1.035e-02		-55.860		2.485e-03		12.324
5		0.00		-6.00		6.934e-03		-48.888		1.901e-03		16.045
5		0.00		-6.40		3.646e-03		-53.330		1.395e-03		26.786
5		0.00		-6.80		1.997e-03		-17.011		8.875e-04		63.475
5		0.00		-7.20		2.937e-03		93.305		1.235e-03		55.153
5		0.00		-7.60		5.608e-03		114.607		1.793e-03		23.356
5		0.00		-8.00		9.043e-03		128.110		2.114e-03		12.218
5		0.00		-8.40		1.185e-02		126.330		2.262e-03		8.952
5		0.00		-8.80		1.274e-02		128.119		2.589e-03		11.371
5		0.00		-9.20		1.389e-02		126.325		2.773e-03		9.481
5		0.00		-9.60		1.528e-02		126.004		3.036e-03		9.871
5		0.00		-10.00		1.618e-02		126.404		3.623e-03		13.383
5		0.00		-9.60		1.628e-02		125.756		3.535e-03		13.319
5		0.00		-9.20		1.686e-02		126.229		3.834e-03		13.243
5		0.00		-8.80		1.662e-02		125.142		4.059e-03		11.533
5		0.00		-8.40		1.683e-02		124.545		3.611e-03		8.821
5		0.00		-8.00		1.628e-02		125.524		3.158e-03		8.578
5		0.00		-7.60		1.613e-02		126.411		3.065e-03		9.131
5		0.00		-7.20		1.603e-02		125.597		3.023e-03		8.473
5		0.00		-6.80		1.478e-02		127.586		2.670e-03		10.507
5		0.00		-6.40		1.424e-02		127.250		3.096e-03		9.363
5		0.00		-6.00		1.333e-02		124.755		3.170e-03		14.445
5		0.00		-5.60		1.270e-02		123.981		3.505e-03		18.521
5		0.00		-5.20		1.235e-02		122.250		3.120e-03		18.977
5		0.00		-4.80		1.205e-02		124.584		3.082e-03		11.617
5		0.00		-4.40		1.175e-02		127.091		2.904e-03		10.243
5		0.00		-4.00		1.112e-02		124.956		2.513e-03		9.909
5		0.00		-3.60		1.079e-02		124.801		2.120e-03		12.406
5		0.00		-3.20		1.080e-02		124.725		1.854e-03		11.902
5		0.00		-2.80		1.063e-02		129.332		2.048e-03		9.931
5		0.00		-2.40		9.642e-03		127.511		2.008e-03		9.170
5		0.00		-2.00		9.077e-03		127.953		1.988e-03		11.076
5		0.00		-1.60		9.140e-03		125.289		2.189e-03		14.793
5		0.00		-1.20		8.964e-03		125.871		2.208e-03		14.231
5		0.00		-0.80		8.290e-03		128.517		2.302e-03		16.781
5		0.00		-0.40		7.989e-03		126.911		2.349e-03		16.490
6		0.00		0.00		7.534e-03		127.396		2.133e-03		14.353
6		0.00		0.40		7.095e-03		125.452		1.867e-03		14.025
6		0.00		0.80		7.199e-03		124.009		1.988e-03		11.803
6		0.00		1.20		6.893e-03		131.084		1.780e-03		16.411
6		0.00		1.60		6.246e-03		120.485		1.526e-03		19.254
6		0.00		2.00		5.297e-03		123.698		1.540e-03		20.476
6		0.00		2.40		4.549e-03		121.584		1.483e-03		28.675
6		0.00		2.80		3.597e-03		119.626		1.271e-03		42.974
6		0.00		3.20		2.782e-03		99.217		1.034e-03		51.017
6		0.00		3.60		2.137e-03		54.560		8.445e-04		76.016
6		0.00		4.00		1.836e-03		28.151		6.346e-04		79.344
6		0.00		4.40		1.861e-03		-22.598		8.431e-04		76.236
6		0.00		4.80		2.709e-03		-60.776		1.166e-03		44.070
6		0.00		5.20		3.101e-03		-57.044		1.118e-03		26.238
6		0.00		5.60		4.051e-03		-49.432		1.185e-03		20.573
6		0.00		6.00		5.249e-03		-55.173		1.302e-03		19.218
6		0.00		6.40		6.352e-03		-52.567		1.410e-03		17.550
6		0.00		6.80		7.826e-03		-49.827		1.731e-03		14.372
6		0.00		7.20		9.374e-03		-51.230		2.150e-03		15.236
6		0.00		7.60		1.099e-02		-51.452		2.589e-03		14.585
6		0.00		8.00		1.304e-02		-52.955		3.380e-03		12.089
6		0.00		8.40		1.500e-02		-52.729		3.399e-03		8.562
6		0.00		8.80		1.779e-02		-54.911		3.705e-03		7.854
6		0.00		9.20		2.046e-02		-53.893		3.579e-03		9.308
6		0.00		9.60		2.352e-02		-52.498		3.951e-03		8.657
6		0.00		10.00		2.606e-02		-52.563		4.528e-03		8.527
6		0.00		9.60		2.703e-02		-51.325		5.436e-03		8.499
6		0.00		9.20		2.725e-02		-51.600		6.197e-03		9.156
6		0.00		8.80		2.762e-02		-52.924		6.496e-03		11.825
6		0.00		8.40		2.739e-02		-52.878		7.025e-03		11.649
6		0.00		8.00		2.769e-02		-51.770		6.788e-03		9.855
6		0.00		7.60		2.863e-02		-53.184		5.426e-03		6.891
6		0.00		7.20		2.838e-02		-53.108		5.011e-03		7.290
6		0.00		6.80		2.821e-02		-53.365		4.501e-03		7.857
6		0.00		6.40		2.738e-02		-52.038		4.392e-03		9.372
6		0.00		6.00		2.721e-02		-50.685		4.486e-03		8.729
6		0.00		5.60		2.659e-02		-49.975		5.089e-03		9.808
6		0.00		5.20		2.595e-02		-51.335		5.446e-03		11.850
6		0.00		4.80		2.553e-02		-50.515		5.671e-03		10.921
6		0.00		4.40		2.581e-02		-52.357		5.622e-03		7.584
6		0.00		4.00		2.603e-02		-53.361		5.019e-03		8.047
6		0.00		3.60		2.591e-02		-54.016		4.451e-03		7.669
6		0.00		3.20		2.581e-02		-52.023		4.491e-03		7.760
6		0.00		2.80		2.557e-02		-52.351		4.791e-03		7.844
6		0.00		2.40		2.502e-02		-49.768		5.121e-03		9.599
6		0.00		2.00		2.448e-02		-51.093		5.771e-03		11.180
6		0.00		1.60		2.447e-02		-54.238		6.109e-03		13.652
6		0.00		1.20		2.475e-02		-52.898		6.472e-03		9.485
6		0.00		0.80		2.503e-02		-51.751		5.746e-03		8.154
6		0.00		0.40		2.552e-02		-52.026		4.797e-03		7.887
6		0.00		0.00		2.546e-02		-54.771		4.350e-03		8.243
6		0.00		-0.40		2.457e-02		-50.406		4.207e-03		8.896
6		0.00		-0.80		2.447e-02		-50.338		4.472e-03		8.802
6		0.00		-1.20		2.402e-02		-53.501		4.853e-03		12.184
6		0.00		-1.60		2.390e-02		-49.766		5.397e-03		11.408
6		0.00		-2.00		2.385e-02		-52.178		5.313e-03		9.599
6		0.00		-2.40		2.345e-02		-51.282		4.897e-03		8.673
6		0.00		-2.80		2.359e-02		-52.712		4.132e-03		7.155
6		0.00		-3.20		2.262e-02		-53.170		3.769e-03		8.055
6		0.00		-3.60		2.183e-02		-52.044		3.374e-03		9.424
6		0.00		-4.00		2.006e-02		-53.315		3.493e-03		8.495
6		0.00		-4.40		1.821e-02		-50.920		3.443e-03		9.998
6		0.00		-4.80		1.508e-02		-52.785		3.573e-03		12.115
6		0.00		-5.20		1.339e-02		-52.990		3.161e-03		11.909
6		0.00		-5.60		1.073e-02		-52.126		2.413e-03		13.628
6		0.00		-6.00		8.580e-03		-55.534		1.923e-03		13.625
6		0.00		-6.40		5.423e-03		-52.873		1.443e-03		19.748
6		0.00		-6.80		2.194e-03		-24.875		8.774e-04		55.200
6		0.00		-7.20		2.314e-03		45.578		1.181e-03		78.982
6		0.00		-7.60		3.962e-03		106.320		1.392e-03		35.421
6		0.00		-8.00		6.362e-03		117.309		2.002e-03		24.718
6		0.00		-8.40		1.022e-02		121.593		2.988e-03		16.098
6		0.00		-8.80		1.109e-02		123.260		2.762e-03		10.237
6		0.00		-9.20		1.393e-02		125.552		2.915e-03		11.065
6		0.00		-9.60		1.536e-02		128.138		2.730e-03		8.475
6		0.00		-10.00		1.601e-02		127.456		2.830e-03		7.930
6		0.00		-9.60		1.591e-02		126.090		2.998e-03		9.394
6		0.00		-9.20		1.517e-02		124.878		3.136e-03		12.100
6		0.00		-8.80		1.535e-02		125.898		3.372e-03		14.066
6		0.00		-8.40		1.563e-02		125.160		3.847e-03		13.848
6		0.00		-8.00		1.518e-02		125.203		3.491e-03		10.163
6		0.00		-7.60		1.475e-02		125.921		2.720e-03		8.329
6		0.00		-7.20		1.486e-02		127.524		2.747e-03		8.596
6		0.00		-6.80		1.413e-02		128.306		2.601e-03		11.419
6		0.00		-6.40		1.310e-02		125.821		2.760e-03		9.779
6		0.00		-6.00		1.285e-02		128.403		2.938e-03		13.039
6		0.00		-5.60		1.196e-02		122.458		2.911e-03		18.712
6		0.00		-5.20		1.137e-02		123.310		3.177e-03		14.749
6		0.00		-4.80		1.065e-02		122.049		2.757e-03		12.863
6		0.00		-4.40		1.046e-02		127.031		2.349e-03		9.274
6		0.00		-4.00		1.053e-02		123.365		2.377e-03		11.974
6		0.00		-3.60		9.663e-03		123.208		2.291e-03		11.444
6		0.00		-3.20		9.423e-03		126.083		2.116e-03		11.062
6		0.00		-2.80		8.832e-03		126.435		2.026e-03		12.279
6		0.00		-2.40		8.006e-03		122.339		2.197e-03		15.862
6		0.00		-2.00		8.102e-03		127.200		2.359e-03		20.976
6		0.00		-1.60		8.037e-03		125.691		2.171e-03		12.974
6		0.00		-1.20		7.587e-03		123.832		1.807e-03		12.835
6		0.00		-0.80		7.159e-03		124.795		1.548e-03		13.346
6		0.00		-0.40		7.159e-03		127.222		1.495e-03		12.633
7		0.00		0.00		6.908e-03		126.411		1.886e-03		14.685
7		0.00		0.40		6.731e-03		127.444		1.671e-03		19.993
7		0.00		0.80		6.229e-03		123.622		1.773e-03		20.578
7		0.00		1.20		5.464e-03		120.541		1.679e-03		27.676
7		0.00		1.60		5.190e-03		123.533		1.485e-03		20.607
7		0.00		2.00		4.521e-03		128.371		1.241e-03		19.939
7		0.00		2.40		3.935e-03		115.223		1.424e-03		39.470
7		0.00		2.80		3.389e-03		107.443		1.081e-03		41.732
7		0.00		3.20		2.417e-03		74.472		1.099e-03		79.386
7		0.00		3.60		1.783e-03		25.060		7.426e-04		75.202
7		0.00		4.00		1.592e-03		7.614		6.767e-04		67.858
7		0.00		4.40		1.843e-03		-46.579		8.144e-04		63.080
7		0.00		4.80		2.524e-03		-54.760		1.084e-03		34.638
7		0.00		5.20		3.548e-03		-52.122		1.113e-03		31.875
7		0.00		5.60		4.405e-03		-68.138		1.227e-03		24.250
7		0.00		6.00		5.816e-03		-54.957		1.594e-03		15.986
7		0.00		6.40		7.082e-03		-50.537		1.660e-03		15.569
7		0.00		6.80		8.020e-03		-52.025		2.014e-03		15.169
7		0.00		7.20		9.617e-03		-51.288		2.223e-03		12.011
7		0.00		7.60		1.132e-02		-55.310		2.198e-03		10.913
7		0.00		8.00		1.311e-02		-52.787		2.241e-03		10.759
7		0.00		8.40		1.460e-02		-51.898		2.361e-03		12.055
7		0.00		8.80		1.601e-02		-51.608		3.248e-03		11.230
7		0.00		9.20		1.806e-02		-52.999		4.083e-03		15.108
7		0.00		9.60		2.041e-02		-51.703		4.971e-03		10.380
7		0.00		10.00		2.331e-02		-54.115		5.301e-03		8.644
7		0.00		9.60		2.506e-02		-52.943		4.908e-03		8.385
7		0.00		9.20		2.645e-02		-52.651		4.661e-03		8.122
7		0.00		8.80		2.558e-02		-51.066		5.415e-03		9.478
7		0.00		8.40		2.554e-02		-51.392		6.089e-03		10.960
7		0.00		8.00		2.577e-02		-51.716		6.666e-03		11.451
7		0.00		7.60		2.542e-02		-54.508		6.179e-03		8.540
7		0.00		7.20		2.567e-02		-54.000		4.936e-03		7.586
7		0.00		6.80		2.514e-02		-53.608		4.618e-03		8.504
7		0.00		6.40		2.492e-02		-49.547		4.665e-03		8.788
7		0.00		6.00		2.402e-02		-51.384		5.244e-03		10.309
7		0.00		5.60		2.406e-02		-50.913		5.452e-03		11.313
7		0.00		5.20		2.367e-02		-53.575		5.347e-03		8.861
7		0.00		4.80		2.405e-02		-53.053		4.713e-03		8.044
7		0.00		4.40		2.435e-02		-53.168		3.942e-03		7.622
7		0.00		4.00		2.383e-02		-51.123		3.506e-03		8.265
7		0.00		3.60		2.394e-02		-50.223		3.959e-03		8.540
7		0.00		3.20		2.313e-02		-50.966		4.785e-03		12.805
7		0.00		2.80		2.291e-02		-51.086		5.132e-03		9.765
7		0.00		2.40		2.320e-02		-51.551		4.559e-03		8.035
7		0.00		2.00		2.373e-02		-51.050		3.614e-03		7.604
7		0.00		1.60		2.339e-02		-52.220		3.425e-03		8.324
7		0.00		1.20		2.316e-02		-51.527		3.702e-03		7.876
7		0.00		0.80		2.290e-02		-53.251		4.799e-03		11.522
7		0.00		0.40		2.260e-02		-53.027		5.450e-03		11.932
7		0.00		0.00		2.243e-02		-52.665		5.205e-03		9.153
7		0.00		-0.40		2.305e-02		-52.099		3.867e-03		7.538
7		0.00		-0.80		2.296e-02		-51.894		3.663e-03		8.745
7		0.00		-1.20		2.337e-02		-50.254		4.033e-03		8.230
7		0.00		-1.60		2.204e-02		-50.845		4.670e-03		12.116
7		0.00		-2.00		2.170e-02		-52.359		5.028e-03		12.254
7		0.00		-2.40		2.098e-02		-52.573		4.584e-03		11.337
7		0.00		-2.80		2.118e-02		-51.991		3.357e-03		7.989
7		0.00		-3.20		2.075e-02		-50.830		2.999e-03		7.469
7		0.00		-3.60		1.966e-02		-49.438		3.028e-03		9.071
7		0.00		-4.00		1.827e-02		-51.002		3.306e-03		9.784
7		0.00		-4.40		1.634e-02		-48.565		3.562e-03		9.041
7		0.00		-4.80		1.530e-02		-51.447		2.921e-03		10.326
7		0.00		-5.20		1.393e-02		-53.660		2.257e-03		8.377
7		0.00		-5.60		1.142e-02		-50.250		1.737e-03		11.893
7		0.00		-6.00		9.892e-03		-52.674		1.748e-03		11.538
7		0.00		-6.40		6.327e-03		-54.164		1.574e-03		15.115
7		0.00		-6.80		3.464e-03		-38.292		1.344e-03		32.849
7		0.00		-7.20		1.953e-03		24.301		8.004e-04		84.676
7		0.00		-7.60		3.893e-03		109.269		1.506e-03		33.707
7		0.00		-8.00		6.329e-03		119.444		1.792e-03		13.496
7		0.00		-8.40		8.141e-03		127.708		1.861e-03		12.312
7		0.00		-8.80		1.051e-02		123.502		2.746e-03		17.126
7		0.00		-9.20		1.185e-02		123.870		3.440e-03		19.825
7		0.00		-9.60		1.309e-02		124.159		3.158e-03		12.481
7		0.00		-10.00		1.489e-02		126.440		2.950e-03		8.659
7		0.00		-9.60		1.533e-02		126.046		2.991e-03		8.443
7		0.00		-9.20		1.476e-02		126.521		3.298e-03		10.563
7		0.00		-8.80		1.516e-02		125.884		3.614e-03		15.013
7		0.00		-8.40		1.485e-02		127.747		3.466e-03		11.037
7		0.00		-8.00		1.492e-02		126.256		3.347e-03		8.905
7		0.00		-7.60		1.444e-02		124.303		2.773e-03		9.612
7		0.00		-7.20		1.431e-02		126.239		2.530e-03		9.007
7		0.00		-6.80		1.376e-02		127.656		2.351e-03		10.418
7		0.00		-6.40		1.288e-02		125.591		2.735e-03		15.021
7		0.00		-6.00		1.242e-02		126.092		2.745e-03		10.740
7		0.00		-5.60		1.200e-02		124.703		2.561e-03		10.804
7		0.00		-5.20		1.199e-02		128.105		1.992e-03		10.292
7		0.00		-4.80		1.132e-02		125.977		2.233e-03		8.711
7		0.00		-4.40		1.076e-02		128.309		2.372e-03		11.669
7		0.00		-4.00		1.003e-02		124.024		2.543e-03		17.889
7		0.00		-3.60		9.806e-03		124.200		2.578e-03		14.057
7		0.00		-3.20		9.406e-03		121.981		2.059e-03		11.164
7		0.00		-2.80		9.061e-03		129.393		1.925e-03		12.053
7		0.00		-2.40		8.928e-03		126.136		1.933e-03		13.069
7		0.00		-2.00		8.422e-03		121.672		2.088e-03		15.335
7		0.00		-1.60		7.886e-03		123.371		2.001e-03		13.030
7		0.00		-1.20		8.001e-03		124.776		2.260e-03		13.825
7		0.00		-0.80		7.855e-03		123.688		1.824e-03		11.556
7		0.00		-0.40		7.593e-03		123.569		1.585e-03		13.677
8		0.00		0.00		7.419e-03		125.308		1.819e-03		11.980
8		0.00		0.40		6.569e-03		122.515		1.964e-03		24.079
8		0.00		0.80		6.533e-03		126.808		1.764e-03		14.588
8		0.00		1.20		6.498e-03		123.005		1.652e-03		14.754
8		0.00		1.60		6.008e-03		126.164		1.580e-03		22.903
8		0.00		2.00		5.179e-03		124.831		1.651e-03		19.476
8		0.00		2.40		4.242e-03		124.218		1.421e-03		19.195
8		0.00		2.80		3.642e-03		105.192		1.476e-03		42.922
8		0.00		3.20		3.150e-03		110.630		1.304e-03		42.743
8		0.00		3.60		2.162e-03		66.151		1.009e-03		65.513
8		0.00		4.00		1.684e-03		23.686		7.300e-04		91.898
8		0.00		4.40		1.877e-03		-34.244		7.977e-04		69.668
8		0.00		4.80		2.229e-03		-47.321		9.065e-04		52.732
8		0.00		5.20		3.365e-03		-59.992		1.362e-03		28.861
8		0.00		5.60		4.408e-03		-59.365		1.446e-03		23.616
8		0.00		6.00		5.621e-03		-52.246		1.412e-03		17.412
8		0.00		6.40		6.883e-03		-54.336		1.312e-03		14.124
8		0.00		6.80		7.663e-03		-48.436		1.801e-03		15.011
8		0.00		7.20		8.691e-03		-51.324		2.315e-03		18.183
8		0.00		7.60		1.042e-02		-52.421		2.685e-03		14.176
8		0.00		8.00		1.241e-02		-51.979		2.790e-03		10.545
8		0.00		8.40		1.415e-02		-50.253		2.305e-03		10.230
8		0.00		8.80		1.590e-02		-52.023		2.563e-03		9.774
8		0.00		9.20		1.727e-02		-49.271		3.143e-03		9.368
8		0.00		9.60		1.965e-02		-50.435		4.076e-03		12.253
8		0.00		10.00		2.199e-02		-53.689		5.021e-03		10.624
8		0.00		9.60		2.361e-02		-51.676		4.654e-03		7.430
8		0.00		9.20		2.507e-02		-53.322		4.041e-03		6.915
8		0.00		8.80		2.535e-02		-53.155		4.081e-03		8.531
8		0.00		8.40		2.499e-02		-49.238		4.570e-03		9.360
8		0.00		8.00		2.473e-02		-51.417		5.293e-03		13.327
8		0.00		7.60		2.453e-02		-54.273		5.596e-03		9.565
8		0.00		7.20		2.478e-02		-51.415		4.806e-03		7.882
8		0.00		6.80		2.460e-02		-51.635		3.879e-03		9.057
8		0.00		6.40		2.449e-02		-50.769		3.839e-03		7.975
8		0.00		6.00		2.362e-02		-50.869		4.508e-03		7.556
8		0.00		5.60		2.339e-02		-51.643		5.617e-03		9.690
8		0.00		5.20		2.308e-02		-52.694		5.640e-03		9.755
8		0.00		4.80		2.349e-02		-53.196		4.756e-03		8.660
8		0.00		4.40		2.335e-02		-54.416		4.014e-03		8.208
8		0.00		4.00		2.251e-02		-52.199		4.056e-03		9.663
8		0.00		3.60		2.237e-02		-49.529		4.747e-03		9.868
8		0.00		3.20		2.184e-02		-51.019		5.451e-03		13.713
8		0.00		2.80		2.185e-02		-51.789		5.186e-03		9.992
8		0.00		2.40		2.256e-02		-53.749		4.093e-03		8.759
8		0.00		2.00		2.276e-02		-52.943		3.743e-03		7.826
8		0.00		1.60		2.234e-02		-50.147		3.926e-03		8.635
8		0.00		1.20		2.181e-02		-49.962		4.275e-03		11.286
8		0.00		0.80		2.165e-02		-52.226		4.947e-03		11.712
8		0.00		0.40		2.100e-02		-51.023		4.800e-03		9.124
8		0.00		0.00		2.140e-02		-51.468		4.023e-03		7.891
8		0.00		-0.40		2.171e-02		-51.881		3.288e-03		7.893
8		0.00		-0.80		2.173e-02		-51.748		3.821e-03		9.780
8		0.00		-1.20		2.168e-02		-49.908		4.477e-03		9.694
8		0.00		-1.60		2.010e-02		-54.048		5.014e-03		14.805
8		0.00		-2.00		1.995e-02		-52.207		5.232e-03		11.575
8		0.00		-2.40		1.966e-02		-54.328		4.511e-03		9.026
8		0.00		-2.80		1.941e-02		-53.371		3.834e-03		9.629
8		0.00		-3.20		1.907e-02		-51.137		3.522e-03		9.523
8		0.00		-3.60		1.731e-02		-51.535		3.550e-03		11.376
8		0.00		-4.00		1.662e-02		-53.651		3.764e-03		13.211
8		0.00		-4.40		1.509e-02		-49.873		4.121e-03		14.756
8		0.00		-4.80		1.438e-02		-53.246		3.705e-03		10.491
8		0.00		-5.20		1.282e-02		-53.953		2.640e-03		9.371
8		0.00		-5.60		1.038e-02		-47.948		1.960e-03		11.665
8		0.00		-6.00		7.755e-03		-47.201		1.452e-03		14.765
8		0.00		-6.40		4.333e-03		-44.781		1.364e-03		21.072
8		0.00		-6.80		2.051e-03		-49.921		8.334e-04		60.709
8		0.00		-7.20		3.006e-03		99.744		1.148e-03		46.606
8		0.00		-7.60		5.859e-03		119.162		1.758e-03		19.939
8		0.00		-8.00		8.553e-03		123.028		1.992e-03		12.017
8		0.00		-8.40		9.850e-03		125.496		2.423e-03		12.531
8		0.00		-8.80		1.048e-02		125.345		2.331e-03		10.976
8		0.00		-9.20		1.209e-02		125.247		2.921e-03		15.137
8		0.00		-9.60		1.328e-02		123.318		3.311e-03		18.165
8		0.00		-10.00		1.423e-02		123.416		3.831e-03		14.940
8		0.00		-9.60		1.491e-02		126.316		3.592e-03		9.404
8		0.00		-9.20		1.544e-02		124.187		2.882e-03		8.667
8		0.00		-8.80		1.571e-02		125.901		2.866e-03		9.005
8		0.00		-8.40		1.499e-02		124.365		2.987e-03		7.493
8		0.00		-8.00		1.432e-02		126.981		3.463e-03		14.183
8		0.00		-7.60		1.356e-02		124.500		3.838e-03		19.827
8		0.00		-7.20		1.340e-02		124.069		3.496e-03		12.046
8		0.00		-6.80		1.335e-02		123.271		3.192e-03		8.626
8		0.00		-6.40		1.331e-02		127.050		2.526e-03		9.518
8		0.00		-6.00		1.256e-02		126.199		2.606e-03		10.047
8		0.00		-5.60		1.200e-02		126.227		2.806e-03		11.823
8		0.00		-5.20		1.156e-02		124.042		2.687e-03		15.298
8		0.00		-4.80		1.078e-02		124.674		2.807e-03		16.055
8		0.00		-4.40		1.059e-02		124.785		2.529e-03		14.431
8		0.00		-4.00		1.018e-02		128.938		2.279e-03		10.048
8		0.00		-3.60		9.995e-03		124.169		2.169e-03		10.105
8		0.00		-3.20		9.436e-03		122.761		1.761e-03		12.023
8		0.00		-2.80		9.218e-03		128.749		2.052e-03		11.043
8		0.00		-2.40		8.728e-03		126.756		2.140e-03		15.691
8		0.00		-2.00		8.128e-03		129.056		2.141e-03		19.525
8		0.00		-1.60		7.711e-03		126.066		2.254e-03		21.144
8		0.00		-1.20		7.492e-03		122.974		2.148e-03		14.326
8		0.00		-0.80		7.465e-03		121.780		1.914e-03		12.350
8		0.00		-0.40		7.173e-03		121.758		1.726e-03		13.841
