# Date of analysis: 2023-11-20 16;19
# 
# Loop index	Read Volt (V)	Write Volt (V)	Amplitude (a.u)	Phase (deg)	Sigma Amp (a.u)	Sigma Pha (deg)	
1		0.00		0.00		7.826e-03		-45.721		1.836e-03		13.831
1		0.00		0.40		8.059e-03		-46.909		2.264e-03		14.806
1		0.00		0.80		7.699e-03		-42.550		2.113e-03		19.788
1		0.00		1.20		8.133e-03		-41.133		2.138e-03		17.448
1		0.00		1.60		7.978e-03		-42.468		2.298e-03		15.399
1		0.00		2.00		7.883e-03		-44.801		2.348e-03		13.724
1		0.00		2.40		7.781e-03		-45.417		2.419e-03		14.963
1		0.00		2.80		7.883e-03		-47.103		2.236e-03		18.230
1		0.00		3.20		8.205e-03		-40.437		2.449e-03		16.419
1		0.00		3.60		8.848e-03		-43.192		2.638e-03		18.269
1		0.00		4.00		9.330e-03		-47.158		2.608e-03		14.787
1		0.00		4.40		1.028e-02		-46.942		2.871e-03		15.529
1		0.00		4.80		1.109e-02		-47.605		3.156e-03		16.747
1		0.00		5.20		1.188e-02		-46.302		3.043e-03		14.625
1		0.00		5.60		1.306e-02		-50.313		3.577e-03		16.045
1		0.00		6.00		1.425e-02		-50.083		3.667e-03		12.045
1		0.00		6.40		1.544e-02		-50.356		3.462e-03		13.567
1		0.00		6.80		1.692e-02		-48.084		3.916e-03		10.813
1		0.00		7.20		1.829e-02		-52.893		4.324e-03		11.541
1		0.00		7.60		1.982e-02		-50.392		4.356e-03		9.203
1		0.00		8.00		2.284e-02		-50.873		4.818e-03		10.810
1		0.00		8.40		2.522e-02		-51.162		5.076e-03		9.430
1		0.00		8.80		2.784e-02		-50.110		5.852e-03		9.255
1		0.00		9.20		3.028e-02		-49.671		6.347e-03		7.517
1		0.00		9.60		3.333e-02		-51.477		7.192e-03		8.680
1		0.00		10.00		3.486e-02		-52.323		7.236e-03		9.873
1		0.00		9.60		3.516e-02		-51.078		7.096e-03		8.494
1		0.00		9.20		3.626e-02		-52.063		7.488e-03		8.248
1		0.00		8.80		3.701e-02		-52.355		7.781e-03		8.604
1		0.00		8.40		3.661e-02		-53.716		7.605e-03		8.253
1		0.00		8.00		3.705e-02		-53.279		7.618e-03		8.671
1		0.00		7.60		3.653e-02		-52.028		7.074e-03		8.314
1		0.00		7.20		3.553e-02		-52.415		7.227e-03		7.780
1		0.00		6.80		3.482e-02		-52.354		7.656e-03		9.418
1		0.00		6.40		3.468e-02		-52.173		7.244e-03		7.532
1		0.00		6.00		3.445e-02		-53.042		7.312e-03		8.166
1		0.00		5.60		3.360e-02		-51.455		7.113e-03		7.053
1		0.00		5.20		3.328e-02		-51.804		7.271e-03		8.543
1		0.00		4.80		3.264e-02		-52.044		7.490e-03		8.361
1		0.00		4.40		3.200e-02		-51.516		7.636e-03		8.625
1		0.00		4.00		3.212e-02		-51.256		7.565e-03		8.622
1		0.00		3.60		3.148e-02		-51.302		7.757e-03		10.076
1		0.00		3.20		3.181e-02		-50.623		7.939e-03		8.917
1		0.00		2.80		3.136e-02		-50.873		8.397e-03		8.409
1		0.00		2.40		3.067e-02		-50.717		8.747e-03		12.096
1		0.00		2.00		3.043e-02		-50.529		8.709e-03		11.700
1		0.00		1.60		3.043e-02		-50.588		8.724e-03		12.098
1		0.00		1.20		3.001e-02		-51.165		8.268e-03		13.880
1		0.00		0.80		3.023e-02		-51.769		8.170e-03		12.920
1		0.00		0.40		3.017e-02		-50.491		8.263e-03		14.188
1		0.00		0.00		2.998e-02		-50.516		7.913e-03		12.585
1		0.00		-0.40		2.970e-02		-51.136		7.661e-03		10.794
1		0.00		-0.80		2.954e-02		-51.438		7.380e-03		11.493
1		0.00		-1.20		2.976e-02		-50.096		6.846e-03		9.820
1		0.00		-1.60		3.008e-02		-51.106		6.556e-03		9.169
1		0.00		-2.00		2.961e-02		-49.178		6.365e-03		9.217
1		0.00		-2.40		2.944e-02		-50.685		5.643e-03		8.901
1		0.00		-2.80		2.843e-02		-50.623		6.011e-03		9.121
1		0.00		-3.20		2.827e-02		-50.280		5.456e-03		7.896
1		0.00		-3.60		2.725e-02		-52.419		5.090e-03		9.339
1		0.00		-4.00		2.624e-02		-50.698		5.252e-03		8.868
1		0.00		-4.40		2.503e-02		-51.110		5.069e-03		10.787
1		0.00		-4.80		2.322e-02		-49.443		4.841e-03		9.058
1		0.00		-5.20		2.159e-02		-48.038		4.632e-03		8.287
1		0.00		-5.60		1.885e-02		-51.578		4.030e-03		10.715
1		0.00		-6.00		1.677e-02		-47.740		3.845e-03		10.018
1		0.00		-6.40		1.438e-02		-48.547		3.578e-03		10.656
1		0.00		-6.80		1.158e-02		-51.641		3.112e-03		14.037
1		0.00		-7.20		8.752e-03		-45.842		2.447e-03		13.972
1		0.00		-7.60		5.255e-03		-38.226		1.925e-03		21.159
1		0.00		-8.00		2.756e-03		-30.755		1.413e-03		45.448
1		0.00		-8.40		2.895e-03		74.261		1.141e-03		49.375
1		0.00		-8.80		4.847e-03		95.900		1.877e-03		38.965
1		0.00		-9.20		6.336e-03		111.520		2.315e-03		26.970
1		0.00		-9.60		8.387e-03		120.276		2.495e-03		20.196
1		0.00		-10.00		9.934e-03		117.951		2.632e-03		15.304
1		0.00		-9.60		1.123e-02		120.093		2.902e-03		11.198
1		0.00		-9.20		1.173e-02		121.042		3.171e-03		13.158
1		0.00		-8.80		1.177e-02		118.747		2.954e-03		12.441
1		0.00		-8.40		1.158e-02		123.065		3.037e-03		12.589
1		0.00		-8.00		1.186e-02		121.771		3.178e-03		10.945
1		0.00		-7.60		1.108e-02		116.903		3.069e-03		14.512
1		0.00		-7.20		1.113e-02		119.983		3.072e-03		12.086
1		0.00		-6.80		1.068e-02		116.159		3.075e-03		12.473
1		0.00		-6.40		1.015e-02		117.258		3.127e-03		14.215
1		0.00		-6.00		9.571e-03		115.115		2.867e-03		14.048
1		0.00		-5.60		9.432e-03		117.834		2.818e-03		19.279
1		0.00		-5.20		8.576e-03		115.668		2.680e-03		16.588
1		0.00		-4.80		8.254e-03		114.946		2.740e-03		17.354
1		0.00		-4.40		8.061e-03		116.939		2.527e-03		20.122
1		0.00		-4.00		7.531e-03		115.128		2.341e-03		33.472
1		0.00		-3.60		7.588e-03		115.093		2.362e-03		17.106
1		0.00		-3.20		7.372e-03		113.829		2.197e-03		25.168
1		0.00		-2.80		6.769e-03		112.749		2.094e-03		20.928
1		0.00		-2.40		6.970e-03		114.844		2.085e-03		34.978
1		0.00		-2.00		6.641e-03		110.740		2.053e-03		20.605
1		0.00		-1.60		6.252e-03		108.397		1.777e-03		39.758
1		0.00		-1.20		6.188e-03		114.781		1.946e-03		25.662
1		0.00		-0.80		6.263e-03		114.349		1.837e-03		21.273
1		0.00		-0.40		6.109e-03		116.225		1.671e-03		15.072
2		0.00		0.00		5.756e-03		115.348		1.795e-03		25.059
2		0.00		0.40		5.796e-03		114.088		1.796e-03		16.219
2		0.00		0.80		5.186e-03		102.337		1.447e-03		29.566
2		0.00		1.20		4.793e-03		111.855		1.560e-03		23.860
2		0.00		1.60		3.950e-03		108.375		1.217e-03		31.803
2		0.00		2.00		3.430e-03		102.156		1.069e-03		38.692
2		0.00		2.40		2.559e-03		91.957		1.117e-03		41.087
2		0.00		2.80		2.138e-03		59.667		8.303e-04		51.710
2		0.00		3.20		1.781e-03		-11.271		7.551e-04		65.979
2		0.00		3.60		2.201e-03		-27.295		9.621e-04		54.195
2		0.00		4.00		3.220e-03		-42.877		1.154e-03		33.402
2		0.00		4.40		3.846e-03		-39.384		1.293e-03		23.840
2		0.00		4.80		5.562e-03		-46.598		1.566e-03		17.226
2		0.00		5.20		6.877e-03		-38.680		1.771e-03		17.017
2		0.00		5.60		8.097e-03		-46.546		2.003e-03		12.359
2		0.00		6.00		9.573e-03		-44.648		2.272e-03		14.394
2		0.00		6.40		1.116e-02		-46.630		2.703e-03		13.215
2		0.00		6.80		1.321e-02		-47.592		3.271e-03		12.883
2		0.00		7.20		1.581e-02		-48.693		3.713e-03		13.070
2		0.00		7.60		1.756e-02		-49.963		4.216e-03		12.275
2		0.00		8.00		2.036e-02		-50.313		4.739e-03		12.900
2		0.00		8.40		2.368e-02		-51.201		5.547e-03		11.574
2		0.00		8.80		2.672e-02		-50.532		5.852e-03		8.604
2		0.00		9.20		3.062e-02		-50.484		6.696e-03		9.706
2		0.00		9.60		3.415e-02		-50.408		7.793e-03		9.225
2		0.00		10.00		3.587e-02		-52.336		7.750e-03		8.774
2		0.00		9.60		3.838e-02		-51.668		8.172e-03		7.615
2		0.00		9.20		3.871e-02		-52.032		7.939e-03		8.922
2		0.00		8.80		3.813e-02		-51.860		7.804e-03		9.229
2		0.00		8.40		3.833e-02		-51.410		7.459e-03		8.096
2		0.00		8.00		3.781e-02		-51.889		7.784e-03		7.922
2		0.00		7.60		3.716e-02		-52.048		7.552e-03		7.578
2		0.00		7.20		3.628e-02		-50.668		7.695e-03		7.357
2		0.00		6.80		3.556e-02		-50.398		8.232e-03		8.484
2		0.00		6.40		3.538e-02		-50.305		8.573e-03		7.316
2		0.00		6.00		3.438e-02		-50.695		8.742e-03		8.254
2		0.00		5.60		3.409e-02		-48.638		9.088e-03		10.690
2		0.00		5.20		3.382e-02		-51.820		9.301e-03		12.346
2		0.00		4.80		3.325e-02		-50.644		8.598e-03		12.271
2		0.00		4.40		3.318e-02		-50.488		8.093e-03		11.248
2		0.00		4.00		3.310e-02		-51.212		7.802e-03		11.429
2		0.00		3.60		3.318e-02		-50.194		7.432e-03		10.535
2		0.00		3.20		3.233e-02		-49.549		7.338e-03		9.187
2		0.00		2.80		3.231e-02		-50.713		7.104e-03		10.257
2		0.00		2.40		3.225e-02		-51.103		7.117e-03		9.178
2		0.00		2.00		3.205e-02		-51.222		6.902e-03		8.936
2		0.00		1.60		3.240e-02		-50.828		6.705e-03		8.221
2		0.00		1.20		3.271e-02		-49.876		6.254e-03		8.399
2		0.00		0.80		3.265e-02		-51.311		6.539e-03		8.767
2		0.00		0.40		3.241e-02		-49.902		6.582e-03		8.429
2		0.00		0.00		3.295e-02		-51.192		6.838e-03		8.236
2		0.00		-0.40		3.237e-02		-50.558		7.032e-03		7.755
2		0.00		-0.80		3.191e-02		-50.869		7.096e-03		8.570
2		0.00		-1.20		3.140e-02		-50.392		7.418e-03		9.107
2		0.00		-1.60		3.156e-02		-50.623		7.263e-03		8.497
2		0.00		-2.00		3.052e-02		-48.918		8.058e-03		8.983
2		0.00		-2.40		2.957e-02		-50.273		7.845e-03		9.800
2		0.00		-2.80		2.850e-02		-51.498		7.932e-03		12.583
2		0.00		-3.20		2.685e-02		-47.330		7.322e-03		13.027
2		0.00		-3.60		2.638e-02		-50.715		7.280e-03		16.039
2		0.00		-4.00		2.501e-02		-50.033		6.523e-03		15.214
2		0.00		-4.40		2.332e-02		-50.626		6.162e-03		12.884
2		0.00		-4.80		2.122e-02		-49.747		5.603e-03		12.836
2		0.00		-5.20		2.008e-02		-50.508		4.932e-03		12.567
2		0.00		-5.60		1.847e-02		-47.418		4.291e-03		11.980
2		0.00		-6.00		1.546e-02		-48.038		3.295e-03		10.653
2		0.00		-6.40		1.347e-02		-48.085		3.189e-03		12.612
2		0.00		-6.80		1.114e-02		-44.538		2.683e-03		13.293
2		0.00		-7.20		8.004e-03		-40.041		2.118e-03		14.586
2		0.00		-7.60		5.751e-03		-35.455		2.146e-03		20.098
2		0.00		-8.00		4.121e-03		-27.152		1.899e-03		38.433
2		0.00		-8.40		3.035e-03		9.219		1.480e-03		55.745
2		0.00		-8.80		3.000e-03		36.754		1.287e-03		56.854
2		0.00		-9.20		4.113e-03		73.247		1.743e-03		56.054
2		0.00		-9.60		5.282e-03		96.110		1.857e-03		36.157
2		0.00		-10.00		7.082e-03		109.961		2.550e-03		29.250
2		0.00		-9.60		8.050e-03		108.406		2.708e-03		30.325
2		0.00		-9.20		7.583e-03		111.328		2.505e-03		28.301
2		0.00		-8.80		7.698e-03		107.303		2.545e-03		29.021
2		0.00		-8.40		7.628e-03		112.253		2.521e-03		28.270
2		0.00		-8.00		7.320e-03		107.148		2.610e-03		28.455
2		0.00		-7.60		6.361e-03		110.687		2.401e-03		34.025
2		0.00		-7.20		6.093e-03		105.097		2.228e-03		33.234
2		0.00		-6.80		5.640e-03		103.573		2.234e-03		32.699
2		0.00		-6.40		5.561e-03		109.904		2.103e-03		35.398
2		0.00		-6.00		4.638e-03		92.924		1.987e-03		36.731
2		0.00		-5.60		4.544e-03		94.891		1.955e-03		33.875
2		0.00		-5.20		4.210e-03		98.226		1.649e-03		34.209
2		0.00		-4.80		3.913e-03		90.254		1.573e-03		45.019
2		0.00		-4.40		3.547e-03		88.852		1.479e-03		42.434
2		0.00		-4.00		3.288e-03		77.831		1.368e-03		51.965
2		0.00		-3.60		2.940e-03		63.746		1.420e-03		49.064
2		0.00		-3.20		2.812e-03		55.199		1.205e-03		55.856
2		0.00		-2.80		2.459e-03		49.551		8.369e-04		61.638
2		0.00		-2.40		2.555e-03		67.050		9.511e-04		51.886
2		0.00		-2.00		2.347e-03		41.341		1.037e-03		57.454
2		0.00		-1.60		2.553e-03		43.028		1.047e-03		55.802
2		0.00		-1.20		2.404e-03		21.959		1.029e-03		53.011
2		0.00		-0.80		2.197e-03		19.965		8.721e-04		54.831
2		0.00		-0.40		2.279e-03		0.140		1.104e-03		60.520
3		0.00		0.00		2.174e-03		8.268		9.533e-04		62.301
3		0.00		0.40		2.105e-03		-13.661		8.695e-04		56.271
3		0.00		0.80		2.488e-03		-9.687		1.093e-03		47.327
3		0.00		1.20		2.470e-03		-10.444		1.209e-03		50.103
3		0.00		1.60		2.875e-03		-24.278		1.224e-03		39.257
3		0.00		2.00		3.358e-03		-31.650		1.253e-03		34.009
3		0.00		2.40		3.796e-03		-26.126		1.412e-03		30.100
3		0.00		2.80		4.661e-03		-32.584		1.599e-03		27.559
3		0.00		3.20		5.529e-03		-39.266		1.744e-03		21.806
3		0.00		3.60		7.006e-03		-41.238		2.080e-03		13.479
3		0.00		4.00		7.970e-03		-43.973		2.277e-03		15.526
3		0.00		4.40		8.614e-03		-46.447		2.430e-03		15.165
3		0.00		4.80		9.885e-03		-43.664		2.632e-03		13.936
3		0.00		5.20		1.281e-02		-49.275		3.319e-03		11.003
3		0.00		5.60		1.352e-02		-48.443		3.601e-03		12.596
3		0.00		6.00		1.520e-02		-47.508		3.904e-03		10.867
3		0.00		6.40		1.562e-02		-45.820		4.179e-03		12.794
3		0.00		6.80		1.717e-02		-48.833		4.646e-03		9.428
3		0.00		7.20		1.890e-02		-48.476		5.042e-03		12.723
3		0.00		7.60		2.010e-02		-49.762		5.281e-03		11.344
3		0.00		8.00		2.193e-02		-49.075		5.731e-03		12.534
3		0.00		8.40		2.385e-02		-50.856		5.930e-03		11.470
3		0.00		8.80		2.608e-02		-49.483		6.387e-03		10.082
3		0.00		9.20		2.866e-02		-47.042		6.840e-03		11.419
3		0.00		9.60		3.266e-02		-48.965		8.046e-03		9.620
3		0.00		10.00		3.556e-02		-51.217		8.562e-03		9.923
3		0.00		9.60		3.611e-02		-50.521		8.796e-03		9.637
3		0.00		9.20		3.609e-02		-51.008		8.895e-03		10.811
3		0.00		8.80		3.590e-02		-50.909		8.893e-03		9.052
3		0.00		8.40		3.574e-02		-50.502		8.701e-03		9.552
3		0.00		8.00		3.511e-02		-50.462		9.136e-03		9.821
3		0.00		7.60		3.422e-02		-51.198		9.412e-03		9.090
3		0.00		7.20		3.414e-02		-49.168		9.316e-03		7.999
3		0.00		6.80		3.370e-02		-51.220		9.252e-03		9.306
3		0.00		6.40		3.351e-02		-49.447		9.305e-03		8.269
3		0.00		6.00		3.280e-02		-51.620		8.812e-03		8.488
3		0.00		5.60		3.261e-02		-50.808		8.561e-03		7.906
3		0.00		5.20		3.201e-02		-52.054		8.387e-03		9.245
3		0.00		4.80		3.135e-02		-50.794		7.862e-03		8.616
3		0.00		4.40		3.188e-02		-51.358		7.387e-03		8.891
3		0.00		4.00		3.169e-02		-50.353		6.787e-03		8.313
3		0.00		3.60		3.161e-02		-50.271		6.339e-03		9.475
3		0.00		3.20		3.173e-02		-50.218		6.214e-03		7.626
3		0.00		2.80		3.179e-02		-50.848		5.961e-03		8.432
3		0.00		2.40		3.189e-02		-51.104		5.801e-03		9.050
3		0.00		2.00		3.211e-02		-50.452		5.544e-03		7.880
3		0.00		1.60		3.142e-02		-52.187		5.917e-03		7.803
3		0.00		1.20		3.169e-02		-51.183		5.985e-03		8.456
3		0.00		0.80		3.150e-02		-51.261		6.184e-03		9.031
3		0.00		0.40		3.064e-02		-50.980		5.721e-03		8.254
3		0.00		0.00		3.132e-02		-48.373		6.057e-03		8.854
3		0.00		-0.40		3.064e-02		-49.451		6.052e-03		9.203
3		0.00		-0.80		3.047e-02		-49.855		6.164e-03		9.955
3		0.00		-1.20		2.956e-02		-49.859		6.161e-03		10.372
3		0.00		-1.60		2.979e-02		-49.948		6.424e-03		9.340
3		0.00		-2.00		2.963e-02		-48.628		6.347e-03		10.672
3		0.00		-2.40		2.870e-02		-50.421		6.237e-03		11.191
3		0.00		-2.80		2.766e-02		-50.947		6.524e-03		11.533
3		0.00		-3.20		2.689e-02		-48.951		6.793e-03		12.790
3		0.00		-3.60		2.583e-02		-48.943		6.484e-03		9.890
3		0.00		-4.00		2.496e-02		-50.753		5.571e-03		8.775
3		0.00		-4.40		2.428e-02		-49.785		5.615e-03		8.091
3		0.00		-4.80		2.264e-02		-50.588		5.063e-03		9.399
3		0.00		-5.20		2.137e-02		-48.545		4.495e-03		9.601
3		0.00		-5.60		1.990e-02		-47.976		3.667e-03		9.042
3		0.00		-6.00		1.802e-02		-50.864		3.218e-03		9.158
3		0.00		-6.40		1.546e-02		-46.831		2.741e-03		10.776
3		0.00		-6.80		1.266e-02		-43.378		2.528e-03		10.313
3		0.00		-7.20		9.510e-03		-46.316		2.212e-03		13.855
3		0.00		-7.60		6.438e-03		-34.363		1.859e-03		19.931
3		0.00		-8.00		3.173e-03		-7.062		1.478e-03		48.286
3		0.00		-8.40		2.547e-03		20.172		1.086e-03		60.868
3		0.00		-8.80		2.887e-03		51.736		1.231e-03		52.379
3		0.00		-9.20		3.846e-03		83.176		1.559e-03		47.900
3		0.00		-9.60		4.626e-03		98.311		1.831e-03		43.511
3		0.00		-10.00		6.204e-03		93.939		2.441e-03		37.942
3		0.00		-9.60		6.338e-03		104.149		2.421e-03		34.064
3		0.00		-9.20		6.750e-03		105.115		2.378e-03		29.555
3		0.00		-8.80		6.446e-03		107.291		2.344e-03		36.254
3		0.00		-8.40		6.017e-03		98.506		2.186e-03		33.195
3		0.00		-8.00		5.697e-03		103.993		2.104e-03		38.101
3		0.00		-7.60		5.175e-03		98.004		1.941e-03		42.401
3		0.00		-7.20		5.135e-03		95.967		1.939e-03		43.916
3		0.00		-6.80		4.631e-03		95.825		1.882e-03		40.376
3		0.00		-6.40		4.106e-03		95.815		1.463e-03		42.893
3		0.00		-6.00		3.758e-03		78.644		1.537e-03		44.285
3		0.00		-5.60		3.390e-03		71.172		1.308e-03		52.744
3		0.00		-5.20		3.049e-03		66.361		1.142e-03		52.003
3		0.00		-4.80		2.623e-03		50.400		1.005e-03		59.743
3		0.00		-4.40		2.667e-03		48.631		1.011e-03		50.398
3		0.00		-4.00		2.342e-03		28.165		9.630e-04		54.198
3		0.00		-3.60		2.475e-03		23.615		9.074e-04		51.975
3		0.00		-3.20		2.166e-03		8.913		8.048e-04		58.526
3		0.00		-2.80		2.364e-03		9.898		1.041e-03		60.786
3		0.00		-2.40		2.226e-03		-2.178		8.938e-04		50.521
3		0.00		-2.00		2.563e-03		5.805		1.106e-03		47.417
3		0.00		-1.60		2.591e-03		-7.799		1.174e-03		51.730
3		0.00		-1.20		2.585e-03		-13.930		1.185e-03		46.393
3		0.00		-0.80		2.727e-03		-22.401		1.134e-03		44.563
3		0.00		-0.40		2.992e-03		-12.675		1.223e-03		42.213
4		0.00		0.00		3.367e-03		-18.837		1.428e-03		34.963
4		0.00		0.40		3.522e-03		-21.559		1.315e-03		35.157
4		0.00		0.80		3.841e-03		-24.517		1.532e-03		25.645
4		0.00		1.20		3.979e-03		-20.027		1.422e-03		28.160
4		0.00		1.60		4.303e-03		-30.923		1.587e-03		25.067
4		0.00		2.00		5.036e-03		-40.498		1.420e-03		18.139
4		0.00		2.40		5.676e-03		-38.304		1.498e-03		20.703
4		0.00		2.80		6.385e-03		-33.502		1.483e-03		18.567
4		0.00		3.20		7.422e-03		-43.859		1.692e-03		16.072
4		0.00		3.60		8.497e-03		-46.817		1.674e-03		11.622
4		0.00		4.00		9.172e-03		-47.085		2.128e-03		16.693
4		0.00		4.40		1.060e-02		-45.785		2.491e-03		10.968
4		0.00		4.80		1.129e-02		-44.115		2.787e-03		15.477
4		0.00		5.20		1.210e-02		-46.281		3.148e-03		10.797
4		0.00		5.60		1.399e-02		-48.810		3.563e-03		11.905
4		0.00		6.00		1.567e-02		-45.908		4.228e-03		10.790
4		0.00		6.40		1.737e-02		-47.431		4.142e-03		11.325
4		0.00		6.80		1.850e-02		-47.913		3.960e-03		10.047
4		0.00		7.20		2.220e-02		-50.467		4.596e-03		8.770
4		0.00		7.60		2.540e-02		-50.812		4.809e-03		8.665
4		0.00		8.00		2.655e-02		-50.399		5.426e-03		9.063
4		0.00		8.40		3.047e-02		-50.262		5.816e-03		9.162
4		0.00		8.80		3.299e-02		-48.976		5.997e-03		7.924
4		0.00		9.20		3.559e-02		-49.927		6.850e-03		7.738
4		0.00		9.60		3.729e-02		-50.090		7.650e-03		9.604
4		0.00		10.00		3.888e-02		-51.105		8.747e-03		12.542
4		0.00		9.60		3.923e-02		-50.823		9.202e-03		11.463
4		0.00		9.20		4.009e-02		-51.996		9.318e-03		8.791
4		0.00		8.80		3.947e-02		-51.355		9.273e-03		8.801
4		0.00		8.40		3.961e-02		-51.493		8.215e-03		7.160
4		0.00		8.00		3.944e-02		-51.057		8.030e-03		7.161
4		0.00		7.60		3.901e-02		-51.059		7.019e-03		7.034
4		0.00		7.20		3.915e-02		-50.571		6.725e-03		6.169
4		0.00		6.80		3.896e-02		-52.225		6.477e-03		6.724
4		0.00		6.40		3.843e-02		-51.455		6.378e-03		6.524
4		0.00		6.00		3.777e-02		-50.856		6.456e-03		6.203
4		0.00		5.60		3.700e-02		-49.938		6.547e-03		6.707
4		0.00		5.20		3.683e-02		-50.466		7.298e-03		9.218
4		0.00		4.80		3.667e-02		-50.290		7.638e-03		9.843
4		0.00		4.40		3.581e-02		-49.366		8.144e-03		10.151
4		0.00		4.00		3.587e-02		-49.482		8.200e-03		8.060
4		0.00		3.60		3.640e-02		-49.640		7.877e-03		7.598
4		0.00		3.20		3.639e-02		-50.468		7.802e-03		7.765
4		0.00		2.80		3.659e-02		-50.564		7.438e-03		7.888
4		0.00		2.40		3.663e-02		-51.074		6.973e-03		7.388
4		0.00		2.00		3.644e-02		-50.755		6.541e-03		7.790
4		0.00		1.60		3.668e-02		-50.025		6.005e-03		6.966
4		0.00		1.20		3.665e-02		-51.649		5.945e-03		7.249
4		0.00		0.80		3.642e-02		-50.711		6.239e-03		7.069
4		0.00		0.40		3.630e-02		-51.705		5.589e-03		7.210
4		0.00		0.00		3.632e-02		-50.425		5.985e-03		7.276
4		0.00		-0.40		3.556e-02		-49.375		6.258e-03		6.973
4		0.00		-0.80		3.512e-02		-50.145		7.204e-03		8.212
4		0.00		-1.20		3.506e-02		-50.087		7.201e-03		8.419
4		0.00		-1.60		3.344e-02		-50.148		7.940e-03		10.287
4		0.00		-2.00		3.254e-02		-51.171		7.867e-03		10.868
4		0.00		-2.40		3.144e-02		-51.118		8.228e-03		9.535
4		0.00		-2.80		3.128e-02		-51.233		7.954e-03		8.330
4		0.00		-3.20		3.028e-02		-49.323		7.416e-03		7.664
4		0.00		-3.60		2.894e-02		-49.971		6.678e-03		8.001
4		0.00		-4.00		2.846e-02		-51.365		5.572e-03		9.162
4		0.00		-4.40		2.748e-02		-50.038		5.001e-03		7.976
4		0.00		-4.80		2.640e-02		-49.274		4.326e-03		8.124
4		0.00		-5.20		2.467e-02		-49.862		4.274e-03		8.132
4		0.00		-5.60		2.206e-02		-48.810		3.834e-03		9.273
4		0.00		-6.00		1.978e-02		-46.699		3.178e-03		8.255
4		0.00		-6.40		1.630e-02		-45.793		3.292e-03		10.490
4		0.00		-6.80		1.362e-02		-47.053		3.027e-03		10.350
4		0.00		-7.20		1.005e-02		-42.220		2.567e-03		13.630
4		0.00		-7.60		7.243e-03		-41.829		2.197e-03		20.313
4		0.00		-8.00		5.069e-03		-28.392		2.112e-03		23.122
4		0.00		-8.40		3.276e-03		-24.712		1.596e-03		44.187
4		0.00		-8.80		3.137e-03		19.585		1.427e-03		55.885
4		0.00		-9.20		3.090e-03		45.911		1.306e-03		50.376
4		0.00		-9.60		3.262e-03		61.842		1.312e-03		55.271
4		0.00		-10.00		4.786e-03		94.841		1.816e-03		38.085
4		0.00		-9.60		5.430e-03		102.300		1.911e-03		37.660
4		0.00		-9.20		5.557e-03		95.401		1.935e-03		34.796
4		0.00		-8.80		5.312e-03		99.811		2.085e-03		35.047
4		0.00		-8.40		4.795e-03		99.595		1.706e-03		39.239
4		0.00		-8.00		3.941e-03		89.098		1.628e-03		46.506
4		0.00		-7.60		3.938e-03		80.288		1.535e-03		46.110
4		0.00		-7.20		3.693e-03		80.933		1.389e-03		41.841
4		0.00		-6.80		3.057e-03		71.752		1.241e-03		49.113
4		0.00		-6.40		3.026e-03		66.344		1.121e-03		45.694
4		0.00		-6.00		2.799e-03		43.482		1.051e-03		57.869
4		0.00		-5.60		2.545e-03		32.182		1.128e-03		57.676
4		0.00		-5.20		2.414e-03		30.593		8.750e-04		51.779
4		0.00		-4.80		2.434e-03		-8.249		1.272e-03		54.764
4		0.00		-4.40		2.583e-03		-4.924		1.262e-03		51.127
4		0.00		-4.00		2.878e-03		-12.278		1.241e-03		45.385
4		0.00		-3.60		3.013e-03		-11.739		1.257e-03		41.573
4		0.00		-3.20		3.214e-03		-22.076		1.428e-03		32.814
4		0.00		-2.80		3.628e-03		-16.564		1.436e-03		31.700
4		0.00		-2.40		4.041e-03		-18.580		1.493e-03		31.250
4		0.00		-2.00		4.183e-03		-34.890		1.544e-03		25.113
4		0.00		-1.60		4.559e-03		-33.537		1.545e-03		24.447
4		0.00		-1.20		4.817e-03		-36.792		1.665e-03		27.005
4		0.00		-0.80		4.599e-03		-26.733		1.576e-03		33.948
4		0.00		-0.40		5.145e-03		-32.339		1.987e-03		29.240
5		0.00		0.00		5.394e-03		-39.569		1.564e-03		18.961
5		0.00		0.40		5.854e-03		-36.093		1.616e-03		17.488
5		0.00		0.80		5.894e-03		-41.296		1.579e-03		17.924
5		0.00		1.20		6.333e-03		-38.404		1.498e-03		16.017
5		0.00		1.60		6.698e-03		-36.142		1.710e-03		17.957
5		0.00		2.00		6.893e-03		-36.052		1.669e-03		16.517
5		0.00		2.40		7.679e-03		-43.580		1.856e-03		13.261
5		0.00		2.80		8.511e-03		-37.878		1.975e-03		16.458
5		0.00		3.20		9.266e-03		-41.685		2.232e-03		12.690
5		0.00		3.60		1.042e-02		-44.069		2.259e-03		11.481
5		0.00		4.00		1.149e-02		-41.912		2.706e-03		11.156
5		0.00		4.40		1.240e-02		-45.484		2.589e-03		9.710
5		0.00		4.80		1.359e-02		-48.368		2.717e-03		10.242
5		0.00		5.20		1.497e-02		-46.178		2.841e-03		9.974
5		0.00		5.60		1.737e-02		-49.140		3.083e-03		9.401
5		0.00		6.00		1.875e-02		-51.093		3.432e-03		8.748
5		0.00		6.40		2.023e-02		-50.781		3.656e-03		9.492
5		0.00		6.80		2.321e-02		-50.166		4.334e-03		9.115
5		0.00		7.20		2.591e-02		-49.595		5.005e-03		7.954
5		0.00		7.60		2.793e-02		-49.247		5.189e-03		9.159
5		0.00		8.00		2.884e-02		-51.370		6.393e-03		9.336
5		0.00		8.40		3.043e-02		-50.361		6.318e-03		11.268
5		0.00		8.80		3.273e-02		-51.086		7.129e-03		10.853
5		0.00		9.20		3.454e-02		-50.593		7.540e-03		11.507
5		0.00		9.60		3.529e-02		-49.971		7.681e-03		11.374
5		0.00		10.00		3.795e-02		-51.227		8.626e-03		9.067
5		0.00		9.60		3.965e-02		-50.478		8.668e-03		7.342
5		0.00		9.20		3.919e-02		-51.397		8.234e-03		8.368
5		0.00		8.80		3.876e-02		-50.743		7.709e-03		7.055
5		0.00		8.40		3.896e-02		-51.859		7.316e-03		7.737
5		0.00		8.00		3.832e-02		-51.281		7.364e-03		6.203
5		0.00		7.60		3.828e-02		-50.696		7.065e-03		5.993
5		0.00		7.20		3.764e-02		-50.771		6.990e-03		6.758
5		0.00		6.80		3.683e-02		-52.303		6.962e-03		7.699
5		0.00		6.40		3.677e-02		-51.152		7.334e-03		8.015
5		0.00		6.00		3.571e-02		-51.251		7.307e-03		8.190
5		0.00		5.60		3.546e-02		-49.989		7.169e-03		7.632
5		0.00		5.20		3.518e-02		-49.372		7.678e-03		8.185
5		0.00		4.80		3.479e-02		-50.194		7.545e-03		9.363
5		0.00		4.40		3.392e-02		-51.532		7.973e-03		12.070
5		0.00		4.00		3.371e-02		-51.248		8.210e-03		14.757
5		0.00		3.60		3.368e-02		-48.565		7.665e-03		12.385
5		0.00		3.20		3.388e-02		-49.584		7.384e-03		10.039
5		0.00		2.80		3.420e-02		-50.779		7.615e-03		7.334
5		0.00		2.40		3.396e-02		-49.741		7.241e-03		7.557
5		0.00		2.00		3.434e-02		-51.100		7.170e-03		8.485
5		0.00		1.60		3.434e-02		-51.708		7.036e-03		7.246
5		0.00		1.20		3.442e-02		-51.421		6.321e-03		7.001
5		0.00		0.80		3.497e-02		-51.183		6.341e-03		7.588
5		0.00		0.40		3.476e-02		-50.669		5.711e-03		6.701
5		0.00		0.00		3.512e-02		-50.512		6.147e-03		7.161
5		0.00		-0.40		3.454e-02		-50.027		5.847e-03		7.868
5		0.00		-0.80		3.428e-02		-50.115		5.530e-03		7.198
5		0.00		-1.20		3.436e-02		-51.316		5.633e-03		7.126
5		0.00		-1.60		3.365e-02		-50.870		5.571e-03		7.480
5		0.00		-2.00		3.342e-02		-50.609		5.759e-03		7.994
5		0.00		-2.40		3.312e-02		-50.408		5.823e-03		6.775
5		0.00		-2.80		3.230e-02		-49.733		5.814e-03		7.317
5		0.00		-3.20		3.088e-02		-50.156		5.462e-03		7.357
5		0.00		-3.60		2.953e-02		-49.672		5.096e-03		6.759
5		0.00		-4.00		2.874e-02		-49.953		5.085e-03		7.975
5		0.00		-4.40		2.743e-02		-50.531		5.186e-03		7.887
5		0.00		-4.80		2.536e-02		-49.088		4.658e-03		7.974
5		0.00		-5.20		2.202e-02		-50.568		3.884e-03		9.310
5		0.00		-5.60		2.059e-02		-47.443		3.877e-03		7.269
5		0.00		-6.00		1.827e-02		-49.033		3.764e-03		9.750
5		0.00		-6.40		1.558e-02		-45.270		3.424e-03		13.603
5		0.00		-6.80		1.290e-02		-47.238		2.915e-03		12.432
5		0.00		-7.20		1.035e-02		-43.719		2.332e-03		12.492
5		0.00		-7.60		8.021e-03		-39.913		2.303e-03		16.243
5		0.00		-8.00		5.656e-03		-35.929		2.159e-03		25.247
5		0.00		-8.40		3.875e-03		-8.866		1.620e-03		35.190
5		0.00		-8.80		2.896e-03		14.108		1.396e-03		55.970
5		0.00		-9.20		2.825e-03		33.943		1.117e-03		56.298
5		0.00		-9.60		3.507e-03		69.731		1.485e-03		53.927
5		0.00		-10.00		4.610e-03		89.584		1.831e-03		46.596
5		0.00		-9.60		4.495e-03		88.051		1.892e-03		41.598
5		0.00		-9.20		4.439e-03		86.656		1.988e-03		48.953
5		0.00		-8.80		4.319e-03		86.310		1.787e-03		36.514
5		0.00		-8.40		4.229e-03		90.464		1.479e-03		42.991
5		0.00		-8.00		4.004e-03		77.599		1.494e-03		47.453
5		0.00		-7.60		3.711e-03		80.575		1.458e-03		47.497
5		0.00		-7.20		3.369e-03		68.486		1.199e-03		52.490
5		0.00		-6.80		2.932e-03		49.436		1.279e-03		67.073
5		0.00		-6.40		2.502e-03		31.439		1.121e-03		53.510
5		0.00		-6.00		2.569e-03		14.041		1.039e-03		56.438
5		0.00		-5.60		2.449e-03		-3.002		1.156e-03		56.488
5		0.00		-5.20		2.913e-03		-13.594		1.233e-03		40.213
5		0.00		-4.80		2.742e-03		-13.696		1.292e-03		47.951
5		0.00		-4.40		3.262e-03		-22.066		1.411e-03		40.156
5		0.00		-4.00		3.372e-03		-24.293		1.509e-03		34.135
5		0.00		-3.60		3.779e-03		-22.319		1.527e-03		32.499
5		0.00		-3.20		3.906e-03		-27.562		1.437e-03		29.609
5		0.00		-2.80		4.720e-03		-23.113		1.677e-03		22.653
5		0.00		-2.40		4.653e-03		-32.975		1.453e-03		23.367
5		0.00		-2.00		5.149e-03		-36.174		1.716e-03		20.196
5		0.00		-1.60		5.389e-03		-33.303		1.656e-03		20.864
5		0.00		-1.20		5.432e-03		-33.737		1.688e-03		16.915
5		0.00		-0.80		5.715e-03		-27.938		1.704e-03		18.442
5		0.00		-0.40		6.115e-03		-38.306		1.780e-03		15.357
6		0.00		0.00		6.074e-03		-34.495		1.811e-03		20.177
6		0.00		0.40		6.688e-03		-33.825		1.805e-03		16.364
6		0.00		0.80		6.508e-03		-35.901		1.569e-03		15.695
6		0.00		1.20		6.804e-03		-37.667		1.797e-03		16.921
6		0.00		1.60		7.700e-03		-38.198		1.907e-03		13.749
6		0.00		2.00		7.708e-03		-41.568		1.904e-03		16.095
6		0.00		2.40		8.492e-03		-42.585		2.050e-03		12.924
6		0.00		2.80		9.386e-03		-44.634		2.179e-03		12.305
6		0.00		3.20		9.985e-03		-42.870		2.562e-03		13.566
6		0.00		3.60		1.057e-02		-42.391		2.683e-03		11.187
6		0.00		4.00		1.179e-02		-45.005		3.036e-03		15.505
6		0.00		4.40		1.271e-02		-44.045		2.973e-03		9.862
6		0.00		4.80		1.357e-02		-48.778		3.311e-03		11.022
6		0.00		5.20		1.444e-02		-48.534		3.571e-03		13.814
6		0.00		5.60		1.563e-02		-47.247		3.747e-03		11.652
6		0.00		6.00		1.672e-02		-48.546		3.962e-03		12.146
6		0.00		6.40		1.886e-02		-49.936		4.491e-03		10.630
6		0.00		6.80		1.975e-02		-49.298		4.718e-03		12.975
6		0.00		7.20		2.357e-02		-49.637		5.109e-03		11.768
6		0.00		7.60		2.573e-02		-50.170		5.495e-03		11.001
6		0.00		8.00		2.748e-02		-49.869		5.819e-03		11.897
6		0.00		8.40		3.123e-02		-49.888		6.582e-03		10.764
6		0.00		8.80		3.345e-02		-50.611		6.900e-03		10.752
6		0.00		9.20		3.566e-02		-50.188		7.235e-03		9.565
6		0.00		9.60		3.613e-02		-50.245		7.571e-03		8.645
6		0.00		10.00		3.836e-02		-50.085		8.095e-03		8.994
6		0.00		9.60		3.892e-02		-50.326		8.368e-03		9.574
6		0.00		9.20		3.818e-02		-51.390		7.954e-03		9.762
6		0.00		8.80		3.793e-02		-51.121		7.711e-03		8.265
6		0.00		8.40		3.748e-02		-49.773		7.506e-03		7.204
6		0.00		8.00		3.691e-02		-50.317		7.584e-03		7.762
6		0.00		7.60		3.731e-02		-49.652		7.616e-03		8.983
6		0.00		7.20		3.684e-02		-50.902		7.143e-03		7.203
6		0.00		6.80		3.634e-02		-49.795		7.186e-03		6.829
6		0.00		6.40		3.628e-02		-50.391		7.042e-03		7.873
6		0.00		6.00		3.515e-02		-49.881		7.031e-03		8.227
6		0.00		5.60		3.541e-02		-49.894		6.988e-03		8.592
6		0.00		5.20		3.473e-02		-50.206		6.405e-03		7.900
6		0.00		4.80		3.474e-02		-49.768		6.542e-03		8.148
6		0.00		4.40		3.485e-02		-49.503		6.260e-03		7.449
6		0.00		4.00		3.471e-02		-49.947		6.164e-03		6.915
6		0.00		3.60		3.456e-02		-50.292		6.497e-03		7.619
6		0.00		3.20		3.447e-02		-50.729		6.301e-03		7.924
6		0.00		2.80		3.453e-02		-51.042		6.375e-03		8.428
6		0.00		2.40		3.380e-02		-48.887		6.333e-03		8.235
6		0.00		2.00		3.397e-02		-49.093		6.049e-03		7.870
6		0.00		1.60		3.366e-02		-49.528		6.455e-03		7.634
6		0.00		1.20		3.307e-02		-50.208		7.039e-03		8.660
6		0.00		0.80		3.316e-02		-49.853		7.101e-03		7.653
6		0.00		0.40		3.294e-02		-50.496		7.509e-03		8.852
6		0.00		0.00		3.280e-02		-49.848		7.055e-03		8.185
6		0.00		-0.40		3.250e-02		-50.151		7.355e-03		7.588
6		0.00		-0.80		3.257e-02		-49.570		7.137e-03		7.051
6		0.00		-1.20		3.264e-02		-50.552		6.940e-03		7.494
6		0.00		-1.60		3.175e-02		-51.482		6.971e-03		9.116
6		0.00		-2.00		3.101e-02		-48.759		6.454e-03		8.174
6		0.00		-2.40		3.114e-02		-49.927		6.603e-03		9.159
6		0.00		-2.80		2.989e-02		-50.073		6.220e-03		8.386
6		0.00		-3.20		2.860e-02		-49.090		5.681e-03		9.198
6		0.00		-3.60		2.799e-02		-48.182		5.623e-03		8.226
6		0.00		-4.00		2.640e-02		-47.853		5.360e-03		9.358
6		0.00		-4.40		2.530e-02		-49.925		5.197e-03		10.297
6		0.00		-4.80		2.294e-02		-48.190		4.962e-03		10.945
6		0.00		-5.20		2.036e-02		-48.453		4.385e-03		9.359
6		0.00		-5.60		1.802e-02		-46.008		3.752e-03		10.875
6		0.00		-6.00		1.545e-02		-44.021		3.387e-03		10.267
6		0.00		-6.40		1.270e-02		-44.803		3.261e-03		11.563
6		0.00		-6.80		1.069e-02		-45.237		2.830e-03		13.039
6		0.00		-7.20		8.633e-03		-34.662		2.322e-03		13.261
6		0.00		-7.60		6.248e-03		-39.094		2.003e-03		18.768
6		0.00		-8.00		4.343e-03		-38.510		1.835e-03		28.631
6		0.00		-8.40		3.206e-03		-22.882		1.377e-03		41.237
6		0.00		-8.80		2.721e-03		26.961		1.166e-03		52.853
6		0.00		-9.20		2.577e-03		32.733		1.041e-03		56.481
6		0.00		-9.60		3.562e-03		72.951		1.287e-03		48.807
6		0.00		-10.00		4.431e-03		86.761		1.758e-03		42.234
6		0.00		-9.60		4.344e-03		95.768		1.642e-03		46.190
6		0.00		-9.20		4.471e-03		96.385		1.779e-03		42.174
6		0.00		-8.80		3.959e-03		82.231		1.779e-03		46.867
6		0.00		-8.40		3.689e-03		85.949		1.618e-03		46.039
6		0.00		-8.00		3.350e-03		72.450		1.206e-03		45.734
6		0.00		-7.60		3.076e-03		63.645		1.143e-03		54.064
6		0.00		-7.20		2.935e-03		59.303		1.127e-03		64.031
6		0.00		-6.80		2.741e-03		54.231		1.151e-03		58.110
6		0.00		-6.40		2.595e-03		26.058		1.113e-03		62.664
6		0.00		-6.00		2.372e-03		28.619		1.006e-03		61.610
6		0.00		-5.60		2.463e-03		27.984		1.166e-03		51.740
6		0.00		-5.20		2.588e-03		-13.905		1.173e-03		46.572
6		0.00		-4.80		2.816e-03		1.637		1.317e-03		47.102
6		0.00		-4.40		3.089e-03		-21.569		1.320e-03		43.253
6		0.00		-4.00		3.386e-03		-16.316		1.332e-03		38.900
6		0.00		-3.60		3.751e-03		-36.790		1.469e-03		29.975
6		0.00		-3.20		4.409e-03		-34.587		1.601e-03		27.859
6		0.00		-2.80		4.415e-03		-27.807		1.625e-03		27.482
6		0.00		-2.40		5.061e-03		-39.415		1.922e-03		21.272
6		0.00		-2.00		4.960e-03		-44.125		1.458e-03		21.850
6		0.00		-1.60		5.141e-03		-40.383		1.557e-03		19.442
6		0.00		-1.20		5.684e-03		-36.270		1.650e-03		22.508
6		0.00		-0.80		5.813e-03		-40.888		1.641e-03		18.237
6		0.00		-0.40		6.193e-03		-37.974		1.635e-03		20.162
7		0.00		0.00		6.141e-03		-37.647		1.590e-03		17.432
7		0.00		0.40		6.736e-03		-43.487		1.695e-03		16.871
7		0.00		0.80		6.724e-03		-34.720		1.839e-03		16.767
7		0.00		1.20		7.400e-03		-40.954		1.785e-03		11.277
7		0.00		1.60		7.733e-03		-42.766		1.926e-03		15.657
7		0.00		2.00		8.300e-03		-43.908		2.168e-03		15.583
7		0.00		2.40		8.363e-03		-41.193		2.123e-03		15.826
7		0.00		2.80		9.017e-03		-41.653		2.348e-03		11.607
7		0.00		3.20		1.036e-02		-44.813		2.659e-03		13.371
7		0.00		3.60		1.107e-02		-42.785		2.390e-03		11.737
7		0.00		4.00		1.206e-02		-45.202		2.559e-03		11.462
7		0.00		4.40		1.310e-02		-44.687		2.388e-03		11.888
7		0.00		4.80		1.415e-02		-48.653		2.695e-03		11.094
7		0.00		5.20		1.533e-02		-47.033		2.713e-03		10.308
7		0.00		5.60		1.620e-02		-47.003		2.940e-03		9.927
7		0.00		6.00		1.740e-02		-50.495		3.120e-03		8.820
7		0.00		6.40		2.097e-02		-48.455		3.835e-03		8.096
7		0.00		6.80		2.176e-02		-48.212		4.423e-03		8.221
7		0.00		7.20		2.315e-02		-49.309		4.769e-03		8.587
7		0.00		7.60		2.312e-02		-50.045		5.306e-03		12.636
7		0.00		8.00		2.521e-02		-50.228		5.690e-03		12.729
7		0.00		8.40		2.997e-02		-49.163		7.148e-03		9.050
7		0.00		8.80		3.219e-02		-50.116		7.412e-03		7.961
7		0.00		9.20		3.523e-02		-50.473		7.462e-03		7.152
7		0.00		9.60		3.730e-02		-50.280		7.388e-03		6.725
7		0.00		10.00		3.834e-02		-51.283		6.949e-03		6.955
7		0.00		9.60		4.002e-02		-51.841		7.309e-03		6.578
7		0.00		9.20		3.919e-02		-52.035		7.498e-03		7.343
7		0.00		8.80		3.920e-02		-51.240		7.153e-03		7.802
7		0.00		8.40		3.754e-02		-51.443		7.880e-03		8.479
7		0.00		8.00		3.708e-02		-49.287		8.655e-03		9.290
7		0.00		7.60		3.625e-02		-51.632		9.262e-03		11.295
7		0.00		7.20		3.550e-02		-51.612		9.069e-03		14.506
7		0.00		6.80		3.480e-02		-52.425		9.595e-03		13.980
7		0.00		6.40		3.426e-02		-51.663		9.522e-03		9.196
7		0.00		6.00		3.518e-02		-50.983		8.722e-03		7.432
7		0.00		5.60		3.528e-02		-51.028		7.171e-03		7.280
7		0.00		5.20		3.545e-02		-51.268		6.072e-03		7.191
7		0.00		4.80		3.521e-02		-50.353		5.984e-03		6.893
7		0.00		4.40		3.501e-02		-49.960		6.653e-03		8.418
7		0.00		4.00		3.504e-02		-48.731		6.899e-03		7.466
7		0.00		3.60		3.440e-02		-49.487		7.509e-03		9.254
7		0.00		3.20		3.387e-02		-51.188		7.991e-03		11.601
7		0.00		2.80		3.411e-02		-50.101		8.625e-03		7.149
7		0.00		2.40		3.456e-02		-52.523		7.897e-03		6.814
7		0.00		2.00		3.404e-02		-51.583		7.074e-03		7.197
7		0.00		1.60		3.443e-02		-50.895		6.509e-03		6.887
7		0.00		1.20		3.386e-02		-52.688		6.354e-03		8.280
7		0.00		0.80		3.353e-02		-49.698		7.289e-03		8.433
7		0.00		0.40		3.360e-02		-51.813		7.850e-03		10.299
7		0.00		0.00		3.314e-02		-50.581		8.400e-03		12.518
7		0.00		-0.40		3.316e-02		-49.844		8.709e-03		8.590
7		0.00		-0.80		3.357e-02		-51.547		8.337e-03		8.469
7		0.00		-1.20		3.381e-02		-50.460		6.838e-03		6.675
7		0.00		-1.60		3.375e-02		-51.213		6.043e-03		7.508
7		0.00		-2.00		3.268e-02		-49.968		6.078e-03		8.076
7		0.00		-2.40		3.266e-02		-48.770		6.410e-03		8.040
7		0.00		-2.80		3.119e-02		-49.541		6.794e-03		10.642
7		0.00		-3.20		3.051e-02		-49.219		7.181e-03		11.608
7		0.00		-3.60		2.943e-02		-50.581		6.746e-03		7.890
7		0.00		-4.00		2.815e-02		-51.653		5.614e-03		7.621
7		0.00		-4.40		2.632e-02		-50.418		4.212e-03		6.956
7		0.00		-4.80		2.443e-02		-50.943		3.637e-03		7.727
7		0.00		-5.20		2.138e-02		-51.514		3.504e-03		9.744
7		0.00		-5.60		1.829e-02		-45.895		3.553e-03		7.748
7		0.00		-6.00		1.572e-02		-45.490		3.347e-03		10.381
7		0.00		-6.40		1.314e-02		-45.977		3.360e-03		13.212
7		0.00		-6.80		1.148e-02		-47.198		3.356e-03		12.049
7		0.00		-7.20		9.038e-03		-45.503		2.622e-03		13.722
7		0.00		-7.60		6.540e-03		-29.562		2.222e-03		20.848
7		0.00		-8.00		5.096e-03		-31.271		1.909e-03		24.566
7		0.00		-8.40		3.187e-03		-19.407		1.420e-03		47.401
7		0.00		-8.80		2.733e-03		7.607		1.109e-03		55.513
7		0.00		-9.20		2.693e-03		37.122		1.145e-03		57.990
7		0.00		-9.60		2.933e-03		53.070		1.175e-03		54.854
7		0.00		-10.00		4.034e-03		84.272		1.627e-03		52.576
7		0.00		-9.60		4.086e-03		81.871		1.680e-03		50.015
7		0.00		-9.20		3.980e-03		85.917		1.545e-03		49.839
7		0.00		-8.80		4.236e-03		80.228		1.694e-03		49.327
7		0.00		-8.40		3.693e-03		78.323		1.465e-03		60.575
7		0.00		-8.00		3.465e-03		79.963		1.409e-03		50.903
7		0.00		-7.60		3.314e-03		61.860		1.199e-03		50.394
7		0.00		-7.20		2.888e-03		54.774		1.244e-03		57.969
7		0.00		-6.80		2.626e-03		40.907		9.749e-04		62.654
7		0.00		-6.40		2.678e-03		43.880		1.050e-03		59.875
7		0.00		-6.00		2.755e-03		16.469		1.008e-03		62.717
7		0.00		-5.60		2.648e-03		-10.595		1.172e-03		54.906
7		0.00		-5.20		2.748e-03		-10.244		1.118e-03		51.952
7		0.00		-4.80		3.339e-03		-14.986		1.394e-03		40.741
7		0.00		-4.40		3.644e-03		-29.592		1.494e-03		35.412
7		0.00		-4.00		3.952e-03		-16.590		1.623e-03		31.029
7		0.00		-3.60		4.199e-03		-21.073		1.795e-03		34.189
7		0.00		-3.20		4.450e-03		-39.659		1.412e-03		25.755
7		0.00		-2.80		4.899e-03		-37.424		1.547e-03		20.497
7		0.00		-2.40		5.256e-03		-34.363		1.506e-03		21.522
7		0.00		-2.00		5.608e-03		-33.947		1.783e-03		19.973
7		0.00		-1.60		5.879e-03		-31.599		1.752e-03		17.085
7		0.00		-1.20		6.133e-03		-40.148		1.930e-03		16.723
7		0.00		-0.80		6.495e-03		-41.554		1.703e-03		17.029
7		0.00		-0.40		6.871e-03		-41.656		1.702e-03		16.773
8		0.00		0.00		6.861e-03		-38.223		1.584e-03		14.627
8		0.00		0.40		7.489e-03		-48.013		1.560e-03		16.817
8		0.00		0.80		7.213e-03		-41.553		1.593e-03		19.325
8		0.00		1.20		7.839e-03		-43.047		1.976e-03		12.398
8		0.00		1.60		8.123e-03		-45.793		1.912e-03		15.176
8		0.00		2.00		8.338e-03		-40.656		2.085e-03		17.807
8		0.00		2.40		9.157e-03		-39.604		2.296e-03		14.659
8		0.00		2.80		9.368e-03		-40.938		1.982e-03		12.220
8		0.00		3.20		1.039e-02		-45.158		2.123e-03		12.210
8		0.00		3.60		1.117e-02		-44.707		2.184e-03		12.992
8		0.00		4.00		1.219e-02		-44.003		2.522e-03		11.453
8		0.00		4.40		1.259e-02		-47.863		2.710e-03		13.524
8		0.00		4.80		1.352e-02		-48.135		3.201e-03		11.000
8		0.00		5.20		1.460e-02		-47.208		3.957e-03		13.347
8		0.00		5.60		1.542e-02		-49.657		4.215e-03		9.814
8		0.00		6.00		1.661e-02		-49.372		4.072e-03		8.838
8		0.00		6.40		1.866e-02		-50.803		3.910e-03		9.757
8		0.00		6.80		2.098e-02		-50.208		4.238e-03		8.663
8		0.00		7.20		2.298e-02		-49.415		4.528e-03		9.254
8		0.00		7.60		2.472e-02		-48.263		4.673e-03		7.619
8		0.00		8.00		2.557e-02		-48.051		5.431e-03		10.897
8		0.00		8.40		2.847e-02		-49.499		6.515e-03		11.662
8		0.00		8.80		3.142e-02		-51.141		7.231e-03		8.276
8		0.00		9.20		3.457e-02		-51.104		7.423e-03		6.869
8		0.00		9.60		3.803e-02		-52.269		7.208e-03		6.009
8		0.00		10.00		3.948e-02		-51.951		6.819e-03		6.596
8		0.00		9.60		3.876e-02		-51.129		7.150e-03		8.765
8		0.00		9.20		3.921e-02		-50.145		7.336e-03		6.459
8		0.00		8.80		3.821e-02		-50.576		7.906e-03		10.530
8		0.00		8.40		3.730e-02		-50.738		8.748e-03		12.234
8		0.00		8.00		3.672e-02		-51.032		9.324e-03		11.725
8		0.00		7.60		3.652e-02		-51.313		9.306e-03		8.496
8		0.00		7.20		3.661e-02		-51.128		7.936e-03		6.623
8		0.00		6.80		3.686e-02		-50.206		6.505e-03		6.863
8		0.00		6.40		3.677e-02		-52.387		6.570e-03		6.466
8		0.00		6.00		3.653e-02		-51.000		6.458e-03		7.383
8		0.00		5.60		3.586e-02		-49.694		6.590e-03		6.947
8		0.00		5.20		3.473e-02		-50.269		7.910e-03		11.265
8		0.00		4.80		3.457e-02		-51.102		8.602e-03		12.137
8		0.00		4.40		3.498e-02		-50.649		8.657e-03		11.599
8		0.00		4.00		3.534e-02		-49.159		8.076e-03		7.277
8		0.00		3.60		3.577e-02		-48.723		6.962e-03		6.086
8		0.00		3.20		3.610e-02		-51.167		6.129e-03		6.417
8		0.00		2.80		3.577e-02		-50.883		5.808e-03		6.449
8		0.00		2.40		3.569e-02		-51.475		6.251e-03		7.472
8		0.00		2.00		3.519e-02		-49.351		6.052e-03		6.697
8		0.00		1.60		3.559e-02		-48.074		6.322e-03		7.004
8		0.00		1.20		3.450e-02		-50.492		7.399e-03		10.124
8		0.00		0.80		3.483e-02		-49.733		7.899e-03		10.513
8		0.00		0.40		3.478e-02		-49.419		8.573e-03		7.424
8		0.00		0.00		3.447e-02		-51.217		8.523e-03		6.350
8		0.00		-0.40		3.438e-02		-51.348		7.582e-03		6.882
8		0.00		-0.80		3.442e-02		-51.518		7.049e-03		7.672
8		0.00		-1.20		3.461e-02		-51.943		6.736e-03		7.813
8		0.00		-1.60		3.392e-02		-51.313		6.998e-03		7.866
8		0.00		-2.00		3.319e-02		-50.183		7.324e-03		9.130
8		0.00		-2.40		3.181e-02		-50.898		7.797e-03		10.588
8		0.00		-2.80		3.125e-02		-51.718		7.741e-03		12.883
8		0.00		-3.20		3.034e-02		-52.233		7.990e-03		14.948
8		0.00		-3.60		2.942e-02		-50.379		7.334e-03		8.369
8		0.00		-4.00		2.828e-02		-52.302		5.823e-03		7.950
8		0.00		-4.40		2.658e-02		-51.567		4.526e-03		6.970
8		0.00		-4.80		2.507e-02		-49.550		4.005e-03		7.451
8		0.00		-5.20		2.217e-02		-49.839		3.397e-03		8.157
8		0.00		-5.60		1.933e-02		-45.803		2.903e-03		9.195
8		0.00		-6.00		1.748e-02		-46.197		3.147e-03		8.493
8		0.00		-6.40		1.289e-02		-46.536		2.917e-03		11.857
8		0.00		-6.80		1.088e-02		-43.236		2.739e-03		13.408
8		0.00		-7.20		9.610e-03		-44.061		2.484e-03		13.435
8		0.00		-7.60		7.912e-03		-35.037		2.509e-03		15.993
8		0.00		-8.00		6.002e-03		-39.744		2.276e-03		24.818
8		0.00		-8.40		4.554e-03		-35.133		2.143e-03		25.621
8		0.00		-8.80		3.136e-03		-5.540		1.401e-03		50.912
8		0.00		-9.20		2.610e-03		16.013		1.058e-03		61.040
8		0.00		-9.60		3.174e-03		76.110		1.491e-03		49.598
8		0.00		-10.00		4.090e-03		97.181		1.492e-03		47.321
8		0.00		-9.60		4.337e-03		96.182		1.749e-03		41.569
8		0.00		-9.20		4.599e-03		95.472		1.783e-03		36.634
8		0.00		-8.80		4.184e-03		91.521		1.856e-03		43.337
8		0.00		-8.40		3.842e-03		86.335		1.585e-03		47.122
8		0.00		-8.00		3.724e-03		86.039		1.571e-03		42.690
8		0.00		-7.60		3.224e-03		69.939		1.178e-03		56.627
8		0.00		-7.20		2.787e-03		53.861		1.066e-03		54.561
8		0.00		-6.80		2.589e-03		50.228		1.124e-03		59.501
8		0.00		-6.40		2.056e-03		9.456		8.922e-04		60.408
8		0.00		-6.00		2.316e-03		2.708		1.049e-03		69.086
8		0.00		-5.60		2.132e-03		-1.587		9.907e-04		50.698
8		0.00		-5.20		2.692e-03		2.737		1.252e-03		48.023
8		0.00		-4.80		2.858e-03		-21.522		1.298e-03		44.495
8		0.00		-4.40		3.196e-03		-23.003		1.357e-03		37.757
8		0.00		-4.00		3.871e-03		-31.552		1.512e-03		33.578
8		0.00		-3.60		3.780e-03		-30.142		1.474e-03		27.991
8		0.00		-3.20		4.452e-03		-31.767		1.776e-03		18.462
8		0.00		-2.80		4.455e-03		-28.762		1.459e-03		25.093
8		0.00		-2.40		5.170e-03		-40.166		1.618e-03		20.059
8		0.00		-2.00		5.300e-03		-35.189		1.501e-03		20.435
8		0.00		-1.60		5.703e-03		-39.165		1.536e-03		20.699
8		0.00		-1.20		5.560e-03		-37.035		1.469e-03		17.859
8		0.00		-0.80		6.061e-03		-41.320		1.713e-03		18.068
8		0.00		-0.40		6.125e-03		-37.826		1.690e-03		16.585
