# Date of analysis: 2024-03-08 10;58
# Segment other properties: height: -37.95708481224791, diff height: 224.99369700054962, deflection: 35.729561664723384, deflection error: 5.338571114988742, adhesion: 25.264823906205734, phase offset: 0
# 
# Loop index	Read Volt (V)	Write Volt (V)	Amplitude (a.u)	Phase (deg)	Sigma Amp (a.u)	Sigma Pha (deg)	
1		0.00		0.00		3.045e-02		-56.478		9.756e-03		21.158
1		0.00		0.40		2.906e-02		-56.081		9.231e-03		21.197
1		0.00		0.80		2.831e-02		-55.865		9.094e-03		20.053
1		0.00		1.20		2.745e-02		-57.058		8.575e-03		19.570
1		0.00		1.60		2.793e-02		-56.467		8.657e-03		20.776
1		0.00		2.00		2.662e-02		-55.851		7.713e-03		18.906
1		0.00		2.40		2.637e-02		-55.673		7.705e-03		20.141
1		0.00		2.80		2.697e-02		-54.772		7.608e-03		18.916
1		0.00		3.20		2.799e-02		-54.326		7.171e-03		18.105
1		0.00		3.60		2.874e-02		-52.837		6.892e-03		16.415
1		0.00		4.00		3.020e-02		-53.809		7.024e-03		16.611
1		0.00		4.40		3.183e-02		-52.358		7.451e-03		16.484
1		0.00		4.80		3.242e-02		-52.492		7.173e-03		15.026
1		0.00		5.20		3.283e-02		-51.478		7.461e-03		15.727
1		0.00		5.60		3.359e-02		-52.165		7.880e-03		17.091
1		0.00		6.00		3.467e-02		-49.992		7.982e-03		15.767
1		0.00		6.40		3.448e-02		-50.830		8.256e-03		17.292
1		0.00		6.80		3.582e-02		-50.869		8.734e-03		16.981
1		0.00		7.20		3.762e-02		-49.670		1.014e-02		16.812
1		0.00		7.60		3.808e-02		-50.356		1.110e-02		17.250
1		0.00		8.00		4.010e-02		-51.989		1.276e-02		18.105
1		0.00		8.40		3.957e-02		-51.121		1.322e-02		18.325
1		0.00		8.80		4.140e-02		-52.974		1.431e-02		17.823
1		0.00		9.20		4.284e-02		-53.477		1.542e-02		18.405
1		0.00		9.60		4.420e-02		-53.738		1.597e-02		17.870
1		0.00		10.00		4.485e-02		-53.573		1.666e-02		20.517
1		0.00		9.60		4.463e-02		-54.608		1.615e-02		21.912
1		0.00		9.20		4.546e-02		-50.953		1.552e-02		21.576
1		0.00		8.80		4.357e-02		-49.870		1.438e-02		18.817
1		0.00		8.40		4.252e-02		-49.036		1.350e-02		16.596
1		0.00		8.00		4.175e-02		-50.360		1.311e-02		14.290
1		0.00		7.60		4.079e-02		-50.853		1.158e-02		15.788
1		0.00		7.20		4.098e-02		-52.454		1.185e-02		17.416
1		0.00		6.80		4.044e-02		-51.169		1.030e-02		15.414
1		0.00		6.40		3.963e-02		-51.955		1.006e-02		15.361
1		0.00		6.00		3.885e-02		-51.184		9.503e-03		15.390
1		0.00		5.60		3.801e-02		-50.663		9.868e-03		14.860
1		0.00		5.20		3.764e-02		-51.209		9.860e-03		14.372
1		0.00		4.80		3.800e-02		-51.518		1.058e-02		14.988
1		0.00		4.40		3.619e-02		-51.347		1.070e-02		16.558
1		0.00		4.00		3.561e-02		-54.742		1.098e-02		17.831
1		0.00		3.60		3.399e-02		-53.737		1.121e-02		19.687
1		0.00		3.20		3.290e-02		-55.376		1.140e-02		21.955
1		0.00		2.80		3.190e-02		-55.402		1.103e-02		23.772
1		0.00		2.40		3.210e-02		-55.596		1.127e-02		24.606
1		0.00		2.00		3.194e-02		-53.179		1.031e-02		19.182
1		0.00		1.60		3.148e-02		-52.677		9.476e-03		17.825
1		0.00		1.20		3.154e-02		-51.483		9.039e-03		16.389
1		0.00		0.80		3.067e-02		-52.570		7.981e-03		14.062
1		0.00		0.40		3.066e-02		-50.804		7.406e-03		12.846
1		0.00		0.00		2.992e-02		-50.851		6.578e-03		13.831
1		0.00		-0.40		2.820e-02		-51.090		6.254e-03		14.690
1		0.00		-0.80		2.656e-02		-50.424		5.333e-03		15.497
1		0.00		-1.20		2.492e-02		-50.526		5.414e-03		14.952
1		0.00		-1.60		2.136e-02		-51.066		4.961e-03		15.808
1		0.00		-2.00		1.773e-02		-51.499		5.071e-03		16.971
1		0.00		-2.40		1.478e-02		-52.725		4.869e-03		16.662
1		0.00		-2.80		1.184e-02		-54.613		4.554e-03		15.998
1		0.00		-3.20		8.000e-03		-53.718		3.973e-03		24.606
1		0.00		-3.60		6.166e-03		-45.697		3.426e-03		45.640
1		0.00		-4.00		4.492e-03		-5.647		2.266e-03		60.257
1		0.00		-4.40		4.305e-03		55.534		1.996e-03		68.458
1		0.00		-4.80		5.625e-03		90.165		2.882e-03		58.783
1		0.00		-5.20		8.337e-03		111.033		4.248e-03		45.929
1		0.00		-5.60		1.065e-02		120.514		4.713e-03		36.427
1		0.00		-6.00		1.317e-02		123.884		5.316e-03		23.575
1		0.00		-6.40		1.610e-02		128.803		6.148e-03		13.657
1		0.00		-6.80		1.767e-02		127.897		6.257e-03		11.496
1		0.00		-7.20		2.174e-02		129.149		6.797e-03		10.714
1		0.00		-7.60		2.282e-02		128.835		7.274e-03		12.252
1		0.00		-8.00		2.408e-02		126.984		7.664e-03		16.014
1		0.00		-8.40		2.620e-02		126.347		8.343e-03		18.971
1		0.00		-8.80		2.803e-02		124.551		9.102e-03		19.365
1		0.00		-9.20		2.889e-02		123.110		9.971e-03		23.226
1		0.00		-9.60		3.086e-02		120.886		1.119e-02		24.125
1		0.00		-10.00		2.968e-02		120.451		1.099e-02		24.835
1		0.00		-9.60		3.148e-02		120.149		1.186e-02		27.749
1		0.00		-9.20		2.948e-02		121.543		1.115e-02		23.429
1		0.00		-8.80		2.968e-02		124.692		1.046e-02		16.022
1		0.00		-8.40		2.928e-02		125.224		9.572e-03		15.495
1		0.00		-8.00		2.936e-02		126.023		9.140e-03		12.564
1		0.00		-7.60		2.766e-02		126.166		8.224e-03		12.775
1		0.00		-7.20		2.831e-02		126.786		8.058e-03		10.724
1		0.00		-6.80		2.501e-02		126.832		7.051e-03		12.342
1		0.00		-6.40		2.607e-02		128.363		7.479e-03		11.219
1		0.00		-6.00		2.260e-02		124.760		6.676e-03		15.702
1		0.00		-5.60		2.237e-02		125.647		7.136e-03		16.701
1		0.00		-5.20		2.084e-02		123.453		6.915e-03		21.185
1		0.00		-4.80		1.991e-02		124.688		6.578e-03		23.495
1		0.00		-4.40		1.858e-02		123.119		6.045e-03		25.952
1		0.00		-4.00		1.819e-02		123.079		5.950e-03		28.574
1		0.00		-3.60		1.646e-02		123.529		5.342e-03		23.020
1		0.00		-3.20		1.542e-02		124.657		5.153e-03		18.252
1		0.00		-2.80		1.418e-02		128.092		4.335e-03		12.948
1		0.00		-2.40		1.354e-02		127.774		4.446e-03		11.022
1		0.00		-2.00		1.280e-02		125.840		4.121e-03		12.213
1		0.00		-1.60		1.173e-02		130.590		3.809e-03		12.977
1		0.00		-1.20		1.025e-02		124.799		3.524e-03		25.280
1		0.00		-0.80		9.733e-03		120.621		3.482e-03		31.773
1		0.00		-0.40		8.640e-03		124.974		3.364e-03		31.105
2		0.00		0.00		8.039e-03		120.523		2.980e-03		39.393
2		0.00		0.40		7.077e-03		112.744		2.680e-03		37.776
2		0.00		0.80		6.056e-03		111.868		2.478e-03		47.714
2		0.00		1.20		5.066e-03		114.326		2.023e-03		43.142
2		0.00		1.60		3.968e-03		109.155		1.674e-03		47.902
2		0.00		2.00		3.124e-03		87.618		1.295e-03		57.435
2		0.00		2.40		2.209e-03		17.325		9.263e-04		92.571
2		0.00		2.80		2.350e-03		-19.618		8.975e-04		78.421
2		0.00		3.20		3.249e-03		-49.585		1.415e-03		43.428
2		0.00		3.60		4.078e-03		-58.749		1.725e-03		31.537
2		0.00		4.00		8.494e-03		-54.569		2.945e-03		18.034
2		0.00		4.40		1.411e-02		-54.898		4.750e-03		18.275
2		0.00		4.80		1.836e-02		-53.612		6.059e-03		22.251
2		0.00		5.20		2.542e-02		-53.321		7.854e-03		19.358
2		0.00		5.60		3.314e-02		-52.368		8.962e-03		13.741
2		0.00		6.00		3.365e-02		-51.799		8.275e-03		13.811
2		0.00		6.40		3.549e-02		-52.862		7.717e-03		12.407
2		0.00		6.80		3.728e-02		-52.875		8.618e-03		12.367
2		0.00		7.20		3.984e-02		-52.334		9.691e-03		13.722
2		0.00		7.60		4.099e-02		-53.197		1.145e-02		16.928
2		0.00		8.00		3.907e-02		-53.660		1.162e-02		17.975
2		0.00		8.40		4.041e-02		-54.574		1.238e-02		20.043
2		0.00		8.80		3.932e-02		-52.749		1.150e-02		19.545
2		0.00		9.20		3.863e-02		-51.614		1.111e-02		15.050
2		0.00		9.60		3.999e-02		-52.512		1.011e-02		12.459
2		0.00		10.00		3.960e-02		-49.078		8.817e-03		14.730
2		0.00		9.60		4.170e-02		-50.503		9.334e-03		13.046
2		0.00		9.20		3.983e-02		-48.319		9.374e-03		12.880
2		0.00		8.80		3.949e-02		-51.372		1.031e-02		15.968
2		0.00		8.40		3.865e-02		-52.140		1.127e-02		15.802
2		0.00		8.00		3.627e-02		-54.905		1.184e-02		19.081
2		0.00		7.60		3.397e-02		-54.607		1.097e-02		20.836
2		0.00		7.20		3.102e-02		-50.452		9.580e-03		17.581
2		0.00		6.80		3.205e-02		-51.933		8.486e-03		12.912
2		0.00		6.40		3.210e-02		-51.019		7.687e-03		12.419
2		0.00		6.00		3.142e-02		-51.728		6.458e-03		12.435
2		0.00		5.60		3.190e-02		-50.756		6.136e-03		11.812
2		0.00		5.20		3.281e-02		-51.140		6.755e-03		11.986
2		0.00		4.80		3.194e-02		-52.648		7.586e-03		14.170
2		0.00		4.40		3.071e-02		-53.038		8.299e-03		15.674
2		0.00		4.00		2.886e-02		-52.815		8.457e-03		19.687
2		0.00		3.60		2.881e-02		-51.699		7.854e-03		16.832
2		0.00		3.20		2.814e-02		-51.812		6.575e-03		13.880
2		0.00		2.80		2.865e-02		-51.159		6.147e-03		13.006
2		0.00		2.40		2.910e-02		-51.860		5.163e-03		12.616
2		0.00		2.00		2.918e-02		-52.492		5.660e-03		11.829
2		0.00		1.60		2.887e-02		-53.138		7.104e-03		11.806
2		0.00		1.20		2.665e-02		-54.115		8.101e-03		14.905
2		0.00		0.80		2.513e-02		-53.938		8.051e-03		19.652
2		0.00		0.40		2.421e-02		-52.963		7.078e-03		19.258
2		0.00		0.00		2.444e-02		-53.218		6.558e-03		14.272
2		0.00		-0.40		2.367e-02		-53.088		5.177e-03		13.509
2		0.00		-0.80		2.277e-02		-54.175		4.508e-03		12.994
2		0.00		-1.20		2.001e-02		-52.541		4.106e-03		13.555
2		0.00		-1.60		1.680e-02		-53.269		4.186e-03		13.945
2		0.00		-2.00		1.288e-02		-54.726		4.011e-03		16.915
2		0.00		-2.40		1.021e-02		-56.338		4.116e-03		15.545
2		0.00		-2.80		8.103e-03		-52.965		3.967e-03		23.277
2		0.00		-3.20		6.750e-03		-53.229		3.468e-03		31.471
2		0.00		-3.60		5.117e-03		-31.846		2.822e-03		55.938
2		0.00		-4.00		3.977e-03		8.227		1.959e-03		69.904
2		0.00		-4.40		4.490e-03		40.843		2.195e-03		74.647
2		0.00		-4.80		6.190e-03		88.220		3.203e-03		56.940
2		0.00		-5.20		8.424e-03		106.428		3.983e-03		48.612
2		0.00		-5.60		1.132e-02		113.504		5.011e-03		45.198
2		0.00		-6.00		1.284e-02		118.240		5.608e-03		39.430
2		0.00		-6.40		1.599e-02		124.688		6.760e-03		23.636
2		0.00		-6.80		1.859e-02		129.779		6.849e-03		13.301
2		0.00		-7.20		2.134e-02		129.191		7.518e-03		10.842
2		0.00		-7.60		2.379e-02		128.006		7.871e-03		11.143
2		0.00		-8.00		2.613e-02		127.640		9.248e-03		16.048
2		0.00		-8.40		2.596e-02		123.961		9.455e-03		23.576
2		0.00		-8.80		2.878e-02		123.299		1.046e-02		24.930
2		0.00		-9.20		2.739e-02		122.095		9.399e-03		22.949
2		0.00		-9.60		3.080e-02		126.740		9.826e-03		14.710
2		0.00		-10.00		2.682e-02		127.158		8.074e-03		12.078
2		0.00		-9.60		2.957e-02		127.984		8.053e-03		11.134
2		0.00		-9.20		2.908e-02		127.722		8.317e-03		11.970
2		0.00		-8.80		2.863e-02		126.060		8.465e-03		15.749
2		0.00		-8.40		2.781e-02		123.778		9.260e-03		23.529
2		0.00		-8.00		2.958e-02		122.908		1.034e-02		24.997
2		0.00		-7.60		2.777e-02		122.354		1.012e-02		25.537
2		0.00		-7.20		2.714e-02		126.091		9.538e-03		15.362
2		0.00		-6.80		2.409e-02		126.799		8.185e-03		12.270
2		0.00		-6.40		2.357e-02		128.497		7.444e-03		11.439
2		0.00		-6.00		2.248e-02		124.417		7.564e-03		14.245
2		0.00		-5.60		2.127e-02		120.074		7.694e-03		22.155
2		0.00		-5.20		1.981e-02		120.327		7.608e-03		28.002
2		0.00		-4.80		1.844e-02		120.002		7.142e-03		27.194
2		0.00		-4.40		1.716e-02		123.270		6.233e-03		20.829
2		0.00		-4.00		1.581e-02		126.003		5.400e-03		16.795
2		0.00		-3.60		1.454e-02		126.566		4.620e-03		11.814
2		0.00		-3.20		1.322e-02		127.881		4.133e-03		13.598
2		0.00		-2.80		1.140e-02		117.380		3.985e-03		44.354
2		0.00		-2.40		1.066e-02		118.681		4.013e-03		36.251
2		0.00		-2.00		9.349e-03		114.170		3.684e-03		38.077
2		0.00		-1.60		8.626e-03		119.169		3.669e-03		31.361
2		0.00		-1.20		7.384e-03		117.811		3.057e-03		40.507
2		0.00		-0.80		6.201e-03		109.652		2.445e-03		47.900
2		0.00		-0.40		5.344e-03		112.300		2.329e-03		31.425
3		0.00		0.00		4.614e-03		95.150		1.949e-03		64.241
3		0.00		0.40		3.835e-03		83.812		1.737e-03		60.686
3		0.00		0.80		3.294e-03		78.882		1.612e-03		64.261
3		0.00		1.20		2.880e-03		45.368		1.291e-03		82.730
3		0.00		1.60		2.359e-03		9.685		9.481e-04		74.838
3		0.00		2.00		2.566e-03		-19.795		1.349e-03		61.184
3		0.00		2.40		2.977e-03		-49.160		1.529e-03		46.560
3		0.00		2.80		4.925e-03		-56.865		1.771e-03		25.221
3		0.00		3.20		6.949e-03		-55.649		1.749e-03		20.042
3		0.00		3.60		9.921e-03		-53.392		2.140e-03		17.414
3		0.00		4.00		1.384e-02		-51.886		2.955e-03		17.050
3		0.00		4.40		1.973e-02		-52.996		5.350e-03		17.772
3		0.00		4.80		2.491e-02		-53.558		7.491e-03		18.337
3		0.00		5.20		2.805e-02		-51.999		8.879e-03		18.901
3		0.00		5.60		2.883e-02		-53.794		8.379e-03		17.816
3		0.00		6.00		3.238e-02		-50.957		8.985e-03		12.164
3		0.00		6.40		3.397e-02		-50.503		8.356e-03		11.361
3		0.00		6.80		3.558e-02		-50.611		9.058e-03		12.284
3		0.00		7.20		3.745e-02		-50.327		9.037e-03		13.236
3		0.00		7.60		3.758e-02		-51.941		9.558e-03		13.370
3		0.00		8.00		3.881e-02		-52.246		1.040e-02		14.110
3		0.00		8.40		3.795e-02		-52.856		1.084e-02		16.769
3		0.00		8.80		3.746e-02		-53.874		1.178e-02		18.589
3		0.00		9.20		3.601e-02		-55.517		1.192e-02		20.862
3		0.00		9.60		3.469e-02		-53.328		1.138e-02		22.559
3		0.00		10.00		3.545e-02		-50.646		1.110e-02		17.419
3		0.00		9.60		3.848e-02		-50.154		1.073e-02		12.043
3		0.00		9.20		3.863e-02		-50.819		9.720e-03		10.603
3		0.00		8.80		3.803e-02		-51.094		8.562e-03		11.051
3		0.00		8.40		3.652e-02		-50.641		8.128e-03		11.528
3		0.00		8.00		3.591e-02		-49.390		7.874e-03		12.039
3		0.00		7.60		3.611e-02		-50.075		8.117e-03		13.031
3		0.00		7.20		3.523e-02		-50.643		8.385e-03		13.056
3		0.00		6.80		3.381e-02		-50.949		8.830e-03		14.140
3		0.00		6.40		3.284e-02		-52.667		9.281e-03		16.563
3		0.00		6.00		3.166e-02		-53.784		9.992e-03		20.708
3		0.00		5.60		3.247e-02		-53.421		9.914e-03		20.156
3		0.00		5.20		3.101e-02		-51.482		9.303e-03		15.921
3		0.00		4.80		3.121e-02		-51.735		8.778e-03		13.991
3		0.00		4.40		3.196e-02		-51.140		8.394e-03		11.005
3		0.00		4.00		3.129e-02		-50.515		7.418e-03		11.457
3		0.00		3.60		3.165e-02		-51.054		6.966e-03		11.019
3		0.00		3.20		3.162e-02		-49.999		6.696e-03		10.445
3		0.00		2.80		3.101e-02		-49.906		6.765e-03		11.243
3		0.00		2.40		3.043e-02		-51.171		7.256e-03		11.715
3		0.00		2.00		3.036e-02		-51.619		7.888e-03		13.520
3		0.00		1.60		3.003e-02		-53.189		8.265e-03		19.532
3		0.00		1.20		2.878e-02		-53.244		8.091e-03		21.229
3		0.00		0.80		2.908e-02		-53.423		7.789e-03		18.878
3		0.00		0.40		2.900e-02		-51.313		7.832e-03		15.469
3		0.00		0.00		2.927e-02		-50.303		6.937e-03		12.146
3		0.00		-0.40		2.720e-02		-50.922		6.029e-03		12.219
3		0.00		-0.80		2.673e-02		-50.776		5.255e-03		11.792
3		0.00		-1.20		2.334e-02		-50.558		4.631e-03		11.904
3		0.00		-1.60		2.154e-02		-51.216		4.532e-03		12.187
3		0.00		-2.00		1.715e-02		-50.431		4.131e-03		13.883
3		0.00		-2.40		1.342e-02		-51.220		4.208e-03		15.327
3		0.00		-2.80		9.869e-03		-53.281		3.875e-03		17.498
3		0.00		-3.20		7.337e-03		-48.944		3.451e-03		29.945
3		0.00		-3.60		4.648e-03		-24.239		2.958e-03		54.352
3		0.00		-4.00		4.193e-03		23.451		2.403e-03		66.793
3		0.00		-4.40		4.240e-03		45.554		2.094e-03		73.112
3		0.00		-4.80		5.378e-03		82.922		2.764e-03		64.029
3		0.00		-5.20		7.971e-03		110.013		3.700e-03		42.536
3		0.00		-5.60		1.155e-02		119.589		5.028e-03		39.468
3		0.00		-6.00		1.221e-02		117.174		5.077e-03		34.618
3		0.00		-6.40		1.457e-02		119.272		5.564e-03		33.465
3		0.00		-6.80		1.713e-02		123.581		6.455e-03		29.818
3		0.00		-7.20		2.012e-02		122.200		7.307e-03		30.984
3		0.00		-7.60		2.239e-02		122.601		7.946e-03		31.193
3		0.00		-8.00		2.544e-02		122.568		9.220e-03		29.505
3		0.00		-8.40		2.652e-02		123.675		9.365e-03		22.224
3		0.00		-8.80		2.966e-02		124.403		1.049e-02		17.820
3		0.00		-9.20		2.778e-02		126.682		9.536e-03		15.416
3		0.00		-9.60		3.058e-02		127.544		9.948e-03		10.788
3		0.00		-10.00		3.289e-02		128.354		1.000e-02		9.604
3		0.00		-9.60		3.221e-02		127.844		9.036e-03		10.400
3		0.00		-9.20		3.137e-02		128.289		9.623e-03		10.268
3		0.00		-8.80		3.148e-02		126.665		9.978e-03		11.673
3		0.00		-8.40		3.061e-02		126.215		9.859e-03		16.560
3		0.00		-8.00		2.995e-02		123.023		1.014e-02		22.018
3		0.00		-7.60		2.650e-02		121.832		9.043e-03		25.074
3		0.00		-7.20		2.639e-02		122.772		8.920e-03		23.022
3		0.00		-6.80		2.228e-02		123.725		7.692e-03		21.764
3		0.00		-6.40		2.190e-02		125.822		7.350e-03		14.852
3		0.00		-6.00		1.936e-02		127.688		6.009e-03		12.545
3		0.00		-5.60		1.810e-02		127.755		5.145e-03		10.547
3		0.00		-5.20		1.676e-02		128.079		5.141e-03		10.530
3		0.00		-4.80		1.512e-02		124.334		4.955e-03		25.295
3		0.00		-4.40		1.299e-02		124.275		4.676e-03		28.829
3		0.00		-4.00		1.132e-02		123.857		4.344e-03		29.325
3		0.00		-3.60		9.771e-03		114.369		4.112e-03		40.989
3		0.00		-3.20		8.645e-03		117.020		3.551e-03		36.986
3		0.00		-2.80		6.986e-03		111.416		3.095e-03		47.960
3		0.00		-2.40		5.327e-03		102.805		2.522e-03		50.053
3		0.00		-2.00		4.461e-03		86.479		2.105e-03		60.987
3		0.00		-1.60		3.234e-03		80.923		1.496e-03		68.971
3		0.00		-1.20		2.752e-03		44.206		1.131e-03		73.693
3		0.00		-0.80		2.568e-03		-12.539		1.229e-03		64.602
3		0.00		-0.40		2.977e-03		-36.740		1.378e-03		60.088
4		0.00		0.00		3.525e-03		-42.719		1.781e-03		48.947
4		0.00		0.40		4.076e-03		-45.880		1.799e-03		34.125
4		0.00		0.80		5.424e-03		-50.033		2.240e-03		26.966
4		0.00		1.20		6.697e-03		-54.057		2.523e-03		19.784
4		0.00		1.60		7.820e-03		-55.307		2.583e-03		19.413
4		0.00		2.00		9.138e-03		-53.904		2.820e-03		19.202
4		0.00		2.40		1.070e-02		-52.069		2.995e-03		19.710
4		0.00		2.80		1.104e-02		-49.781		2.927e-03		17.540
4		0.00		3.20		1.228e-02		-53.595		3.138e-03		15.346
4		0.00		3.60		1.441e-02		-54.212		3.102e-03		14.632
4		0.00		4.00		1.858e-02		-49.904		4.200e-03		13.511
4		0.00		4.40		2.291e-02		-52.550		5.824e-03		14.683
4		0.00		4.80		2.926e-02		-52.073		8.517e-03		14.138
4		0.00		5.20		3.262e-02		-55.278		1.043e-02		17.437
4		0.00		5.60		3.434e-02		-53.339		1.108e-02		18.755
4		0.00		6.00		3.615e-02		-52.465		1.150e-02		17.662
4		0.00		6.40		3.800e-02		-52.347		1.049e-02		13.266
4		0.00		6.80		4.089e-02		-51.320		1.060e-02		11.564
4		0.00		7.20		3.989e-02		-51.537		9.676e-03		11.055
4		0.00		7.60		4.043e-02		-50.843		9.650e-03		10.651
4		0.00		8.00		4.333e-02		-49.278		1.039e-02		10.056
4		0.00		8.40		4.378e-02		-51.972		1.179e-02		14.702
4		0.00		8.80		4.423e-02		-52.579		1.338e-02		17.261
4		0.00		9.20		4.402e-02		-51.840		1.351e-02		19.295
4		0.00		9.60		4.314e-02		-53.369		1.307e-02		21.252
4		0.00		10.00		4.301e-02		-49.416		1.263e-02		13.714
4		0.00		9.60		4.097e-02		-52.358		1.141e-02		12.937
4		0.00		9.20		4.102e-02		-51.122		1.074e-02		12.044
4		0.00		8.80		4.029e-02		-50.928		1.012e-02		11.828
4		0.00		8.40		4.065e-02		-52.017		1.053e-02		12.796
4		0.00		8.00		3.744e-02		-53.958		1.054e-02		17.203
4		0.00		7.60		3.632e-02		-53.428		1.151e-02		18.031
4		0.00		7.20		3.475e-02		-56.185		1.155e-02		24.795
4		0.00		6.80		3.496e-02		-54.803		1.111e-02		19.731
4		0.00		6.40		3.468e-02		-51.157		9.469e-03		13.501
4		0.00		6.00		3.444e-02		-51.305		8.487e-03		11.335
4		0.00		5.60		3.458e-02		-51.645		7.499e-03		10.915
4		0.00		5.20		3.436e-02		-50.856		6.951e-03		11.078
4		0.00		4.80		3.456e-02		-51.140		7.551e-03		13.053
4		0.00		4.40		3.464e-02		-53.456		8.589e-03		16.091
4		0.00		4.00		3.453e-02		-54.330		9.617e-03		17.571
4		0.00		3.60		3.369e-02		-55.328		9.484e-03		23.502
4		0.00		3.20		3.343e-02		-52.934		9.408e-03		16.243
4		0.00		2.80		3.389e-02		-51.249		9.111e-03		11.966
4		0.00		2.40		3.359e-02		-51.041		8.203e-03		10.933
4		0.00		2.00		3.278e-02		-51.830		7.360e-03		12.154
4		0.00		1.60		3.334e-02		-52.304		7.237e-03		11.644
4		0.00		1.20		3.302e-02		-53.092		8.098e-03		14.126
4		0.00		0.80		3.299e-02		-53.804		9.228e-03		16.710
4		0.00		0.40		3.172e-02		-55.197		9.817e-03		19.338
4		0.00		0.00		3.072e-02		-56.345		9.411e-03		20.985
4		0.00		-0.40		2.918e-02		-52.131		8.300e-03		13.603
4		0.00		-0.80		2.729e-02		-51.429		6.651e-03		12.324
4		0.00		-1.20		2.634e-02		-52.923		5.503e-03		10.358
4		0.00		-1.60		2.375e-02		-52.096		4.539e-03		11.300
4		0.00		-2.00		2.112e-02		-53.100		4.156e-03		11.773
4		0.00		-2.40		1.575e-02		-50.954		3.673e-03		15.372
4		0.00		-2.80		1.179e-02		-56.892		4.243e-03		15.921
4		0.00		-3.20		7.901e-03		-53.328		3.468e-03		22.339
4		0.00		-3.60		5.227e-03		-28.329		3.047e-03		52.362
4		0.00		-4.00		4.720e-03		-8.044		2.520e-03		65.707
4		0.00		-4.40		4.154e-03		22.481		2.134e-03		69.051
4		0.00		-4.80		4.844e-03		71.598		2.532e-03		61.501
4		0.00		-5.20		6.684e-03		87.692		3.087e-03		69.855
4		0.00		-5.60		1.093e-02		105.201		4.845e-03		60.360
4		0.00		-6.00		1.366e-02		111.521		6.077e-03		50.607
4		0.00		-6.40		1.736e-02		115.238		7.335e-03		37.471
4		0.00		-6.80		1.948e-02		120.226		7.795e-03		35.469
4		0.00		-7.20		2.193e-02		123.065		8.472e-03		28.785
4		0.00		-7.60		2.466e-02		126.183		8.924e-03		17.756
4		0.00		-8.00		2.637e-02		126.755		8.599e-03		13.606
4		0.00		-8.40		2.909e-02		128.870		8.019e-03		9.783
4		0.00		-8.80		3.286e-02		129.008		9.280e-03		10.032
4		0.00		-9.20		3.392e-02		128.031		9.452e-03		11.545
4		0.00		-9.60		3.535e-02		125.741		1.109e-02		17.050
4		0.00		-10.00		3.511e-02		124.347		1.141e-02		18.746
4		0.00		-9.60		3.428e-02		123.471		1.119e-02		24.144
4		0.00		-9.20		3.356e-02		125.667		1.059e-02		18.555
4		0.00		-8.80		3.360e-02		128.365		9.911e-03		11.575
4		0.00		-8.40		3.161e-02		127.864		8.710e-03		9.065
4		0.00		-8.00		3.081e-02		128.101		8.835e-03		9.212
4		0.00		-7.60		2.861e-02		126.595		8.438e-03		13.258
4		0.00		-7.20		2.883e-02		127.870		9.201e-03		14.030
4		0.00		-6.80		2.567e-02		123.366		9.184e-03		19.856
4		0.00		-6.40		2.383e-02		123.086		8.621e-03		24.528
4		0.00		-6.00		2.198e-02		123.986		7.853e-03		21.566
4		0.00		-5.60		2.003e-02		127.159		6.863e-03		14.061
4		0.00		-5.20		1.835e-02		127.854		5.824e-03		9.380
4		0.00		-4.80		1.620e-02		128.032		5.133e-03		9.851
4		0.00		-4.40		1.424e-02		126.752		5.019e-03		21.378
4		0.00		-4.00		1.181e-02		117.618		4.435e-03		32.832
4		0.00		-3.60		1.014e-02		118.816		3.662e-03		33.338
4		0.00		-3.20		8.860e-03		117.610		3.557e-03		34.668
4		0.00		-2.80		6.919e-03		108.031		2.849e-03		44.806
4		0.00		-2.40		5.190e-03		98.187		2.496e-03		60.411
4		0.00		-2.00		4.138e-03		95.316		1.889e-03		56.457
4		0.00		-1.60		3.185e-03		74.212		1.282e-03		66.700
4		0.00		-1.20		2.648e-03		26.927		1.187e-03		75.154
4		0.00		-0.80		2.728e-03		-1.160		1.369e-03		66.662
4		0.00		-0.40		2.951e-03		-28.254		1.507e-03		58.522
5		0.00		0.00		3.910e-03		-52.893		1.995e-03		34.744
5		0.00		0.40		4.994e-03		-46.155		2.359e-03		29.080
5		0.00		0.80		6.566e-03		-60.212		2.353e-03		18.486
5		0.00		1.20		7.873e-03		-58.136		2.173e-03		19.880
5		0.00		1.60		9.613e-03		-55.439		2.412e-03		15.480
5		0.00		2.00		1.121e-02		-52.673		2.585e-03		15.520
5		0.00		2.40		1.142e-02		-53.895		3.102e-03		16.386
5		0.00		2.80		1.276e-02		-53.911		3.589e-03		16.839
5		0.00		3.20		1.400e-02		-53.922		3.980e-03		18.794
5		0.00		3.60		1.636e-02		-51.423		4.272e-03		13.970
5		0.00		4.00		1.972e-02		-51.783		4.436e-03		12.950
5		0.00		4.40		2.622e-02		-50.746		5.357e-03		11.351
5		0.00		4.80		3.286e-02		-51.769		6.916e-03		11.656
5		0.00		5.20		3.722e-02		-52.294		9.673e-03		14.851
5		0.00		5.60		3.772e-02		-54.214		1.142e-02		17.346
5		0.00		6.00		3.910e-02		-55.258		1.284e-02		21.087
5		0.00		6.40		3.877e-02		-53.308		1.264e-02		17.569
5		0.00		6.80		3.964e-02		-51.385		1.114e-02		10.252
5		0.00		7.20		4.094e-02		-50.624		1.044e-02		10.168
5		0.00		7.60		4.336e-02		-51.330		1.046e-02		9.404
5		0.00		8.00		4.141e-02		-51.182		9.827e-03		11.009
5		0.00		8.40		4.249e-02		-52.529		1.155e-02		15.018
5		0.00		8.80		4.295e-02		-54.583		1.341e-02		16.797
5		0.00		9.20		4.046e-02		-54.066		1.201e-02		19.680
5		0.00		9.60		4.173e-02		-51.133		1.235e-02		14.292
5		0.00		10.00		4.144e-02		-52.243		1.121e-02		11.689
5		0.00		9.60		4.367e-02		-50.830		1.101e-02		11.410
5		0.00		9.20		4.261e-02		-51.375		8.940e-03		10.064
5		0.00		8.80		4.087e-02		-51.106		8.448e-03		13.058
5		0.00		8.40		3.902e-02		-51.872		9.349e-03		14.063
5		0.00		8.00		4.059e-02		-52.331		1.103e-02		16.781
5		0.00		7.60		3.912e-02		-54.147		1.155e-02		17.491
5		0.00		7.20		4.001e-02		-54.470		1.264e-02		20.011
5		0.00		6.80		3.632e-02		-51.163		1.193e-02		13.693
5		0.00		6.40		3.545e-02		-51.871		1.047e-02		11.342
5		0.00		6.00		3.296e-02		-51.957		8.575e-03		11.680
5		0.00		5.60		3.331e-02		-53.153		7.096e-03		11.286
5		0.00		5.20		3.341e-02		-52.288		7.048e-03		13.014
5		0.00		4.80		3.439e-02		-52.415		7.559e-03		12.353
5		0.00		4.40		3.320e-02		-52.957		8.341e-03		16.730
5		0.00		4.00		3.327e-02		-54.152		9.324e-03		17.623
5		0.00		3.60		3.211e-02		-53.825		9.533e-03		17.083
5		0.00		3.20		3.147e-02		-53.629		9.540e-03		20.623
5		0.00		2.80		3.258e-02		-51.766		9.176e-03		15.482
5		0.00		2.40		3.212e-02		-51.946		8.735e-03		13.257
5		0.00		2.00		3.088e-02		-49.969		7.205e-03		10.760
5		0.00		1.60		3.091e-02		-49.872		6.480e-03		11.129
5		0.00		1.20		3.102e-02		-51.169		5.981e-03		11.270
5		0.00		0.80		3.122e-02		-51.876		6.145e-03		10.789
5		0.00		0.40		3.145e-02		-51.254		6.447e-03		11.877
5		0.00		0.00		3.053e-02		-50.590		7.298e-03		14.230
5		0.00		-0.40		2.908e-02		-52.735		8.511e-03		15.785
5		0.00		-0.80		2.609e-02		-55.425		8.070e-03		18.791
5		0.00		-1.20		2.324e-02		-54.275		7.349e-03		17.989
5		0.00		-1.60		2.066e-02		-53.710		6.548e-03		13.787
5		0.00		-2.00		1.861e-02		-53.787		5.337e-03		14.639
5		0.00		-2.40		1.518e-02		-53.038		4.155e-03		13.170
5		0.00		-2.80		1.095e-02		-55.256		3.440e-03		15.740
5		0.00		-3.20		8.408e-03		-59.492		3.282e-03		20.385
5		0.00		-3.60		5.667e-03		-43.612		3.276e-03		47.606
5		0.00		-4.00		4.657e-03		58.094		2.349e-03		75.793
5		0.00		-4.40		5.447e-03		82.724		2.447e-03		60.158
5		0.00		-4.80		7.790e-03		106.057		3.524e-03		45.362
5		0.00		-5.20		1.022e-02		113.680		4.442e-03		41.828
5		0.00		-5.60		1.170e-02		115.507		5.112e-03		39.807
5		0.00		-6.00		1.467e-02		126.651		5.740e-03		30.375
5		0.00		-6.40		1.843e-02		126.188		6.486e-03		16.996
5		0.00		-6.80		2.117e-02		129.042		6.988e-03		10.226
5		0.00		-7.20		2.349e-02		129.111		7.736e-03		11.450
5		0.00		-7.60		2.697e-02		126.598		9.258e-03		13.670
5		0.00		-8.00		2.791e-02		121.376		1.063e-02		24.569
5		0.00		-8.40		2.965e-02		121.537		1.171e-02		26.276
5		0.00		-8.80		3.159e-02		118.555		1.249e-02		28.762
5		0.00		-9.20		3.155e-02		122.482		1.181e-02		22.739
5		0.00		-9.60		3.294e-02		125.323		1.212e-02		15.839
5		0.00		-10.00		3.474e-02		126.069		1.243e-02		14.207
5		0.00		-9.60		3.376e-02		127.066		1.102e-02		11.168
5		0.00		-9.20		3.356e-02		127.025		1.037e-02		10.388
5		0.00		-8.80		3.222e-02		128.839		9.374e-03		9.957
5		0.00		-8.40		3.417e-02		127.749		1.032e-02		10.792
5		0.00		-8.00		3.288e-02		123.789		1.052e-02		17.657
5		0.00		-7.60		3.138e-02		124.069		1.016e-02		21.027
5		0.00		-7.20		2.881e-02		121.451		9.985e-03		25.549
5		0.00		-6.80		2.674e-02		122.196		8.950e-03		22.794
5		0.00		-6.40		2.484e-02		126.035		8.270e-03		18.854
5		0.00		-6.00		2.255e-02		126.997		7.613e-03		16.072
5		0.00		-5.60		2.024e-02		126.971		6.459e-03		12.629
5		0.00		-5.20		1.837e-02		128.111		5.862e-03		10.635
5		0.00		-4.80		1.636e-02		125.298		5.675e-03		17.135
5		0.00		-4.40		1.444e-02		126.689		5.147e-03		21.877
5		0.00		-4.00		1.255e-02		121.773		4.646e-03		30.316
5		0.00		-3.60		1.076e-02		120.277		4.020e-03		29.634
5		0.00		-3.20		8.913e-03		116.400		3.685e-03		32.216
5		0.00		-2.80		7.690e-03		111.181		3.259e-03		46.364
5		0.00		-2.40		5.984e-03		106.964		2.764e-03		48.260
5		0.00		-2.00		4.442e-03		95.626		2.012e-03		58.970
5		0.00		-1.60		3.312e-03		80.519		1.413e-03		55.614
5		0.00		-1.20		2.746e-03		33.768		1.218e-03		77.270
5		0.00		-0.80		2.666e-03		-12.035		1.389e-03		72.348
5		0.00		-0.40		3.150e-03		-39.979		1.647e-03		49.288
6		0.00		0.00		4.182e-03		-57.139		1.829e-03		29.823
6		0.00		0.40		5.352e-03		-58.456		2.212e-03		22.436
6		0.00		0.80		6.168e-03		-54.400		2.339e-03		22.052
6		0.00		1.20		7.505e-03		-45.573		2.349e-03		18.123
6		0.00		1.60		8.479e-03		-48.839		2.713e-03		21.308
6		0.00		2.00		1.018e-02		-50.010		3.265e-03		16.000
6		0.00		2.40		1.121e-02		-49.941		3.534e-03		17.041
6		0.00		2.80		1.251e-02		-52.222		3.504e-03		16.664
6		0.00		3.20		1.389e-02		-54.732		3.695e-03		12.740
6		0.00		3.60		1.632e-02		-51.519		3.831e-03		13.041
6		0.00		4.00		2.368e-02		-52.524		5.586e-03		12.468
6		0.00		4.40		2.767e-02		-53.380		7.235e-03		14.279
6		0.00		4.80		3.264e-02		-55.002		9.733e-03		17.278
6		0.00		5.20		4.096e-02		-55.432		1.249e-02		17.371
6		0.00		5.60		3.990e-02		-55.923		1.267e-02		17.606
6		0.00		6.00		4.093e-02		-54.073		1.332e-02		19.931
6		0.00		6.40		4.420e-02		-52.622		1.328e-02		18.506
6		0.00		6.80		4.299e-02		-52.047		1.292e-02		15.762
6		0.00		7.20		4.340e-02		-50.519		1.268e-02		12.156
6		0.00		7.60		4.233e-02		-50.651		1.150e-02		10.099
6		0.00		8.00		4.200e-02		-51.862		1.048e-02		11.991
6		0.00		8.40		4.329e-02		-51.169		1.029e-02		10.575
6		0.00		8.80		4.438e-02		-50.111		1.019e-02		10.850
6		0.00		9.20		4.484e-02		-50.876		1.090e-02		11.467
6		0.00		9.60		4.480e-02		-52.710		1.227e-02		14.590
6		0.00		10.00		4.436e-02		-53.355		1.393e-02		16.895
6		0.00		9.60		3.898e-02		-54.473		1.252e-02		17.200
6		0.00		9.20		4.136e-02		-55.369		1.387e-02		21.859
6		0.00		8.80		4.206e-02		-51.588		1.370e-02		17.437
6		0.00		8.40		3.784e-02		-52.242		1.196e-02		12.619
6		0.00		8.00		3.410e-02		-52.443		9.076e-03		10.273
6		0.00		7.60		3.598e-02		-51.743		7.971e-03		10.691
6		0.00		7.20		4.078e-02		-52.214		9.044e-03		11.734
6		0.00		6.80		3.716e-02		-51.524		9.688e-03		13.233
6		0.00		6.40		3.833e-02		-52.203		9.142e-03		13.153
6		0.00		6.00		3.498e-02		-51.425		8.876e-03		15.567
6		0.00		5.60		3.594e-02		-53.784		1.008e-02		17.048
6		0.00		5.20		3.597e-02		-54.055		1.078e-02		16.703
6		0.00		4.80		3.380e-02		-54.510		1.047e-02		18.132
6		0.00		4.40		3.427e-02		-52.947		1.000e-02		16.040
6		0.00		4.00		3.197e-02		-53.813		8.654e-03		11.722
6		0.00		3.60		3.238e-02		-53.183		9.273e-03		12.427
6		0.00		3.20		3.217e-02		-52.598		7.939e-03		12.885
6		0.00		2.80		3.244e-02		-54.058		7.687e-03		12.908
6		0.00		2.40		3.245e-02		-54.124		7.814e-03		13.343
6		0.00		2.00		3.162e-02		-54.757		8.155e-03		16.634
6		0.00		1.60		2.962e-02		-54.126		8.636e-03		19.118
6		0.00		1.20		2.897e-02		-56.515		9.284e-03		19.724
6		0.00		0.80		2.916e-02		-55.746		9.536e-03		22.867
6		0.00		0.40		2.927e-02		-54.676		9.232e-03		18.838
6		0.00		0.00		2.995e-02		-53.210		8.338e-03		13.764
6		0.00		-0.40		2.884e-02		-52.954		7.668e-03		11.486
6		0.00		-0.80		2.752e-02		-53.574		6.370e-03		9.953
6		0.00		-1.20		2.618e-02		-53.875		5.824e-03		10.990
6		0.00		-1.60		2.378e-02		-52.711		5.289e-03		13.946
6		0.00		-2.00		2.106e-02		-53.193		4.746e-03		14.316
6		0.00		-2.40		1.744e-02		-54.121		4.344e-03		15.533
6		0.00		-2.80		1.288e-02		-50.411		4.099e-03		17.373
6		0.00		-3.20		9.275e-03		-56.954		4.215e-03		20.318
6		0.00		-3.60		6.451e-03		-49.186		3.683e-03		37.616
6		0.00		-4.00		4.613e-03		5.676		2.854e-03		73.861
6		0.00		-4.40		4.815e-03		63.858		2.547e-03		70.573
6		0.00		-4.80		6.961e-03		92.881		3.495e-03		61.885
6		0.00		-5.20		1.029e-02		112.541		4.988e-03		46.915
6		0.00		-5.60		1.277e-02		117.838		5.968e-03		43.315
6		0.00		-6.00		1.616e-02		117.444		7.143e-03		41.029
6		0.00		-6.40		1.973e-02		115.747		8.142e-03		48.104
6		0.00		-6.80		2.434e-02		120.367		9.529e-03		30.861
6		0.00		-7.20		2.599e-02		119.546		1.031e-02		29.202
6		0.00		-7.60		2.926e-02		120.101		1.106e-02		29.832
6		0.00		-8.00		3.265e-02		122.625		1.176e-02		23.598
6		0.00		-8.40		3.358e-02		125.371		1.189e-02		20.979
6		0.00		-8.80		3.341e-02		126.185		1.145e-02		14.656
6		0.00		-9.20		3.643e-02		127.340		1.193e-02		16.066
6		0.00		-9.60		3.592e-02		128.031		1.129e-02		12.175
6		0.00		-10.00		3.715e-02		127.692		1.154e-02		12.047
6		0.00		-9.60		3.690e-02		127.850		1.157e-02		12.421
6		0.00		-9.20		3.791e-02		124.519		1.272e-02		12.946
6		0.00		-8.80		3.569e-02		123.186		1.297e-02		20.656
6		0.00		-8.40		3.406e-02		120.482		1.366e-02		25.865
6		0.00		-8.00		3.209e-02		117.988		1.320e-02		27.525
6		0.00		-7.60		3.171e-02		119.586		1.300e-02		28.638
6		0.00		-7.20		2.837e-02		122.132		1.120e-02		24.510
6		0.00		-6.80		2.728e-02		120.464		1.055e-02		30.409
6		0.00		-6.40		2.368e-02		124.223		8.950e-03		16.720
6		0.00		-6.00		2.288e-02		126.151		8.006e-03		13.780
6		0.00		-5.60		2.083e-02		128.213		6.592e-03		10.605
6		0.00		-5.20		1.882e-02		126.842		6.083e-03		10.901
6		0.00		-4.80		1.721e-02		128.483		5.678e-03		10.581
6		0.00		-4.40		1.498e-02		122.882		5.268e-03		27.843
6		0.00		-4.00		1.332e-02		123.455		4.839e-03		29.944
6		0.00		-3.60		1.083e-02		117.516		4.234e-03		37.568
6		0.00		-3.20		9.794e-03		114.486		3.733e-03		39.681
6		0.00		-2.80		8.373e-03		114.348		3.383e-03		36.295
6		0.00		-2.40		6.752e-03		109.364		2.802e-03		46.768
6		0.00		-2.00		5.402e-03		95.175		2.560e-03		47.363
6		0.00		-1.60		4.133e-03		82.148		2.044e-03		66.623
6		0.00		-1.20		2.935e-03		48.399		1.517e-03		74.595
6		0.00		-0.80		2.270e-03		26.013		9.591e-04		65.591
6		0.00		-0.40		2.628e-03		-11.339		1.296e-03		68.497
7		0.00		0.00		3.435e-03		-31.460		1.619e-03		53.951
7		0.00		0.40		4.199e-03		-50.316		1.743e-03		28.592
7		0.00		0.80		5.629e-03		-59.141		1.927e-03		20.843
7		0.00		1.20		6.517e-03		-51.801		1.949e-03		20.386
7		0.00		1.60		7.779e-03		-53.819		2.385e-03		20.062
7		0.00		2.00		9.266e-03		-52.647		2.668e-03		16.839
7		0.00		2.40		9.650e-03		-53.038		2.890e-03		15.953
7		0.00		2.80		1.077e-02		-57.316		3.018e-03		15.713
7		0.00		3.20		1.215e-02		-55.356		3.637e-03		17.467
7		0.00		3.60		1.666e-02		-54.972		4.695e-03		16.020
7		0.00		4.00		2.299e-02		-52.995		5.963e-03		12.504
7		0.00		4.40		2.952e-02		-53.174		7.584e-03		10.880
7		0.00		4.80		3.370e-02		-52.339		8.296e-03		10.162
7		0.00		5.20		3.723e-02		-52.109		9.109e-03		9.740
7		0.00		5.60		3.581e-02		-52.526		9.024e-03		10.426
7		0.00		6.00		4.192e-02		-52.974		1.129e-02		10.464
7		0.00		6.40		4.108e-02		-52.614		1.172e-02		11.531
7		0.00		6.80		4.166e-02		-53.271		1.191e-02		13.469
7		0.00		7.20		4.452e-02		-53.778		1.340e-02		15.792
7		0.00		7.60		4.652e-02		-54.455		1.506e-02		15.554
7		0.00		8.00		4.421e-02		-54.179		1.484e-02		18.313
7		0.00		8.40		4.519e-02		-53.906		1.541e-02		14.950
7		0.00		8.80		4.508e-02		-55.581		1.469e-02		21.316
7		0.00		9.20		4.568e-02		-52.428		1.410e-02		19.260
7		0.00		9.60		4.319e-02		-51.606		1.318e-02		16.829
7		0.00		10.00		4.356e-02		-50.595		1.289e-02		11.110
7		0.00		9.60		4.547e-02		-50.624		1.268e-02		11.045
7		0.00		9.20		4.446e-02		-49.712		1.114e-02		10.532
7		0.00		8.80		4.404e-02		-50.263		1.041e-02		8.691
7		0.00		8.40		4.517e-02		-50.163		1.112e-02		10.653
7		0.00		8.00		4.516e-02		-50.463		1.064e-02		9.391
7		0.00		7.60		4.442e-02		-49.953		1.015e-02		9.257
7		0.00		7.20		4.392e-02		-51.193		1.037e-02		9.514
7		0.00		6.80		4.051e-02		-51.310		9.414e-03		10.711
7		0.00		6.40		4.075e-02		-52.322		1.034e-02		12.179
7		0.00		6.00		3.882e-02		-52.412		1.038e-02		13.492
7		0.00		5.60		3.743e-02		-52.253		1.051e-02		14.288
7		0.00		5.20		3.752e-02		-53.082		1.134e-02		15.773
7		0.00		4.80		3.650e-02		-54.907		1.142e-02		20.567
7		0.00		4.40		3.665e-02		-55.290		1.141e-02		20.246
7		0.00		4.00		3.668e-02		-54.408		1.112e-02		19.284
7		0.00		3.60		3.645e-02		-52.218		1.024e-02		16.422
7		0.00		3.20		3.632e-02		-52.573		9.714e-03		13.120
7		0.00		2.80		3.641e-02		-51.129		9.550e-03		11.611
7		0.00		2.40		3.706e-02		-50.876		8.713e-03		8.978
7		0.00		2.00		3.771e-02		-51.445		8.557e-03		8.542
7		0.00		1.60		3.657e-02		-51.229		7.527e-03		9.302
7		0.00		1.20		3.622e-02		-51.510		7.329e-03		9.674
7		0.00		0.80		3.574e-02		-50.538		6.709e-03		10.099
7		0.00		0.40		3.572e-02		-50.374		6.778e-03		9.240
7		0.00		0.00		3.456e-02		-51.405		6.663e-03		9.945
7		0.00		-0.40		3.192e-02		-50.018		6.655e-03		10.194
7		0.00		-0.80		2.951e-02		-51.277		6.261e-03		10.565
7		0.00		-1.20		2.712e-02		-51.531		6.083e-03		10.957
7		0.00		-1.60		2.485e-02		-53.097		5.587e-03		12.567
7		0.00		-2.00		2.098e-02		-51.581		5.053e-03		12.541
7		0.00		-2.40		1.753e-02		-54.250		4.868e-03		13.362
7		0.00		-2.80		1.365e-02		-52.002		4.080e-03		14.202
7		0.00		-3.20		1.129e-02		-51.898		3.979e-03		14.877
7		0.00		-3.60		6.934e-03		-54.560		3.631e-03		27.852
7		0.00		-4.00		4.794e-03		-32.389		2.918e-03		61.439
7		0.00		-4.40		4.076e-03		54.890		2.076e-03		76.121
7		0.00		-4.80		5.860e-03		90.687		2.774e-03		58.580
7		0.00		-5.20		8.315e-03		105.787		3.726e-03		47.227
7		0.00		-5.60		1.180e-02		119.082		4.915e-03		33.544
7		0.00		-6.00		1.491e-02		120.336		5.830e-03		29.256
7		0.00		-6.40		1.759e-02		123.188		6.433e-03		26.976
7		0.00		-6.80		2.084e-02		125.356		7.425e-03		19.096
7		0.00		-7.20		2.551e-02		125.659		8.433e-03		17.571
7		0.00		-7.60		2.628e-02		126.107		8.704e-03		15.794
7		0.00		-8.00		3.022e-02		127.870		9.693e-03		11.458
7		0.00		-8.40		3.241e-02		129.013		9.849e-03		8.992
7		0.00		-8.80		3.425e-02		128.528		1.018e-02		9.090
7		0.00		-9.20		3.554e-02		128.447		9.779e-03		7.484
7		0.00		-9.60		3.679e-02		128.261		1.025e-02		8.311
7		0.00		-10.00		3.748e-02		127.555		1.004e-02		8.609
7		0.00		-9.60		3.797e-02		128.439		1.048e-02		8.636
7		0.00		-9.20		3.504e-02		127.353		9.650e-03		9.231
7		0.00		-8.80		3.660e-02		128.044		9.774e-03		8.299
7		0.00		-8.40		3.337e-02		127.212		9.115e-03		10.926
7		0.00		-8.00		3.308e-02		126.839		9.709e-03		12.432
7		0.00		-7.60		3.218e-02		126.662		9.360e-03		12.902
7		0.00		-7.20		3.035e-02		124.915		9.267e-03		16.867
7		0.00		-6.80		2.849e-02		124.970		9.132e-03		19.194
7		0.00		-6.40		2.554e-02		125.071		8.400e-03		21.994
7		0.00		-6.00		2.304e-02		123.788		7.715e-03		22.706
7		0.00		-5.60		2.088e-02		123.373		7.031e-03		27.354
7		0.00		-5.20		1.914e-02		122.582		6.509e-03		29.414
7		0.00		-4.80		1.732e-02		122.985		5.989e-03		21.458
7		0.00		-4.40		1.487e-02		122.532		5.660e-03		23.514
7		0.00		-4.00		1.269e-02		121.965		5.040e-03		28.634
7		0.00		-3.60		1.123e-02		121.604		4.610e-03		27.603
7		0.00		-3.20		9.412e-03		117.543		3.776e-03		32.634
7		0.00		-2.80		7.755e-03		119.036		3.356e-03		34.809
7		0.00		-2.40		6.122e-03		113.045		2.851e-03		42.660
7		0.00		-2.00		4.795e-03		101.903		2.211e-03		58.833
7		0.00		-1.60		3.623e-03		84.648		1.650e-03		66.604
7		0.00		-1.20		2.729e-03		20.241		1.240e-03		83.170
7		0.00		-0.80		2.748e-03		-15.041		1.372e-03		68.962
7		0.00		-0.40		3.039e-03		-54.746		1.564e-03		39.863
8		0.00		0.00		4.507e-03		-52.151		1.962e-03		28.247
8		0.00		0.40		5.506e-03		-56.718		2.014e-03		18.832
8		0.00		0.80		7.331e-03		-55.379		2.223e-03		16.516
8		0.00		1.20		8.413e-03		-52.186		2.365e-03		14.761
8		0.00		1.60		9.552e-03		-54.015		2.900e-03		15.716
8		0.00		2.00		1.116e-02		-51.537		3.354e-03		16.413
8		0.00		2.40		1.244e-02		-51.875		3.596e-03		14.639
8		0.00		2.80		1.344e-02		-51.786		4.002e-03		17.144
8		0.00		3.20		1.481e-02		-51.793		4.475e-03		15.653
8		0.00		3.60		2.025e-02		-53.579		6.196e-03		13.271
8		0.00		4.00		2.768e-02		-53.848		7.623e-03		12.284
8		0.00		4.40		3.184e-02		-53.067		8.452e-03		10.570
8		0.00		4.80		3.483e-02		-52.038		8.791e-03		10.051
8		0.00		5.20		3.936e-02		-52.945		9.686e-03		9.553
8		0.00		5.60		4.148e-02		-52.824		9.867e-03		8.607
8		0.00		6.00		4.285e-02		-52.825		9.909e-03		9.192
8		0.00		6.40		4.583e-02		-52.529		1.013e-02		7.783
8		0.00		6.80		4.656e-02		-51.870		1.059e-02		9.202
8		0.00		7.20		4.339e-02		-50.984		1.086e-02		11.403
8		0.00		7.60		4.336e-02		-51.983		1.153e-02		13.135
8		0.00		8.00		4.583e-02		-53.472		1.305e-02		14.701
8		0.00		8.40		4.583e-02		-54.092		1.393e-02		16.807
8		0.00		8.80		4.751e-02		-54.157		1.476e-02		17.426
8		0.00		9.20		4.773e-02		-53.779		1.397e-02		17.435
8		0.00		9.60		4.527e-02		-52.415		1.335e-02		16.256
8		0.00		10.00		4.778e-02		-52.445		1.466e-02		13.194
8		0.00		9.60		4.631e-02		-51.766		1.419e-02		13.669
8		0.00		9.20		4.480e-02		-51.561		1.254e-02		10.788
8		0.00		8.80		4.571e-02		-51.163		1.188e-02		10.147
8		0.00		8.40		4.435e-02		-50.987		1.039e-02		9.362
8		0.00		8.00		4.521e-02		-51.409		1.072e-02		10.154
8		0.00		7.60		4.569e-02		-51.254		1.057e-02		9.009
8		0.00		7.20		4.444e-02		-51.201		1.077e-02		9.427
8		0.00		6.80		4.082e-02		-52.569		1.044e-02		12.222
8		0.00		6.40		4.308e-02		-52.639		1.059e-02		10.879
8		0.00		6.00		4.048e-02		-52.216		1.047e-02		12.022
8		0.00		5.60		3.713e-02		-53.600		1.040e-02		14.285
8		0.00		5.20		3.855e-02		-53.617		1.075e-02		13.965
8		0.00		4.80		3.902e-02		-54.456		1.114e-02		18.373
8		0.00		4.40		3.881e-02		-52.585		1.056e-02		16.078
8		0.00		4.00		3.735e-02		-52.058		9.690e-03		14.556
8		0.00		3.60		3.774e-02		-52.315		9.760e-03		12.348
8		0.00		3.20		3.705e-02		-51.027		8.814e-03		9.942
8		0.00		2.80		3.763e-02		-51.389		8.861e-03		8.252
8		0.00		2.40		3.687e-02		-51.017		8.492e-03		8.881
8		0.00		2.00		3.707e-02		-51.219		8.465e-03		8.580
8		0.00		1.60		3.711e-02		-52.239		8.047e-03		9.093
8		0.00		1.20		3.609e-02		-50.928		7.725e-03		9.020
8		0.00		0.80		3.669e-02		-52.022		7.758e-03		7.676
8		0.00		0.40		3.483e-02		-51.668		7.935e-03		8.822
8		0.00		0.00		3.308e-02		-52.092		8.109e-03		11.101
8		0.00		-0.40		3.125e-02		-52.845		8.229e-03		10.746
8		0.00		-0.80		2.839e-02		-54.560		7.539e-03		12.553
8		0.00		-1.20		2.585e-02		-53.819		6.978e-03		14.655
8		0.00		-1.60		2.400e-02		-54.887		6.530e-03		13.961
8		0.00		-2.00		2.040e-02		-56.347		5.830e-03		16.278
8		0.00		-2.40		1.643e-02		-53.895		4.810e-03		12.741
8		0.00		-2.80		1.434e-02		-54.347		4.539e-03		14.185
8		0.00		-3.20		1.097e-02		-60.691		4.165e-03		15.694
8		0.00		-3.60		8.092e-03		-60.400		3.614e-03		22.068
8		0.00		-4.00		4.918e-03		-25.903		2.763e-03		63.117
8		0.00		-4.40		4.457e-03		33.075		2.045e-03		70.774
8		0.00		-4.80		5.850e-03		77.680		2.801e-03		70.775
8		0.00		-5.20		8.276e-03		103.821		4.015e-03		62.270
8		0.00		-5.60		1.349e-02		119.985		5.739e-03		41.822
8		0.00		-6.00		1.734e-02		118.763		7.001e-03		41.443
8		0.00		-6.40		2.063e-02		123.542		7.514e-03		28.885
8		0.00		-6.80		2.296e-02		122.853		8.580e-03		28.580
8		0.00		-7.20		2.737e-02		122.844		9.987e-03		22.850
8		0.00		-7.60		2.947e-02		121.644		1.097e-02		22.583
8		0.00		-8.00		3.216e-02		121.821		1.174e-02		22.863
8		0.00		-8.40		3.483e-02		122.836		1.233e-02		19.961
8		0.00		-8.80		3.578e-02		123.536		1.188e-02		19.959
8		0.00		-9.20		3.730e-02		124.046		1.200e-02		22.349
8		0.00		-9.60		3.800e-02		123.183		1.222e-02		20.532
8		0.00		-10.00		4.033e-02		126.391		1.275e-02		15.684
8		0.00		-9.60		3.882e-02		125.438		1.216e-02		16.304
8		0.00		-9.20		3.787e-02		125.724		1.159e-02		14.678
8		0.00		-8.80		3.569e-02		127.334		1.116e-02		11.718
8		0.00		-8.40		3.516e-02		126.156		1.070e-02		12.985
8		0.00		-8.00		3.275e-02		126.454		1.019e-02		11.812
8		0.00		-7.60		3.141e-02		127.141		9.946e-03		9.609
8		0.00		-7.20		2.980e-02		128.427		9.005e-03		9.272
8		0.00		-6.80		2.757e-02		129.946		8.032e-03		8.603
8		0.00		-6.40		2.631e-02		128.273		7.929e-03		9.146
8		0.00		-6.00		2.272e-02		129.487		6.803e-03		9.187
8		0.00		-5.60		2.161e-02		128.367		6.694e-03		9.957
8		0.00		-5.20		1.962e-02		128.365		6.442e-03		9.089
8		0.00		-4.80		1.705e-02		128.320		5.490e-03		10.836
8		0.00		-4.40		1.497e-02		127.489		5.017e-03		17.084
8		0.00		-4.00		1.332e-02		122.636		4.841e-03		21.900
8		0.00		-3.60		1.104e-02		126.208		3.899e-03		26.096
8		0.00		-3.20		9.268e-03		119.668		3.640e-03		35.161
8		0.00		-2.80		7.307e-03		115.202		2.994e-03		38.059
8		0.00		-2.40		5.394e-03		104.631		2.374e-03		56.520
8		0.00		-2.00		4.224e-03		77.574		1.850e-03		74.146
8		0.00		-1.60		3.037e-03		44.054		1.420e-03		81.200
8		0.00		-1.20		2.602e-03		13.935		1.157e-03		78.349
8		0.00		-0.80		2.977e-03		-31.785		1.507e-03		54.721
8		0.00		-0.40		4.127e-03		-50.300		2.039e-03		37.119
