# Date of analysis: 2023-11-20 16;19
# 
# Loop index	Read Volt (V)	Write Volt (V)	Amplitude (a.u)	Phase (deg)	Sigma Amp (a.u)	Sigma Pha (deg)	
1		0.00		0.00		1.036e-02		-50.718		2.375e-03		15.973
1		0.00		0.40		1.003e-02		-49.167		2.243e-03		16.054
1		0.00		0.80		1.026e-02		-48.592		2.490e-03		18.835
1		0.00		1.20		1.020e-02		-47.448		2.779e-03		17.235
1		0.00		1.60		1.033e-02		-46.156		2.736e-03		16.962
1		0.00		2.00		1.019e-02		-50.917		2.833e-03		18.467
1		0.00		2.40		1.039e-02		-51.521		2.511e-03		17.570
1		0.00		2.80		1.031e-02		-48.836		3.010e-03		16.114
1		0.00		3.20		1.050e-02		-48.066		2.713e-03		16.409
1		0.00		3.60		1.060e-02		-46.414		2.710e-03		19.938
1		0.00		4.00		1.089e-02		-51.158		2.591e-03		16.317
1		0.00		4.40		1.164e-02		-50.033		2.799e-03		16.814
1		0.00		4.80		1.165e-02		-46.443		2.928e-03		15.321
1		0.00		5.20		1.198e-02		-49.489		3.172e-03		16.661
1		0.00		5.60		1.295e-02		-51.900		3.126e-03		17.556
1		0.00		6.00		1.399e-02		-49.972		3.746e-03		15.422
1		0.00		6.40		1.389e-02		-49.363		3.743e-03		17.254
1		0.00		6.80		1.421e-02		-49.815		3.964e-03		17.847
1		0.00		7.20		1.525e-02		-48.924		4.149e-03		15.238
1		0.00		7.60		1.581e-02		-51.273		4.596e-03		17.709
1		0.00		8.00		1.677e-02		-50.478		4.941e-03		15.326
1		0.00		8.40		1.722e-02		-49.740		4.734e-03		16.352
1		0.00		8.80		1.844e-02		-50.697		5.479e-03		15.974
1		0.00		9.20		1.997e-02		-49.846		5.722e-03		11.319
1		0.00		9.60		2.090e-02		-51.650		6.330e-03		15.009
1		0.00		10.00		2.197e-02		-52.407		6.798e-03		15.460
1		0.00		9.60		2.280e-02		-49.699		6.354e-03		14.447
1		0.00		9.20		2.343e-02		-49.015		6.838e-03		17.393
1		0.00		8.80		2.373e-02		-52.424		6.445e-03		15.879
1		0.00		8.40		2.384e-02		-49.234		6.559e-03		15.613
1		0.00		8.00		2.381e-02		-50.205		6.621e-03		13.375
1		0.00		7.60		2.469e-02		-49.713		6.813e-03		11.805
1		0.00		7.20		2.452e-02		-50.641		6.658e-03		11.738
1		0.00		6.80		2.397e-02		-50.299		6.454e-03		11.491
1		0.00		6.40		2.413e-02		-49.823		6.548e-03		11.833
1		0.00		6.00		2.359e-02		-50.861		6.276e-03		11.102
1		0.00		5.60		2.406e-02		-51.063		6.797e-03		11.444
1		0.00		5.20		2.362e-02		-52.146		6.592e-03		11.173
1		0.00		4.80		2.328e-02		-50.188		6.357e-03		11.636
1		0.00		4.40		2.268e-02		-52.348		5.898e-03		12.706
1		0.00		4.00		2.280e-02		-53.060		6.139e-03		13.070
1		0.00		3.60		2.219e-02		-52.918		5.769e-03		13.345
1		0.00		3.20		2.224e-02		-50.583		5.878e-03		13.167
1		0.00		2.80		2.217e-02		-53.387		5.685e-03		13.193
1		0.00		2.40		2.155e-02		-53.403		5.517e-03		13.680
1		0.00		2.00		2.127e-02		-54.247		5.659e-03		15.080
1		0.00		1.60		2.125e-02		-53.058		5.001e-03		13.717
1		0.00		1.20		2.167e-02		-50.042		5.004e-03		12.562
1		0.00		0.80		2.192e-02		-50.116		5.093e-03		13.335
1		0.00		0.40		2.121e-02		-51.948		4.954e-03		13.081
1		0.00		0.00		2.062e-02		-48.157		4.830e-03		14.898
1		0.00		-0.40		2.096e-02		-48.612		4.701e-03		14.036
1		0.00		-0.80		2.029e-02		-50.122		4.857e-03		12.944
1		0.00		-1.20		2.039e-02		-50.748		4.676e-03		11.943
1		0.00		-1.60		2.024e-02		-50.025		4.997e-03		13.132
1		0.00		-2.00		1.986e-02		-48.071		4.506e-03		13.311
1		0.00		-2.40		1.910e-02		-47.198		4.552e-03		13.344
1		0.00		-2.80		1.911e-02		-51.885		4.973e-03		14.645
1		0.00		-3.20		1.819e-02		-49.815		4.829e-03		12.490
1		0.00		-3.60		1.798e-02		-50.128		4.697e-03		13.526
1		0.00		-4.00		1.742e-02		-49.838		4.566e-03		14.261
1		0.00		-4.40		1.690e-02		-50.713		4.523e-03		15.053
1		0.00		-4.80		1.526e-02		-50.630		4.227e-03		16.062
1		0.00		-5.20		1.399e-02		-50.221		4.005e-03		16.198
1		0.00		-5.60		1.207e-02		-48.144		3.278e-03		16.015
1		0.00		-6.00		9.769e-03		-44.266		2.695e-03		15.242
1		0.00		-6.40		7.974e-03		-45.277		2.123e-03		17.147
1		0.00		-6.80		5.816e-03		-50.461		1.619e-03		23.878
1		0.00		-7.20		3.718e-03		-53.798		1.357e-03		34.339
1		0.00		-7.60		1.874e-03		1.955		7.568e-04		62.834
1		0.00		-8.00		2.410e-03		64.541		9.665e-04		62.073
1		0.00		-8.40		4.772e-03		114.654		1.655e-03		36.422
1		0.00		-8.80		6.975e-03		114.907		2.286e-03		30.556
1		0.00		-9.20		8.383e-03		121.271		2.661e-03		15.533
1		0.00		-9.60		1.157e-02		121.864		3.319e-03		21.233
1		0.00		-10.00		1.208e-02		119.846		3.933e-03		31.379
1		0.00		-9.60		1.206e-02		123.655		4.046e-03		20.401
1		0.00		-9.20		1.223e-02		117.014		4.548e-03		26.664
1		0.00		-8.80		1.233e-02		118.889		4.196e-03		23.519
1		0.00		-8.40		1.250e-02		119.346		4.107e-03		21.473
1		0.00		-8.00		1.220e-02		119.032		4.114e-03		17.421
1		0.00		-7.60		1.200e-02		119.064		3.944e-03		19.016
1		0.00		-7.20		1.132e-02		120.668		3.871e-03		25.265
1		0.00		-6.80		1.119e-02		120.743		3.984e-03		19.954
1		0.00		-6.40		1.081e-02		118.664		3.462e-03		19.205
1		0.00		-6.00		1.015e-02		123.936		3.312e-03		19.828
1		0.00		-5.60		9.950e-03		120.390		3.396e-03		19.589
1		0.00		-5.20		9.769e-03		119.906		3.187e-03		14.904
1		0.00		-4.80		9.695e-03		121.053		3.060e-03		14.282
1		0.00		-4.40		9.229e-03		121.590		2.610e-03		16.079
1		0.00		-4.00		8.809e-03		120.741		2.617e-03		16.649
1		0.00		-3.60		8.788e-03		120.633		2.839e-03		18.458
1		0.00		-3.20		8.689e-03		122.600		2.587e-03		12.732
1		0.00		-2.80		7.946e-03		117.728		2.368e-03		22.452
1		0.00		-2.40		8.107e-03		120.880		2.462e-03		14.923
1		0.00		-2.00		7.736e-03		120.716		2.164e-03		14.675
1		0.00		-1.60		7.838e-03		121.533		2.206e-03		18.284
1		0.00		-1.20		7.649e-03		118.804		2.218e-03		26.593
1		0.00		-0.80		7.442e-03		118.179		2.303e-03		20.242
1		0.00		-0.40		7.264e-03		121.202		2.270e-03		15.632
2		0.00		0.00		7.299e-03		118.754		2.158e-03		24.359
2		0.00		0.40		6.643e-03		118.144		2.122e-03		19.999
2		0.00		0.80		6.362e-03		123.000		1.957e-03		19.656
2		0.00		1.20		5.902e-03		120.709		1.923e-03		20.557
2		0.00		1.60		5.253e-03		114.136		1.792e-03		23.785
2		0.00		2.00		5.306e-03		120.780		1.457e-03		18.977
2		0.00		2.40		4.637e-03		118.112		1.516e-03		24.896
2		0.00		2.80		3.531e-03		94.206		1.347e-03		56.783
2		0.00		3.20		2.551e-03		78.128		1.082e-03		67.545
2		0.00		3.60		2.134e-03		54.384		7.659e-04		78.936
2		0.00		4.00		1.810e-03		3.128		7.584e-04		79.242
2		0.00		4.40		1.979e-03		-19.180		8.454e-04		49.586
2		0.00		4.80		2.922e-03		-49.602		1.121e-03		32.858
2		0.00		5.20		3.707e-03		-32.712		1.200e-03		23.431
2		0.00		5.60		3.955e-03		-44.807		1.311e-03		25.345
2		0.00		6.00		4.838e-03		-47.352		1.504e-03		20.496
2		0.00		6.40		5.635e-03		-49.061		1.825e-03		21.074
2		0.00		6.80		6.159e-03		-53.952		1.852e-03		21.755
2		0.00		7.20		7.370e-03		-49.282		2.155e-03		20.929
2		0.00		7.60		8.146e-03		-42.712		2.463e-03		20.504
2		0.00		8.00		9.204e-03		-49.786		2.734e-03		17.831
2		0.00		8.40		1.023e-02		-49.682		3.022e-03		15.698
2		0.00		8.80		1.127e-02		-49.613		3.479e-03		17.932
2		0.00		9.20		1.304e-02		-49.294		3.939e-03		15.897
2		0.00		9.60		1.508e-02		-53.062		4.185e-03		14.102
2		0.00		10.00		1.699e-02		-53.049		4.642e-03		12.884
2		0.00		9.60		1.914e-02		-49.386		4.966e-03		10.904
2		0.00		9.20		1.991e-02		-52.380		5.036e-03		12.139
2		0.00		8.80		1.994e-02		-50.791		4.724e-03		12.881
2		0.00		8.40		2.057e-02		-50.643		4.837e-03		11.701
2		0.00		8.00		2.049e-02		-52.173		5.164e-03		12.670
2		0.00		7.60		2.104e-02		-52.204		4.940e-03		12.208
2		0.00		7.20		2.086e-02		-53.080		4.593e-03		12.115
2		0.00		6.80		2.070e-02		-50.687		4.694e-03		12.548
2		0.00		6.40		2.067e-02		-51.189		4.712e-03		12.230
2		0.00		6.00		2.070e-02		-50.016		4.612e-03		10.916
2		0.00		5.60		2.042e-02		-50.483		4.822e-03		11.628
2		0.00		5.20		1.989e-02		-52.026		4.366e-03		13.039
2		0.00		4.80		1.970e-02		-50.136		4.419e-03		11.417
2		0.00		4.40		1.961e-02		-50.272		4.334e-03		12.710
2		0.00		4.00		1.943e-02		-50.504		4.520e-03		13.260
2		0.00		3.60		1.867e-02		-49.406		4.549e-03		13.996
2		0.00		3.20		1.835e-02		-48.123		5.008e-03		14.189
2		0.00		2.80		1.813e-02		-50.085		4.610e-03		16.539
2		0.00		2.40		1.843e-02		-50.938		4.779e-03		14.854
2		0.00		2.00		1.827e-02		-51.121		4.764e-03		16.310
2		0.00		1.60		1.843e-02		-45.884		4.773e-03		14.581
2		0.00		1.20		1.797e-02		-48.810		4.483e-03		14.549
2		0.00		0.80		1.825e-02		-48.649		4.889e-03		12.315
2		0.00		0.40		1.800e-02		-46.486		4.684e-03		11.338
2		0.00		0.00		1.777e-02		-49.512		4.532e-03		9.990
2		0.00		-0.40		1.718e-02		-48.171		4.499e-03		12.126
2		0.00		-0.80		1.740e-02		-50.231		4.449e-03		12.583
2		0.00		-1.20		1.709e-02		-50.925		4.271e-03		11.426
2		0.00		-1.60		1.606e-02		-49.243		4.087e-03		12.401
2		0.00		-2.00		1.584e-02		-51.793		3.972e-03		12.214
2		0.00		-2.40		1.491e-02		-51.838		3.750e-03		13.879
2		0.00		-2.80		1.462e-02		-52.539		3.613e-03		12.893
2		0.00		-3.20		1.404e-02		-54.892		3.542e-03		12.818
2		0.00		-3.60		1.340e-02		-54.513		3.604e-03		14.847
2		0.00		-4.00		1.276e-02		-49.196		3.215e-03		15.085
2		0.00		-4.40		1.158e-02		-53.075		3.091e-03		15.528
2		0.00		-4.80		1.053e-02		-51.001		2.968e-03		17.954
2		0.00		-5.20		9.885e-03		-52.633		2.706e-03		20.082
2		0.00		-5.60		8.974e-03		-46.982		2.574e-03		15.535
2		0.00		-6.00		7.143e-03		-51.701		1.750e-03		20.363
2		0.00		-6.40		5.074e-03		-43.822		1.461e-03		20.093
2		0.00		-6.80		3.350e-03		-38.532		1.162e-03		27.703
2		0.00		-7.20		1.954e-03		-0.354		8.561e-04		60.038
2		0.00		-7.60		2.256e-03		60.266		9.471e-04		62.894
2		0.00		-8.00		3.898e-03		96.784		1.529e-03		58.997
2		0.00		-8.40		5.952e-03		116.543		2.200e-03		24.987
2		0.00		-8.80		9.064e-03		122.478		2.646e-03		14.217
2		0.00		-9.20		1.034e-02		120.753		2.982e-03		15.372
2		0.00		-9.60		1.260e-02		122.325		3.132e-03		13.688
2		0.00		-10.00		1.341e-02		121.710		3.415e-03		11.132
2		0.00		-9.60		1.367e-02		124.012		3.378e-03		12.269
2		0.00		-9.20		1.439e-02		124.273		3.232e-03		11.386
2		0.00		-8.80		1.361e-02		123.222		3.528e-03		13.630
2		0.00		-8.40		1.336e-02		123.607		3.022e-03		13.154
2		0.00		-8.00		1.318e-02		126.032		3.351e-03		15.049
2		0.00		-7.60		1.315e-02		120.495		3.467e-03		13.182
2		0.00		-7.20		1.239e-02		123.641		3.762e-03		18.526
2		0.00		-6.80		1.220e-02		118.545		3.217e-03		21.274
2		0.00		-6.40		1.227e-02		123.465		3.464e-03		20.605
2		0.00		-6.00		1.144e-02		123.027		3.254e-03		19.200
2		0.00		-5.60		1.138e-02		123.879		3.286e-03		13.947
2		0.00		-5.20		1.083e-02		122.393		2.997e-03		13.820
2		0.00		-4.80		1.109e-02		126.336		2.909e-03		12.606
2		0.00		-4.40		1.078e-02		121.720		2.838e-03		15.601
2		0.00		-4.00		1.058e-02		122.108		2.489e-03		11.992
2		0.00		-3.60		1.010e-02		121.916		2.583e-03		15.515
2		0.00		-3.20		9.748e-03		124.130		2.528e-03		13.909
2		0.00		-2.80		9.540e-03		123.521		2.532e-03		18.183
2		0.00		-2.40		9.291e-03		124.825		2.254e-03		15.364
2		0.00		-2.00		8.786e-03		119.088		2.792e-03		20.694
2		0.00		-1.60		8.845e-03		122.047		2.450e-03		23.391
2		0.00		-1.20		8.076e-03		117.909		2.713e-03		27.721
2		0.00		-0.80		8.400e-03		121.223		2.628e-03		22.138
2		0.00		-0.40		8.049e-03		120.244		2.591e-03		27.805
3		0.00		0.00		8.192e-03		120.506		2.735e-03		14.406
3		0.00		0.40		7.902e-03		122.905		2.383e-03		18.627
3		0.00		0.80		7.530e-03		119.407		2.072e-03		17.017
3		0.00		1.20		7.069e-03		122.663		1.934e-03		19.807
3		0.00		1.60		6.488e-03		119.152		1.539e-03		17.397
3		0.00		2.00		5.818e-03		120.475		1.598e-03		18.605
3		0.00		2.40		4.684e-03		112.438		1.401e-03		18.797
3		0.00		2.80		3.951e-03		115.515		1.410e-03		43.521
3		0.00		3.20		3.320e-03		106.046		1.211e-03		43.458
3		0.00		3.60		2.556e-03		56.890		1.144e-03		73.357
3		0.00		4.00		2.142e-03		36.830		9.020e-04		83.693
3		0.00		4.40		1.774e-03		-11.480		7.013e-04		67.474
3		0.00		4.80		2.090e-03		-30.684		8.457e-04		55.265
3		0.00		5.20		2.836e-03		-32.222		1.142e-03		43.057
3		0.00		5.60		3.727e-03		-45.539		1.318e-03		29.741
3		0.00		6.00		4.536e-03		-53.067		1.334e-03		21.406
3		0.00		6.40		5.074e-03		-42.852		1.298e-03		20.982
3		0.00		6.80		6.098e-03		-52.281		1.346e-03		18.052
3		0.00		7.20		7.216e-03		-47.142		1.621e-03		19.208
3		0.00		7.60		8.029e-03		-52.806		2.265e-03		17.609
3		0.00		8.00		8.715e-03		-46.253		2.280e-03		13.548
3		0.00		8.40		9.741e-03		-47.207		2.858e-03		17.546
3		0.00		8.80		1.062e-02		-47.793		3.021e-03		16.564
3		0.00		9.20		1.251e-02		-49.603		3.618e-03		14.013
3		0.00		9.60		1.467e-02		-49.369		4.217e-03		12.379
3		0.00		10.00		1.620e-02		-53.043		4.251e-03		10.950
3		0.00		9.60		1.779e-02		-54.578		4.341e-03		10.739
3		0.00		9.20		1.844e-02		-50.586		3.982e-03		9.090
3		0.00		8.80		1.890e-02		-53.055		4.131e-03		8.812
3		0.00		8.40		1.980e-02		-50.888		3.936e-03		9.696
3		0.00		8.00		1.981e-02		-51.406		3.948e-03		10.732
3		0.00		7.60		1.991e-02		-51.404		4.218e-03		11.321
3		0.00		7.20		1.972e-02		-49.692		4.199e-03		10.903
3		0.00		6.80		1.950e-02		-49.603		4.609e-03		13.220
3		0.00		6.40		1.881e-02		-49.967		5.081e-03		13.403
3		0.00		6.00		1.824e-02		-52.448		5.126e-03		17.912
3		0.00		5.60		1.810e-02		-51.629		5.374e-03		12.985
3		0.00		5.20		1.804e-02		-50.983		5.288e-03		13.607
3		0.00		4.80		1.786e-02		-48.933		5.151e-03		11.318
3		0.00		4.40		1.837e-02		-51.293		4.980e-03		9.587
3		0.00		4.00		1.788e-02		-53.175		4.405e-03		11.998
3		0.00		3.60		1.735e-02		-52.956		4.232e-03		13.654
3		0.00		3.20		1.746e-02		-53.192		4.038e-03		12.091
3		0.00		2.80		1.727e-02		-52.148		4.234e-03		15.534
3		0.00		2.40		1.710e-02		-48.783		4.161e-03		12.116
3		0.00		2.00		1.680e-02		-50.663		4.096e-03		13.364
3		0.00		1.60		1.676e-02		-47.463		4.122e-03		13.369
3		0.00		1.20		1.670e-02		-50.022		4.165e-03		15.080
3		0.00		0.80		1.683e-02		-49.370		4.575e-03		11.224
3		0.00		0.40		1.663e-02		-48.873		4.391e-03		10.149
3		0.00		0.00		1.630e-02		-47.549		3.966e-03		11.080
3		0.00		-0.40		1.617e-02		-51.117		3.722e-03		10.438
3		0.00		-0.80		1.590e-02		-49.228		3.590e-03		10.965
3		0.00		-1.20		1.570e-02		-51.089		3.589e-03		12.876
3		0.00		-1.60		1.522e-02		-48.058		3.777e-03		12.329
3		0.00		-2.00		1.515e-02		-50.843		3.830e-03		13.059
3		0.00		-2.40		1.406e-02		-47.409		3.463e-03		13.418
3		0.00		-2.80		1.381e-02		-45.156		3.823e-03		15.451
3		0.00		-3.20		1.352e-02		-47.610		3.920e-03		12.000
3		0.00		-3.60		1.280e-02		-49.777		3.565e-03		12.029
3		0.00		-4.00		1.257e-02		-48.951		3.120e-03		12.526
3		0.00		-4.40		1.179e-02		-48.803		2.937e-03		13.009
3		0.00		-4.80		1.135e-02		-51.595		2.593e-03		12.105
3		0.00		-5.20		1.033e-02		-46.081		2.511e-03		15.282
3		0.00		-5.60		9.108e-03		-47.677		2.525e-03		16.509
3		0.00		-6.00		7.890e-03		-44.296		2.189e-03		18.498
3		0.00		-6.40		7.108e-03		-46.763		2.088e-03		20.809
3		0.00		-6.80		5.184e-03		-35.442		1.649e-03		21.542
3		0.00		-7.20		3.329e-03		-67.458		1.521e-03		41.385
3		0.00		-7.60		2.381e-03		-26.677		9.467e-04		40.166
3		0.00		-8.00		1.919e-03		18.405		7.228e-04		79.348
3		0.00		-8.40		3.373e-03		99.953		1.297e-03		33.385
3		0.00		-8.80		5.564e-03		109.949		1.680e-03		31.839
3		0.00		-9.20		8.253e-03		123.314		2.187e-03		18.279
3		0.00		-9.60		1.030e-02		117.689		2.859e-03		18.049
3		0.00		-10.00		1.166e-02		117.516		3.652e-03		22.567
3		0.00		-9.60		1.246e-02		123.124		4.091e-03		16.111
3		0.00		-9.20		1.319e-02		125.596		3.995e-03		10.270
3		0.00		-8.80		1.299e-02		123.755		3.693e-03		11.434
3		0.00		-8.40		1.268e-02		120.508		3.524e-03		12.711
3		0.00		-8.00		1.271e-02		124.673		3.224e-03		11.854
3		0.00		-7.60		1.283e-02		125.206		3.337e-03		12.652
3		0.00		-7.20		1.195e-02		120.113		3.208e-03		16.784
3		0.00		-6.80		1.166e-02		120.322		3.799e-03		21.794
3		0.00		-6.40		1.105e-02		119.756		3.536e-03		17.710
3		0.00		-6.00		1.116e-02		120.651		3.499e-03		14.351
3		0.00		-5.60		1.103e-02		122.462		2.989e-03		13.299
3		0.00		-5.20		1.055e-02		120.153		2.780e-03		11.196
3		0.00		-4.80		1.042e-02		122.134		2.540e-03		14.203
3		0.00		-4.40		9.908e-03		122.215		2.700e-03		13.038
3		0.00		-4.00		1.007e-02		122.395		2.584e-03		16.340
3		0.00		-3.60		9.930e-03		121.217		2.760e-03		20.667
3		0.00		-3.20		9.346e-03		123.005		2.648e-03		20.000
3		0.00		-2.80		9.087e-03		121.830		2.566e-03		18.948
3		0.00		-2.40		8.992e-03		126.301		2.563e-03		14.990
3		0.00		-2.00		8.810e-03		120.505		2.202e-03		12.330
3		0.00		-1.60		8.743e-03		120.226		2.112e-03		17.079
3		0.00		-1.20		8.074e-03		125.370		1.985e-03		13.898
3		0.00		-0.80		8.456e-03		123.635		2.300e-03		12.833
3		0.00		-0.40		8.336e-03		124.511		2.258e-03		16.654
4		0.00		0.00		8.059e-03		120.178		2.467e-03		22.369
4		0.00		0.40		7.534e-03		121.049		2.474e-03		24.391
4		0.00		0.80		7.401e-03		122.670		2.032e-03		15.833
4		0.00		1.20		7.161e-03		123.350		2.103e-03		18.971
4		0.00		1.60		6.496e-03		127.381		1.830e-03		19.260
4		0.00		2.00		5.757e-03		122.271		1.976e-03		25.002
4		0.00		2.40		4.989e-03		112.518		1.610e-03		22.512
4		0.00		2.80		4.120e-03		113.448		1.331e-03		34.320
4		0.00		3.20		3.527e-03		93.800		1.417e-03		57.164
4		0.00		3.60		2.808e-03		87.267		1.198e-03		50.444
4		0.00		4.00		2.080e-03		45.903		9.224e-04		72.626
4		0.00		4.40		1.861e-03		-8.311		7.014e-04		79.974
4		0.00		4.80		2.049e-03		-28.507		7.736e-04		50.797
4		0.00		5.20		2.481e-03		-60.754		9.014e-04		46.733
4		0.00		5.60		3.339e-03		-40.633		1.274e-03		32.840
4		0.00		6.00		3.809e-03		-55.552		1.187e-03		30.038
4		0.00		6.40		4.845e-03		-53.387		1.568e-03		21.511
4		0.00		6.80		5.304e-03		-38.027		1.735e-03		22.743
4		0.00		7.20		6.035e-03		-47.768		2.004e-03		20.546
4		0.00		7.60		7.518e-03		-51.149		2.243e-03		18.638
4		0.00		8.00		8.411e-03		-42.933		2.336e-03		15.268
4		0.00		8.40		1.006e-02		-48.931		2.526e-03		12.639
4		0.00		8.80		1.149e-02		-52.896		2.635e-03		13.795
4		0.00		9.20		1.249e-02		-50.530		3.062e-03		14.123
4		0.00		9.60		1.438e-02		-54.168		3.889e-03		13.611
4		0.00		10.00		1.514e-02		-51.321		3.966e-03		16.377
4		0.00		9.60		1.659e-02		-51.028		4.215e-03		15.144
4		0.00		9.20		1.703e-02		-48.513		4.598e-03		18.500
4		0.00		8.80		1.753e-02		-49.606		4.625e-03		13.114
4		0.00		8.40		1.782e-02		-51.612		4.793e-03		11.365
4		0.00		8.00		1.802e-02		-53.293		4.450e-03		11.356
4		0.00		7.60		1.799e-02		-49.941		3.900e-03		12.632
4		0.00		7.20		1.801e-02		-51.873		3.635e-03		12.038
4		0.00		6.80		1.798e-02		-52.095		3.594e-03		12.235
4		0.00		6.40		1.796e-02		-51.668		3.682e-03		12.320
4		0.00		6.00		1.753e-02		-49.013		3.895e-03		11.373
4		0.00		5.60		1.718e-02		-49.978		4.148e-03		13.859
4		0.00		5.20		1.651e-02		-50.558		4.533e-03		15.068
4		0.00		4.80		1.650e-02		-47.883		4.638e-03		11.912
4		0.00		4.40		1.672e-02		-51.683		4.722e-03		12.473
4		0.00		4.00		1.669e-02		-51.028		4.709e-03		12.230
4		0.00		3.60		1.681e-02		-49.578		4.178e-03		9.744
4		0.00		3.20		1.640e-02		-49.298		3.652e-03		11.927
4		0.00		2.80		1.646e-02		-53.413		3.608e-03		10.984
4		0.00		2.40		1.636e-02		-49.167		3.407e-03		10.974
4		0.00		2.00		1.607e-02		-49.479		3.341e-03		13.046
4		0.00		1.60		1.609e-02		-48.097		3.522e-03		12.361
4		0.00		1.20		1.573e-02		-46.425		3.818e-03		14.798
4		0.00		0.80		1.550e-02		-48.474		3.686e-03		15.796
4		0.00		0.40		1.530e-02		-47.349		3.808e-03		16.414
4		0.00		0.00		1.549e-02		-46.984		3.963e-03		12.505
4		0.00		-0.40		1.543e-02		-46.863		3.908e-03		13.499
4		0.00		-0.80		1.464e-02		-47.520		3.554e-03		12.208
4		0.00		-1.20		1.530e-02		-47.814		3.687e-03		11.303
4		0.00		-1.60		1.518e-02		-49.858		3.424e-03		11.940
4		0.00		-2.00		1.525e-02		-51.207		3.171e-03		11.312
4		0.00		-2.40		1.461e-02		-50.472		2.975e-03		11.139
4		0.00		-2.80		1.449e-02		-50.808		3.381e-03		13.974
4		0.00		-3.20		1.339e-02		-50.773		3.152e-03		14.725
4		0.00		-3.60		1.277e-02		-50.253		3.017e-03		14.666
4		0.00		-4.00		1.149e-02		-50.154		3.089e-03		14.345
4		0.00		-4.40		1.089e-02		-48.935		2.824e-03		12.656
4		0.00		-4.80		9.954e-03		-50.920		2.552e-03		14.400
4		0.00		-5.20		9.090e-03		-48.335		2.697e-03		19.205
4		0.00		-5.60		8.182e-03		-44.002		2.362e-03		15.130
4		0.00		-6.00		6.986e-03		-50.788		2.043e-03		17.046
4		0.00		-6.40		6.161e-03		-49.147		1.632e-03		18.632
4		0.00		-6.80		4.407e-03		-46.257		1.321e-03		19.462
4		0.00		-7.20		2.495e-03		-57.609		1.164e-03		53.589
4		0.00		-7.60		1.774e-03		3.450		6.938e-04		64.755
4		0.00		-8.00		2.800e-03		93.783		1.121e-03		52.836
4		0.00		-8.40		4.312e-03		111.810		1.426e-03		33.735
4		0.00		-8.80		6.329e-03		118.422		1.806e-03		20.078
4		0.00		-9.20		8.466e-03		115.017		1.952e-03		14.761
4		0.00		-9.60		1.080e-02		123.874		2.321e-03		13.298
4		0.00		-10.00		1.221e-02		122.696		2.865e-03		11.466
4		0.00		-9.60		1.270e-02		127.009		2.938e-03		13.127
4		0.00		-9.20		1.296e-02		121.818		2.940e-03		12.207
4		0.00		-8.80		1.339e-02		122.880		2.885e-03		10.969
4		0.00		-8.40		1.360e-02		121.685		3.027e-03		9.678
4		0.00		-8.00		1.336e-02		124.640		2.705e-03		13.805
4		0.00		-7.60		1.386e-02		123.696		2.816e-03		9.520
4		0.00		-7.20		1.317e-02		121.746		2.768e-03		10.908
4		0.00		-6.80		1.299e-02		122.309		2.898e-03		11.547
4		0.00		-6.40		1.216e-02		121.201		2.908e-03		12.914
4		0.00		-6.00		1.166e-02		126.238		2.912e-03		14.483
4		0.00		-5.60		1.152e-02		127.635		2.697e-03		12.642
4		0.00		-5.20		1.103e-02		122.676		2.811e-03		15.579
4		0.00		-4.80		1.076e-02		123.894		2.612e-03		17.411
4		0.00		-4.40		1.065e-02		120.639		2.537e-03		21.311
4		0.00		-4.00		1.059e-02		122.885		2.587e-03		16.966
4		0.00		-3.60		1.006e-02		125.110		2.514e-03		17.589
4		0.00		-3.20		1.023e-02		123.700		2.581e-03		21.468
4		0.00		-2.80		9.851e-03		126.043		2.460e-03		18.304
4		0.00		-2.40		9.748e-03		126.003		2.459e-03		17.908
4		0.00		-2.00		9.711e-03		121.448		2.589e-03		17.621
4		0.00		-1.60		9.039e-03		124.670		2.706e-03		25.691
4		0.00		-1.20		8.937e-03		117.721		2.628e-03		24.938
4		0.00		-0.80		8.536e-03		117.489		2.753e-03		25.412
4		0.00		-0.40		8.809e-03		118.880		2.660e-03		21.704
5		0.00		0.00		8.238e-03		121.548		2.591e-03		15.332
5		0.00		0.40		7.810e-03		118.244		2.614e-03		16.520
5		0.00		0.80		7.365e-03		126.483		2.239e-03		14.511
5		0.00		1.20		6.935e-03		116.494		2.313e-03		20.350
5		0.00		1.60		6.648e-03		121.225		2.024e-03		17.677
5		0.00		2.00		6.151e-03		120.619		2.047e-03		19.731
5		0.00		2.40		5.374e-03		119.801		1.732e-03		19.192
5		0.00		2.80		4.687e-03		119.649		1.614e-03		21.937
5		0.00		3.20		3.270e-03		93.678		1.133e-03		43.620
5		0.00		3.60		2.382e-03		82.874		1.210e-03		60.240
5		0.00		4.00		2.010e-03		71.045		8.515e-04		60.577
5		0.00		4.40		1.922e-03		-4.078		8.969e-04		62.542
5		0.00		4.80		2.053e-03		-21.339		8.764e-04		61.324
5		0.00		5.20		2.471e-03		-36.172		9.760e-04		45.392
5		0.00		5.60		3.322e-03		-49.650		1.128e-03		37.109
5		0.00		6.00		3.839e-03		-51.467		1.346e-03		24.596
5		0.00		6.40		4.842e-03		-54.294		1.466e-03		22.952
5		0.00		6.80		5.601e-03		-49.647		1.373e-03		20.509
5		0.00		7.20		6.601e-03		-55.957		1.838e-03		21.068
5		0.00		7.60		7.106e-03		-50.460		1.774e-03		17.760
5		0.00		8.00		8.490e-03		-48.046		1.863e-03		15.273
5		0.00		8.40		9.563e-03		-53.496		2.206e-03		16.485
5		0.00		8.80		1.065e-02		-48.453		2.385e-03		14.111
5		0.00		9.20		1.193e-02		-52.114		2.772e-03		12.368
5		0.00		9.60		1.345e-02		-52.662		2.970e-03		13.808
5		0.00		10.00		1.513e-02		-54.711		3.526e-03		12.987
5		0.00		9.60		1.595e-02		-50.124		3.417e-03		11.818
5		0.00		9.20		1.637e-02		-48.730		3.510e-03		11.460
5		0.00		8.80		1.681e-02		-49.667		3.774e-03		11.426
5		0.00		8.40		1.752e-02		-51.058		4.219e-03		11.668
5		0.00		8.00		1.702e-02		-48.442		3.943e-03		11.430
5		0.00		7.60		1.692e-02		-52.331		4.001e-03		15.382
5		0.00		7.20		1.694e-02		-51.009		4.113e-03		10.779
5		0.00		6.80		1.694e-02		-48.971		4.083e-03		14.129
5		0.00		6.40		1.686e-02		-51.063		4.032e-03		11.824
5		0.00		6.00		1.636e-02		-49.694		4.360e-03		15.593
5		0.00		5.60		1.636e-02		-48.851		4.297e-03		14.978
5		0.00		5.20		1.570e-02		-51.721		4.267e-03		13.748
5		0.00		4.80		1.611e-02		-49.116		4.452e-03		15.002
5		0.00		4.40		1.583e-02		-51.579		4.545e-03		15.374
5		0.00		4.00		1.538e-02		-48.825		4.383e-03		14.013
5		0.00		3.60		1.523e-02		-49.197		4.316e-03		16.822
5		0.00		3.20		1.525e-02		-51.599		4.142e-03		15.612
5		0.00		2.80		1.492e-02		-49.383		4.268e-03		15.212
5		0.00		2.40		1.498e-02		-48.741		4.070e-03		15.780
5		0.00		2.00		1.481e-02		-48.860		3.848e-03		14.394
5		0.00		1.60		1.496e-02		-44.253		3.925e-03		11.381
5		0.00		1.20		1.470e-02		-48.868		3.630e-03		13.493
5		0.00		0.80		1.474e-02		-47.938		3.765e-03		10.807
5		0.00		0.40		1.516e-02		-47.338		3.862e-03		11.563
5		0.00		0.00		1.490e-02		-47.288		3.506e-03		11.956
5		0.00		-0.40		1.447e-02		-49.001		3.211e-03		13.410
5		0.00		-0.80		1.495e-02		-49.556		3.350e-03		10.590
5		0.00		-1.20		1.491e-02		-49.436		3.427e-03		9.858
5		0.00		-1.60		1.430e-02		-49.172		3.361e-03		10.808
5		0.00		-2.00		1.440e-02		-48.404		3.302e-03		10.435
5		0.00		-2.40		1.374e-02		-49.298		3.139e-03		12.749
5		0.00		-2.80		1.362e-02		-50.140		2.968e-03		10.732
5		0.00		-3.20		1.298e-02		-48.701		2.737e-03		12.075
5		0.00		-3.60		1.258e-02		-50.941		2.634e-03		10.449
5		0.00		-4.00		1.214e-02		-50.727		2.713e-03		13.340
5		0.00		-4.40		1.152e-02		-49.094		2.355e-03		11.731
5		0.00		-4.80		1.087e-02		-49.963		2.211e-03		10.853
5		0.00		-5.20		9.751e-03		-51.883		2.027e-03		11.979
5		0.00		-5.60		8.694e-03		-52.560		1.906e-03		11.989
5		0.00		-6.00		7.505e-03		-53.773		1.601e-03		14.394
5		0.00		-6.40		6.120e-03		-39.173		1.477e-03		16.675
5		0.00		-6.80		4.586e-03		-55.283		1.408e-03		25.239
5		0.00		-7.20		3.002e-03		-44.608		1.074e-03		35.336
5		0.00		-7.60		2.136e-03		-10.848		8.925e-04		44.909
5		0.00		-8.00		2.205e-03		49.729		9.478e-04		60.398
5		0.00		-8.40		3.071e-03		108.447		1.145e-03		34.421
5		0.00		-8.80		4.898e-03		111.317		1.489e-03		28.639
5		0.00		-9.20		6.908e-03		121.859		1.879e-03		13.250
5		0.00		-9.60		8.845e-03		125.270		2.549e-03		13.894
5		0.00		-10.00		1.082e-02		124.392		3.093e-03		15.529
5		0.00		-9.60		1.128e-02		122.826		3.146e-03		15.691
5		0.00		-9.20		1.188e-02		121.225		3.427e-03		16.575
5		0.00		-8.80		1.168e-02		121.137		3.379e-03		19.417
5		0.00		-8.40		1.160e-02		120.531		3.598e-03		21.866
5		0.00		-8.00		1.167e-02		121.772		3.449e-03		25.120
5		0.00		-7.60		1.131e-02		121.190		3.337e-03		20.661
5		0.00		-7.20		1.085e-02		116.764		3.474e-03		23.847
5		0.00		-6.80		1.083e-02		120.917		3.447e-03		18.394
5		0.00		-6.40		1.047e-02		121.547		3.004e-03		19.916
5		0.00		-6.00		1.093e-02		120.111		3.298e-03		18.466
5		0.00		-5.60		1.052e-02		124.141		3.125e-03		13.669
5		0.00		-5.20		1.028e-02		121.651		2.671e-03		11.205
5		0.00		-4.80		1.030e-02		121.128		2.710e-03		13.592
5		0.00		-4.40		9.903e-03		121.991		2.517e-03		11.553
5		0.00		-4.00		9.789e-03		123.413		2.835e-03		12.900
5		0.00		-3.60		9.640e-03		122.484		2.281e-03		14.186
5		0.00		-3.20		9.106e-03		121.379		2.164e-03		13.570
5		0.00		-2.80		9.147e-03		122.659		2.178e-03		14.252
5		0.00		-2.40		9.145e-03		122.474		2.156e-03		12.835
5		0.00		-2.00		9.125e-03		123.916		2.158e-03		15.378
5		0.00		-1.60		8.562e-03		124.768		2.168e-03		12.172
5		0.00		-1.20		8.493e-03		120.641		2.260e-03		11.198
5		0.00		-0.80		8.837e-03		123.227		2.201e-03		11.966
5		0.00		-0.40		8.597e-03		127.671		1.930e-03		13.238
6		0.00		0.00		8.748e-03		124.684		2.039e-03		14.633
6		0.00		0.40		8.162e-03		124.325		2.188e-03		18.286
6		0.00		0.80		7.838e-03		123.150		2.267e-03		18.655
6		0.00		1.20		7.853e-03		121.031		2.156e-03		19.218
6		0.00		1.60		7.264e-03		118.984		2.128e-03		25.180
6		0.00		2.00		6.825e-03		123.299		1.790e-03		25.017
6		0.00		2.40		6.186e-03		121.767		1.990e-03		26.929
6		0.00		2.80		5.077e-03		117.939		1.442e-03		30.002
6		0.00		3.20		4.336e-03		108.956		1.377e-03		27.772
6		0.00		3.60		2.776e-03		82.719		1.171e-03		53.699
6		0.00		4.00		2.368e-03		61.560		1.013e-03		64.861
6		0.00		4.40		1.899e-03		43.381		8.089e-04		67.276
6		0.00		4.80		1.847e-03		-16.124		8.021e-04		57.995
6		0.00		5.20		2.192e-03		-42.916		8.099e-04		47.672
6		0.00		5.60		3.055e-03		-49.887		1.161e-03		32.672
6		0.00		6.00		3.535e-03		-60.616		1.425e-03		32.474
6		0.00		6.40		4.223e-03		-41.649		1.357e-03		25.944
6		0.00		6.80		4.890e-03		-51.713		1.761e-03		23.012
6		0.00		7.20		5.491e-03		-45.277		1.626e-03		21.720
6		0.00		7.60		6.522e-03		-42.409		2.025e-03		21.689
6		0.00		8.00		7.968e-03		-53.971		2.566e-03		19.359
6		0.00		8.40		8.844e-03		-50.613		2.597e-03		18.251
6		0.00		8.80		1.018e-02		-53.305		2.818e-03		15.700
6		0.00		9.20		1.167e-02		-52.663		2.699e-03		12.047
6		0.00		9.60		1.274e-02		-52.968		2.829e-03		15.150
6		0.00		10.00		1.440e-02		-51.297		2.855e-03		12.711
6		0.00		9.60		1.525e-02		-49.463		3.579e-03		12.758
6		0.00		9.20		1.545e-02		-49.601		3.518e-03		13.184
6		0.00		8.80		1.601e-02		-51.530		3.465e-03		13.496
6		0.00		8.40		1.625e-02		-49.018		4.033e-03		12.168
6		0.00		8.00		1.667e-02		-49.490		4.469e-03		14.706
6		0.00		7.60		1.621e-02		-49.743		4.266e-03		13.047
6		0.00		7.20		1.660e-02		-49.269		4.283e-03		11.794
6		0.00		6.80		1.654e-02		-53.227		3.946e-03		9.912
6		0.00		6.40		1.651e-02		-50.855		3.504e-03		11.369
6		0.00		6.00		1.647e-02		-50.548		3.363e-03		12.117
6		0.00		5.60		1.607e-02		-49.135		3.489e-03		12.962
6		0.00		5.20		1.573e-02		-48.048		3.582e-03		12.885
6		0.00		4.80		1.535e-02		-49.659		3.947e-03		14.224
6		0.00		4.40		1.511e-02		-50.422		4.053e-03		15.607
6		0.00		4.00		1.496e-02		-51.928		3.959e-03		16.248
6		0.00		3.60		1.493e-02		-48.677		4.124e-03		13.752
6		0.00		3.20		1.485e-02		-47.998		3.703e-03		10.886
6		0.00		2.80		1.530e-02		-48.178		3.237e-03		9.392
6		0.00		2.40		1.541e-02		-51.322		3.219e-03		10.223
6		0.00		2.00		1.508e-02		-50.334		3.048e-03		11.182
6		0.00		1.60		1.493e-02		-49.507		2.997e-03		12.735
6		0.00		1.20		1.495e-02		-46.079		3.071e-03		11.062
6		0.00		0.80		1.481e-02		-48.722		3.110e-03		11.617
6		0.00		0.40		1.466e-02		-46.525		3.076e-03		14.761
6		0.00		0.00		1.441e-02		-46.899		3.476e-03		14.212
6		0.00		-0.40		1.481e-02		-49.482		3.591e-03		11.685
6		0.00		-0.80		1.422e-02		-44.618		3.064e-03		10.245
6		0.00		-1.20		1.440e-02		-50.241		2.493e-03		10.534
6		0.00		-1.60		1.436e-02		-49.443		2.923e-03		8.349
6		0.00		-2.00		1.395e-02		-53.918		3.035e-03		11.334
6		0.00		-2.40		1.264e-02		-48.331		3.148e-03		14.168
6		0.00		-2.80		1.235e-02		-51.761		3.239e-03		12.640
6		0.00		-3.20		1.252e-02		-48.020		3.073e-03		14.703
6		0.00		-3.60		1.188e-02		-46.583		3.281e-03		16.121
6		0.00		-4.00		1.176e-02		-50.640		3.230e-03		12.049
6		0.00		-4.40		1.055e-02		-50.955		2.663e-03		12.848
6		0.00		-4.80		1.026e-02		-50.446		2.815e-03		11.179
6		0.00		-5.20		9.278e-03		-48.218		2.181e-03		17.571
6		0.00		-5.60		8.127e-03		-50.877		1.966e-03		14.228
6		0.00		-6.00		6.746e-03		-48.610		1.785e-03		15.694
6		0.00		-6.40		5.636e-03		-43.314		1.613e-03		18.857
6		0.00		-6.80		4.885e-03		-53.363		1.374e-03		20.908
6		0.00		-7.20		3.529e-03		-48.652		1.234e-03		30.350
6		0.00		-7.60		2.167e-03		-38.666		8.458e-04		53.682
6		0.00		-8.00		1.482e-03		-3.066		5.689e-04		66.012
6		0.00		-8.40		2.574e-03		85.992		1.037e-03		54.526
6		0.00		-8.80		5.529e-03		115.418		1.782e-03		26.651
6		0.00		-9.20		8.711e-03		119.945		2.133e-03		13.878
6		0.00		-9.60		1.061e-02		121.100		2.604e-03		13.212
6		0.00		-10.00		1.191e-02		125.315		2.713e-03		11.330
6		0.00		-9.60		1.208e-02		126.231		2.969e-03		14.316
6		0.00		-9.20		1.240e-02		125.674		3.054e-03		13.787
6		0.00		-8.80		1.250e-02		126.375		3.299e-03		15.912
6		0.00		-8.40		1.263e-02		122.073		3.641e-03		17.527
6		0.00		-8.00		1.193e-02		120.546		3.538e-03		21.214
6		0.00		-7.60		1.243e-02		125.303		3.372e-03		13.263
6		0.00		-7.20		1.244e-02		125.897		3.410e-03		9.863
6		0.00		-6.80		1.181e-02		122.570		3.023e-03		10.250
6		0.00		-6.40		1.218e-02		123.856		2.884e-03		12.117
6		0.00		-6.00		1.235e-02		123.717		2.791e-03		11.239
6		0.00		-5.60		1.223e-02		123.766		2.529e-03		11.461
6		0.00		-5.20		1.154e-02		123.261		2.440e-03		11.632
6		0.00		-4.80		1.131e-02		124.596		2.451e-03		13.198
6		0.00		-4.40		1.051e-02		125.131		2.415e-03		18.270
6		0.00		-4.00		1.022e-02		126.035		2.488e-03		22.006
6		0.00		-3.60		9.845e-03		125.037		2.508e-03		18.477
6		0.00		-3.20		1.006e-02		123.084		2.694e-03		16.511
6		0.00		-2.80		9.829e-03		123.450		2.405e-03		11.464
6		0.00		-2.40		9.811e-03		121.613		2.514e-03		15.150
6		0.00		-2.00		9.626e-03		122.857		2.466e-03		10.867
6		0.00		-1.60		9.182e-03		125.222		2.231e-03		14.291
6		0.00		-1.20		9.426e-03		121.513		2.436e-03		15.470
6		0.00		-0.80		9.222e-03		122.007		2.283e-03		14.486
6		0.00		-0.40		9.021e-03		123.168		2.403e-03		14.325
7		0.00		0.00		8.996e-03		121.450		2.463e-03		17.774
7		0.00		0.40		8.374e-03		121.786		2.337e-03		19.977
7		0.00		0.80		8.220e-03		121.886		2.312e-03		21.428
7		0.00		1.20		7.695e-03		121.661		2.412e-03		23.527
7		0.00		1.60		7.228e-03		121.603		2.117e-03		26.823
7		0.00		2.00		7.032e-03		124.505		1.864e-03		18.043
7		0.00		2.40		6.151e-03		119.577		1.863e-03		17.622
7		0.00		2.80		4.944e-03		120.890		1.610e-03		20.809
7		0.00		3.20		4.341e-03		117.977		1.451e-03		26.288
7		0.00		3.60		3.426e-03		109.273		1.211e-03		40.019
7		0.00		4.00		2.120e-03		76.448		7.759e-04		59.264
7		0.00		4.40		1.759e-03		46.254		7.896e-04		75.677
7		0.00		4.80		1.930e-03		-4.673		8.985e-04		63.116
7		0.00		5.20		2.442e-03		-38.994		1.110e-03		56.953
7		0.00		5.60		2.979e-03		-64.251		1.070e-03		33.791
7		0.00		6.00		3.874e-03		-55.814		1.482e-03		27.567
7		0.00		6.40		4.410e-03		-40.762		1.458e-03		27.356
7		0.00		6.80		4.880e-03		-39.170		1.520e-03		20.349
7		0.00		7.20		5.950e-03		-47.161		1.641e-03		25.273
7		0.00		7.60		7.039e-03		-50.308		1.751e-03		15.812
7		0.00		8.00		7.981e-03		-52.114		1.889e-03		17.060
7		0.00		8.40		9.337e-03		-55.649		1.962e-03		13.471
7		0.00		8.80		1.033e-02		-49.074		2.273e-03		13.100
7		0.00		9.20		1.113e-02		-51.553		2.572e-03		14.602
7		0.00		9.60		1.263e-02		-48.755		3.399e-03		13.513
7		0.00		10.00		1.371e-02		-53.167		3.279e-03		13.174
7		0.00		9.60		1.507e-02		-48.941		3.774e-03		13.016
7		0.00		9.20		1.518e-02		-51.995		4.022e-03		11.740
7		0.00		8.80		1.544e-02		-52.512		3.925e-03		14.599
7		0.00		8.40		1.619e-02		-52.323		3.991e-03		11.727
7		0.00		8.00		1.657e-02		-48.728		3.720e-03		7.964
7		0.00		7.60		1.651e-02		-51.790		3.487e-03		9.631
7		0.00		7.20		1.551e-02		-51.162		3.126e-03		11.474
7		0.00		6.80		1.553e-02		-50.192		3.122e-03		11.808
7		0.00		6.40		1.561e-02		-50.143		3.465e-03		11.898
7		0.00		6.00		1.538e-02		-47.568		3.400e-03		10.398
7		0.00		5.60		1.480e-02		-47.863		3.766e-03		12.755
7		0.00		5.20		1.477e-02		-50.293		3.773e-03		13.216
7		0.00		4.80		1.479e-02		-49.554		3.743e-03		14.343
7		0.00		4.40		1.458e-02		-48.535		4.061e-03		14.217
7		0.00		4.00		1.432e-02		-51.470		4.264e-03		14.624
7		0.00		3.60		1.459e-02		-50.567		4.325e-03		11.711
7		0.00		3.20		1.482e-02		-48.419		4.072e-03		10.961
7		0.00		2.80		1.449e-02		-50.520		3.757e-03		11.125
7		0.00		2.40		1.474e-02		-50.326		3.709e-03		10.147
7		0.00		2.00		1.478e-02		-50.403		3.372e-03		12.711
7		0.00		1.60		1.488e-02		-51.510		2.796e-03		11.812
7		0.00		1.20		1.483e-02		-48.226		3.165e-03		9.893
7		0.00		0.80		1.440e-02		-46.487		3.033e-03		12.489
7		0.00		0.40		1.419e-02		-48.591		2.670e-03		11.072
7		0.00		0.00		1.447e-02		-48.667		3.173e-03		12.746
7		0.00		-0.40		1.408e-02		-44.508		2.953e-03		12.640
7		0.00		-0.80		1.351e-02		-42.377		3.224e-03		12.371
7		0.00		-1.20		1.324e-02		-45.418		3.244e-03		14.260
7		0.00		-1.60		1.338e-02		-48.340		3.640e-03		11.988
7		0.00		-2.00		1.310e-02		-46.234		3.419e-03		12.579
7		0.00		-2.40		1.238e-02		-52.219		3.506e-03		11.620
7		0.00		-2.80		1.247e-02		-49.836		3.208e-03		11.505
7		0.00		-3.20		1.210e-02		-49.988		2.877e-03		10.865
7		0.00		-3.60		1.148e-02		-44.874		2.601e-03		12.794
7		0.00		-4.00		1.104e-02		-53.069		2.464e-03		14.224
7		0.00		-4.40		1.026e-02		-46.902		2.205e-03		13.303
7		0.00		-4.80		9.351e-03		-49.808		2.494e-03		16.247
7		0.00		-5.20		8.466e-03		-50.072		2.147e-03		16.801
7		0.00		-5.60		7.114e-03		-41.322		1.914e-03		17.847
7		0.00		-6.00		6.472e-03		-42.024		1.806e-03		17.973
7		0.00		-6.40		4.922e-03		-37.064		1.695e-03		25.284
7		0.00		-6.80		4.211e-03		-47.673		1.535e-03		20.149
7		0.00		-7.20		2.681e-03		-26.111		1.172e-03		36.059
7		0.00		-7.60		2.413e-03		-29.106		1.028e-03		45.714
7		0.00		-8.00		1.975e-03		51.844		7.765e-04		62.274
7		0.00		-8.40		2.825e-03		82.864		1.124e-03		49.309
7		0.00		-8.80		4.289e-03		109.997		1.459e-03		35.114
7		0.00		-9.20		6.068e-03		117.137		1.787e-03		15.584
7		0.00		-9.60		8.183e-03		120.331		2.065e-03		16.414
7		0.00		-10.00		1.082e-02		122.244		2.805e-03		13.040
7		0.00		-9.60		1.192e-02		122.843		3.045e-03		15.068
7		0.00		-9.20		1.177e-02		119.939		3.370e-03		21.346
7		0.00		-8.80		1.162e-02		120.118		3.447e-03		21.375
7		0.00		-8.40		1.199e-02		121.183		3.597e-03		18.983
7		0.00		-8.00		1.170e-02		123.475		3.808e-03		16.410
7		0.00		-7.60		1.195e-02		120.941		3.533e-03		11.315
7		0.00		-7.20		1.179e-02		121.663		3.320e-03		12.807
7		0.00		-6.80		1.177e-02		125.743		3.054e-03		12.024
7		0.00		-6.40		1.140e-02		122.030		3.129e-03		13.793
7		0.00		-6.00		1.132e-02		123.971		2.926e-03		12.039
7		0.00		-5.60		1.151e-02		122.132		3.000e-03		14.547
7		0.00		-5.20		1.087e-02		122.313		2.791e-03		14.524
7		0.00		-4.80		1.063e-02		124.197		2.534e-03		14.624
7		0.00		-4.40		1.010e-02		126.112		2.786e-03		21.358
7		0.00		-4.00		1.012e-02		125.247		2.865e-03		19.555
7		0.00		-3.60		9.833e-03		124.005		2.727e-03		20.894
7		0.00		-3.20		9.761e-03		122.367		2.651e-03		14.292
7		0.00		-2.80		9.627e-03		119.413		2.619e-03		13.635
7		0.00		-2.40		9.433e-03		121.950		2.286e-03		13.796
7		0.00		-2.00		9.117e-03		125.059		2.249e-03		11.550
7		0.00		-1.60		9.196e-03		122.195		2.206e-03		12.010
7		0.00		-1.20		8.923e-03		122.681		2.060e-03		11.303
7		0.00		-0.80		8.793e-03		121.827		2.157e-03		15.188
7		0.00		-0.40		8.542e-03		125.507		1.947e-03		16.396
8		0.00		0.00		8.635e-03		122.302		2.141e-03		15.209
8		0.00		0.40		8.057e-03		116.206		2.440e-03		22.339
8		0.00		0.80		7.383e-03		124.206		2.257e-03		21.949
8		0.00		1.20		7.404e-03		121.305		2.306e-03		20.373
8		0.00		1.60		7.104e-03		125.225		2.006e-03		21.104
8		0.00		2.00		6.407e-03		115.432		1.992e-03		19.845
8		0.00		2.40		5.509e-03		124.689		1.520e-03		15.955
8		0.00		2.80		4.923e-03		118.103		1.587e-03		30.346
8		0.00		3.20		3.776e-03		116.614		1.455e-03		23.741
8		0.00		3.60		3.349e-03		109.657		1.173e-03		33.326
8		0.00		4.00		2.254e-03		84.905		9.839e-04		55.632
8		0.00		4.40		1.746e-03		33.384		6.489e-04		81.531
8		0.00		4.80		1.760e-03		4.406		6.942e-04		69.760
8		0.00		5.20		2.050e-03		-29.324		7.221e-04		53.964
8		0.00		5.60		2.799e-03		-39.573		1.085e-03		30.699
8		0.00		6.00		3.277e-03		-42.414		1.318e-03		38.142
8		0.00		6.40		3.912e-03		-41.330		1.255e-03		24.255
8		0.00		6.80		4.537e-03		-49.524		1.507e-03		22.211
8		0.00		7.20		5.758e-03		-49.138		1.839e-03		17.315
8		0.00		7.60		6.314e-03		-49.782		1.934e-03		18.593
8		0.00		8.00		7.251e-03		-43.726		2.287e-03		17.388
8		0.00		8.40		8.620e-03		-51.718		2.540e-03		17.582
8		0.00		8.80		9.924e-03		-50.221		2.478e-03		16.202
8		0.00		9.20		1.067e-02		-50.492		2.590e-03		13.476
8		0.00		9.60		1.234e-02		-50.783		2.780e-03		13.937
8		0.00		10.00		1.338e-02		-54.570		3.075e-03		12.843
8		0.00		9.60		1.443e-02		-52.836		3.235e-03		12.186
8		0.00		9.20		1.483e-02		-52.680		3.193e-03		12.142
8		0.00		8.80		1.504e-02		-49.113		3.412e-03		12.783
8		0.00		8.40		1.514e-02		-50.123		3.306e-03		13.570
8		0.00		8.00		1.507e-02		-49.166		3.266e-03		14.955
8		0.00		7.60		1.539e-02		-48.233		3.750e-03		12.705
8		0.00		7.20		1.503e-02		-53.205		3.696e-03		16.147
8		0.00		6.80		1.470e-02		-51.017		3.754e-03		17.167
8		0.00		6.40		1.526e-02		-49.652		3.761e-03		15.172
8		0.00		6.00		1.493e-02		-47.845		3.767e-03		11.699
8		0.00		5.60		1.478e-02		-48.749		3.914e-03		11.680
8		0.00		5.20		1.469e-02		-50.294		3.923e-03		12.051
8		0.00		4.80		1.438e-02		-51.273		3.708e-03		9.539
8		0.00		4.40		1.427e-02		-50.803		3.160e-03		10.444
8		0.00		4.00		1.436e-02		-50.114		3.213e-03		10.183
8		0.00		3.60		1.409e-02		-50.061		3.000e-03		11.299
8		0.00		3.20		1.408e-02		-50.295		3.011e-03		12.548
8		0.00		2.80		1.424e-02		-51.088		3.123e-03		11.276
8		0.00		2.40		1.397e-02		-48.448		2.991e-03		11.739
8		0.00		2.00		1.339e-02		-52.397		2.995e-03		13.593
8		0.00		1.60		1.374e-02		-51.056		3.176e-03		11.901
8		0.00		1.20		1.373e-02		-48.969		3.436e-03		15.133
8		0.00		0.80		1.319e-02		-45.876		3.021e-03		13.078
8		0.00		0.40		1.310e-02		-48.901		3.381e-03		16.290
8		0.00		0.00		1.316e-02		-50.513		3.426e-03		16.272
8		0.00		-0.40		1.265e-02		-45.817		3.266e-03		17.544
8		0.00		-0.80		1.308e-02		-47.567		3.305e-03		14.269
8		0.00		-1.20		1.272e-02		-50.358		3.236e-03		13.030
8		0.00		-1.60		1.241e-02		-49.363		3.110e-03		11.918
8		0.00		-2.00		1.239e-02		-49.408		2.867e-03		11.580
8		0.00		-2.40		1.205e-02		-49.450		2.884e-03		12.536
8		0.00		-2.80		1.140e-02		-47.349		2.596e-03		10.264
8		0.00		-3.20		1.121e-02		-48.829		2.740e-03		13.730
8		0.00		-3.60		1.082e-02		-50.153		2.496e-03		11.955
8		0.00		-4.00		1.020e-02		-47.174		2.368e-03		12.272
8		0.00		-4.40		9.711e-03		-51.529		2.182e-03		14.833
8		0.00		-4.80		8.823e-03		-48.963		2.240e-03		15.029
8		0.00		-5.20		7.776e-03		-42.495		2.187e-03		16.735
8		0.00		-5.60		7.168e-03		-52.595		2.179e-03		18.218
8		0.00		-6.00		5.332e-03		-59.788		1.851e-03		22.322
8		0.00		-6.40		4.828e-03		-45.023		1.471e-03		22.029
8		0.00		-6.80		4.134e-03		-47.566		1.331e-03		21.787
8		0.00		-7.20		3.284e-03		-49.454		1.053e-03		43.289
8		0.00		-7.60		2.426e-03		-23.685		1.101e-03		43.938
8		0.00		-8.00		1.919e-03		-9.699		7.406e-04		66.021
8		0.00		-8.40		1.806e-03		55.634		8.395e-04		58.386
8		0.00		-8.80		3.095e-03		94.430		1.284e-03		41.276
8		0.00		-9.20		4.922e-03		110.709		1.481e-03		30.436
8		0.00		-9.60		7.073e-03		117.197		2.116e-03		16.704
8		0.00		-10.00		9.758e-03		125.633		2.295e-03		12.076
8		0.00		-9.60		1.102e-02		120.513		2.471e-03		11.173
8		0.00		-9.20		1.165e-02		123.730		2.750e-03		10.502
8		0.00		-8.80		1.220e-02		125.896		2.775e-03		12.704
8		0.00		-8.40		1.223e-02		124.935		2.789e-03		11.115
8		0.00		-8.00		1.172e-02		123.331		2.562e-03		11.104
8		0.00		-7.60		1.196e-02		125.581		2.695e-03		11.417
8		0.00		-7.20		1.113e-02		124.650		2.912e-03		13.910
8		0.00		-6.80		1.117e-02		124.061		3.007e-03		15.742
8		0.00		-6.40		1.047e-02		123.808		3.063e-03		17.875
8		0.00		-6.00		1.052e-02		121.371		3.100e-03		18.433
8		0.00		-5.60		1.060e-02		120.850		2.832e-03		21.311
8		0.00		-5.20		1.009e-02		123.192		2.588e-03		22.411
8		0.00		-4.80		9.909e-03		124.444		2.800e-03		18.814
8		0.00		-4.40		9.746e-03		125.713		2.619e-03		14.688
8		0.00		-4.00		9.613e-03		120.625		2.580e-03		12.927
8		0.00		-3.60		9.831e-03		124.023		2.468e-03		13.217
8		0.00		-3.20		9.545e-03		123.290		2.519e-03		12.026
8		0.00		-2.80		9.305e-03		122.858		2.210e-03		12.676
8		0.00		-2.40		9.377e-03		121.455		2.270e-03		12.762
8		0.00		-2.00		9.184e-03		120.261		2.175e-03		15.783
8		0.00		-1.60		8.747e-03		122.482		2.168e-03		14.494
8		0.00		-1.20		8.806e-03		123.511		2.262e-03		15.018
8		0.00		-0.80		8.678e-03		118.382		2.364e-03		15.651
8		0.00		-0.40		8.742e-03		118.157		2.085e-03		14.417
