# Date of analysis: 2024-03-08 10;59
# Segment other properties: height: -69.42151450235984, diff height: 525.4350001163846, deflection: 33.17106123486201, deflection error: 2.796420867369794, adhesion: 39.801050754906015, phase offset: 0
# 
# Loop index	Read Volt (V)	Write Volt (V)	Amplitude (a.u)	Phase (deg)	Sigma Amp (a.u)	Sigma Pha (deg)	
1		0.00		0.00		1.406e-02		-45.288		2.828e-03		10.221
1		0.00		0.40		1.420e-02		-47.762		3.496e-03		11.172
1		0.00		0.80		1.419e-02		-52.258		3.344e-03		11.910
1		0.00		1.20		1.416e-02		-48.665		3.372e-03		12.148
1		0.00		1.60		1.422e-02		-47.097		3.052e-03		12.611
1		0.00		2.00		1.415e-02		-43.993		2.651e-03		10.888
1		0.00		2.40		1.452e-02		-46.790		3.071e-03		10.117
1		0.00		2.80		1.470e-02		-47.679		2.642e-03		11.072
1		0.00		3.20		1.445e-02		-51.447		2.789e-03		10.163
1		0.00		3.60		1.487e-02		-50.084		2.979e-03		9.537
1		0.00		4.00		1.561e-02		-48.313		3.037e-03		9.188
1		0.00		4.40		1.583e-02		-46.935		3.738e-03		8.570
1		0.00		4.80		1.632e-02		-47.782		3.492e-03		10.778
1		0.00		5.20		1.722e-02		-50.424		3.292e-03		11.303
1		0.00		5.60		1.864e-02		-50.884		3.249e-03		9.860
1		0.00		6.00		1.947e-02		-48.729		2.961e-03		10.332
1		0.00		6.40		2.016e-02		-48.501		3.145e-03		8.073
1		0.00		6.80		2.157e-02		-52.342		3.560e-03		7.944
1		0.00		7.20		2.161e-02		-50.011		4.113e-03		7.992
1		0.00		7.60		2.232e-02		-50.612		4.944e-03		8.639
1		0.00		8.00		2.314e-02		-50.936		5.307e-03		10.630
1		0.00		8.40		2.359e-02		-50.766		4.932e-03		10.856
1		0.00		8.80		2.482e-02		-50.386		4.381e-03		7.637
1		0.00		9.20		2.649e-02		-50.599		4.461e-03		9.645
1		0.00		9.60		2.781e-02		-50.349		4.469e-03		8.327
1		0.00		10.00		2.923e-02		-51.065		5.153e-03		7.444
1		0.00		9.60		3.037e-02		-51.223		6.157e-03		8.821
1		0.00		9.20		3.054e-02		-50.242		7.236e-03		9.337
1		0.00		8.80		3.105e-02		-52.169		6.950e-03		10.484
1		0.00		8.40		3.138e-02		-51.209		6.243e-03		9.858
1		0.00		8.00		3.145e-02		-50.630		5.725e-03		9.865
1		0.00		7.60		3.122e-02		-50.337		4.951e-03		7.021
1		0.00		7.20		3.166e-02		-50.644		4.805e-03		6.381
1		0.00		6.80		3.135e-02		-52.518		5.242e-03		6.902
1		0.00		6.40		3.079e-02		-52.676		6.110e-03		8.548
1		0.00		6.00		2.996e-02		-52.110		6.913e-03		9.479
1		0.00		5.60		2.994e-02		-50.656		6.652e-03		10.433
1		0.00		5.20		2.957e-02		-51.092		6.669e-03		10.294
1		0.00		4.80		2.918e-02		-50.613		6.008e-03		9.009
1		0.00		4.40		2.947e-02		-51.064		5.641e-03		8.064
1		0.00		4.00		2.945e-02		-51.447		5.482e-03		6.938
1		0.00		3.60		2.884e-02		-51.678		5.840e-03		7.284
1		0.00		3.20		2.796e-02		-52.467		6.478e-03		7.948
1		0.00		2.80		2.780e-02		-49.776		7.159e-03		8.106
1		0.00		2.40		2.747e-02		-51.907		7.033e-03		12.285
1		0.00		2.00		2.758e-02		-51.715		6.231e-03		10.448
1		0.00		1.60		2.798e-02		-49.943		5.263e-03		8.376
1		0.00		1.20		2.813e-02		-49.081		4.600e-03		7.209
1		0.00		0.80		2.807e-02		-49.559		4.808e-03		7.280
1		0.00		0.40		2.790e-02		-51.445		5.316e-03		7.679
1		0.00		0.00		2.740e-02		-51.166		5.820e-03		8.136
1		0.00		-0.40		2.678e-02		-50.471		6.421e-03		8.750
1		0.00		-0.80		2.703e-02		-52.179		6.046e-03		11.183
1		0.00		-1.20		2.689e-02		-51.200		5.722e-03		8.409
1		0.00		-1.60		2.673e-02		-48.558		4.940e-03		7.662
1		0.00		-2.00		2.703e-02		-50.570		4.850e-03		7.984
1		0.00		-2.40		2.685e-02		-50.681		4.683e-03		7.646
1		0.00		-2.80		2.646e-02		-49.578		4.810e-03		7.610
1		0.00		-3.20		2.558e-02		-51.826		5.398e-03		9.345
1		0.00		-3.60		2.402e-02		-51.644		6.026e-03		8.710
1		0.00		-4.00		2.344e-02		-51.740		6.015e-03		10.947
1		0.00		-4.40		2.293e-02		-49.125		5.476e-03		11.557
1		0.00		-4.80		2.214e-02		-50.342		4.869e-03		9.060
1		0.00		-5.20		2.153e-02		-50.662		4.185e-03		9.313
1		0.00		-5.60		2.020e-02		-47.140		3.622e-03		9.146
1		0.00		-6.00		1.912e-02		-48.053		3.473e-03		8.011
1		0.00		-6.40		1.652e-02		-49.608		2.859e-03		8.912
1		0.00		-6.80		1.317e-02		-47.020		2.767e-03		10.351
1		0.00		-7.20		8.697e-03		-44.483		2.110e-03		12.722
1		0.00		-7.60		5.291e-03		-42.921		1.535e-03		24.378
1		0.00		-8.00		3.073e-03		-20.976		1.319e-03		36.769
1		0.00		-8.40		2.245e-03		3.505		1.034e-03		55.045
1		0.00		-8.80		2.838e-03		73.691		1.014e-03		47.055
1		0.00		-9.20		3.989e-03		101.087		1.367e-03		29.500
1		0.00		-9.60		5.323e-03		112.084		1.864e-03		19.551
1		0.00		-10.00		6.414e-03		112.647		1.922e-03		14.674
1		0.00		-9.60		7.769e-03		116.500		1.955e-03		12.047
1		0.00		-9.20		8.151e-03		113.695		2.456e-03		16.137
1		0.00		-8.80		8.402e-03		118.751		2.592e-03		14.933
1		0.00		-8.40		8.536e-03		115.798		2.357e-03		13.910
1		0.00		-8.00		8.065e-03		114.189		2.570e-03		17.940
1		0.00		-7.60		8.043e-03		112.594		2.321e-03		23.161
1		0.00		-7.20		8.420e-03		114.407		2.420e-03		20.671
1		0.00		-6.80		8.190e-03		117.556		2.130e-03		19.238
1		0.00		-6.40		7.684e-03		112.991		1.983e-03		16.037
1		0.00		-6.00		7.335e-03		117.011		1.853e-03		18.592
1		0.00		-5.60		7.375e-03		123.382		2.036e-03		12.305
1		0.00		-5.20		6.701e-03		112.413		1.739e-03		16.113
1		0.00		-4.80		6.803e-03		120.961		1.819e-03		14.912
1		0.00		-4.40		6.194e-03		119.072		1.580e-03		16.762
1		0.00		-4.00		6.149e-03		114.973		1.722e-03		14.721
1		0.00		-3.60		5.948e-03		114.665		1.746e-03		16.907
1		0.00		-3.20		5.397e-03		108.368		1.884e-03		19.065
1		0.00		-2.80		4.784e-03		111.571		1.713e-03		27.312
1		0.00		-2.40		5.265e-03		111.303		1.635e-03		22.355
1		0.00		-2.00		5.140e-03		113.448		1.477e-03		24.287
1		0.00		-1.60		5.079e-03		106.411		1.608e-03		24.296
1		0.00		-1.20		5.013e-03		113.705		1.663e-03		19.821
1		0.00		-0.80		5.002e-03		109.614		1.484e-03		19.829
1		0.00		-0.40		4.986e-03		119.405		1.536e-03		22.969
2		0.00		0.00		4.657e-03		116.475		1.462e-03		18.428
2		0.00		0.40		4.701e-03		104.421		1.521e-03		25.404
2		0.00		0.80		4.569e-03		109.596		1.373e-03		24.672
2		0.00		1.20		4.128e-03		98.509		1.345e-03		27.518
2		0.00		1.60		4.138e-03		110.222		1.180e-03		32.486
2		0.00		2.00		3.167e-03		96.934		1.094e-03		32.324
2		0.00		2.40		2.699e-03		79.766		1.181e-03		46.287
2		0.00		2.80		2.150e-03		79.371		9.110e-04		51.935
2		0.00		3.20		1.920e-03		41.805		8.077e-04		56.735
2		0.00		3.60		1.890e-03		27.562		6.987e-04		51.472
2		0.00		4.00		2.027e-03		-6.820		9.138e-04		47.239
2		0.00		4.40		2.669e-03		-32.757		9.997e-04		36.858
2		0.00		4.80		3.528e-03		-42.484		1.311e-03		28.400
2		0.00		5.20		4.017e-03		-48.613		1.305e-03		21.145
2		0.00		5.60		4.642e-03		-39.053		1.139e-03		17.290
2		0.00		6.00		5.174e-03		-58.556		1.614e-03		18.280
2		0.00		6.40		6.479e-03		-50.831		1.557e-03		16.307
2		0.00		6.80		7.363e-03		-53.622		1.663e-03		14.968
2		0.00		7.20		7.655e-03		-51.001		1.877e-03		15.054
2		0.00		7.60		8.689e-03		-52.736		1.767e-03		12.500
2		0.00		8.00		9.562e-03		-48.190		2.015e-03		12.865
2		0.00		8.40		1.098e-02		-49.769		2.387e-03		11.055
2		0.00		8.80		1.259e-02		-50.698		3.050e-03		10.753
2		0.00		9.20		1.517e-02		-48.863		3.563e-03		11.629
2		0.00		9.60		1.777e-02		-51.504		4.237e-03		10.522
2		0.00		10.00		2.121e-02		-49.677		4.817e-03		12.444
2		0.00		9.60		2.268e-02		-51.675		4.935e-03		11.617
2		0.00		9.20		2.367e-02		-49.896		5.103e-03		8.453
2		0.00		8.80		2.449e-02		-50.321		5.137e-03		8.352
2		0.00		8.40		2.420e-02		-50.562		5.110e-03		8.462
2		0.00		8.00		2.466e-02		-48.624		4.781e-03		7.230
2		0.00		7.60		2.490e-02		-50.583		4.395e-03		6.615
2		0.00		7.20		2.480e-02		-49.741		4.270e-03		7.575
2		0.00		6.80		2.490e-02		-50.960		4.287e-03		9.008
2		0.00		6.40		2.488e-02		-51.498		4.135e-03		7.055
2		0.00		6.00		2.479e-02		-49.041		4.213e-03		8.079
2		0.00		5.60		2.445e-02		-49.085		4.304e-03		7.411
2		0.00		5.20		2.435e-02		-50.990		3.915e-03		8.299
2		0.00		4.80		2.406e-02		-50.739		4.331e-03		8.114
2		0.00		4.40		2.379e-02		-50.346		4.462e-03		7.572
2		0.00		4.00		2.353e-02		-51.459		4.625e-03		9.440
2		0.00		3.60		2.331e-02		-48.606		4.723e-03		7.475
2		0.00		3.20		2.359e-02		-50.291		5.005e-03		7.201
2		0.00		2.80		2.307e-02		-50.044		5.113e-03		8.769
2		0.00		2.40		2.294e-02		-49.599		5.299e-03		8.839
2		0.00		2.00		2.311e-02		-48.217		5.351e-03		9.499
2		0.00		1.60		2.287e-02		-50.895		5.703e-03		10.246
2		0.00		1.20		2.214e-02		-51.622		5.698e-03		13.799
2		0.00		0.80		2.231e-02		-51.171		5.734e-03		10.746
2		0.00		0.40		2.231e-02		-48.753		5.556e-03		8.994
2		0.00		0.00		2.178e-02		-48.593		5.593e-03		10.411
2		0.00		-0.40		2.178e-02		-49.288		5.190e-03		9.258
2		0.00		-0.80		2.153e-02		-48.459		4.967e-03		10.366
2		0.00		-1.20		2.138e-02		-49.706		4.736e-03		10.116
2		0.00		-1.60		2.131e-02		-49.553		4.532e-03		8.580
2		0.00		-2.00		2.144e-02		-50.794		4.372e-03		8.523
2		0.00		-2.40		2.115e-02		-49.100		3.727e-03		8.571
2		0.00		-2.80		2.110e-02		-48.774		3.862e-03		8.318
2		0.00		-3.20		2.011e-02		-48.871		3.647e-03		8.911
2		0.00		-3.60		1.942e-02		-50.403		3.533e-03		7.359
2		0.00		-4.00		1.925e-02		-50.361		3.547e-03		7.723
2		0.00		-4.40		1.891e-02		-48.232		3.502e-03		8.350
2		0.00		-4.80		1.849e-02		-49.870		3.226e-03		8.202
2		0.00		-5.20		1.748e-02		-49.707		3.151e-03		8.920
2		0.00		-5.60		1.676e-02		-49.304		2.984e-03		8.805
2		0.00		-6.00		1.530e-02		-48.889		2.821e-03		9.121
2		0.00		-6.40		1.423e-02		-44.994		2.622e-03		9.736
2		0.00		-6.80		1.225e-02		-47.475		2.206e-03		11.312
2		0.00		-7.20		1.059e-02		-43.162		2.111e-03		12.214
2		0.00		-7.60		8.416e-03		-39.477		1.769e-03		15.491
2		0.00		-8.00		5.396e-03		-36.851		1.468e-03		19.736
2		0.00		-8.40		2.845e-03		-32.895		1.131e-03		29.516
2		0.00		-8.80		1.748e-03		10.462		7.665e-04		60.141
2		0.00		-9.20		2.514e-03		68.034		1.052e-03		57.235
2		0.00		-9.60		3.625e-03		96.564		1.288e-03		29.956
2		0.00		-10.00		5.150e-03		113.039		1.575e-03		16.289
2		0.00		-9.60		6.545e-03		117.450		1.681e-03		15.024
2		0.00		-9.20		7.262e-03		116.333		1.814e-03		13.731
2		0.00		-8.80		7.220e-03		116.911		1.606e-03		12.407
2		0.00		-8.40		7.775e-03		116.758		1.821e-03		12.009
2		0.00		-8.00		7.817e-03		119.727		1.865e-03		13.032
2		0.00		-7.60		7.676e-03		116.096		1.952e-03		15.630
2		0.00		-7.20		7.370e-03		116.361		1.891e-03		13.219
2		0.00		-6.80		7.141e-03		117.217		1.962e-03		15.105
2		0.00		-6.40		6.751e-03		116.890		2.020e-03		12.755
2		0.00		-6.00		6.310e-03		115.345		2.034e-03		15.996
2		0.00		-5.60		6.078e-03		114.042		2.019e-03		18.601
2		0.00		-5.20		5.494e-03		110.976		2.082e-03		29.420
2		0.00		-4.80		5.663e-03		106.397		1.803e-03		22.872
2		0.00		-4.40		5.309e-03		113.328		1.888e-03		17.892
2		0.00		-4.00		5.174e-03		114.211		1.905e-03		23.258
2		0.00		-3.60		4.932e-03		110.844		1.724e-03		27.250
2		0.00		-3.20		5.191e-03		102.804		1.798e-03		31.915
2		0.00		-2.80		4.908e-03		104.110		1.721e-03		29.133
2		0.00		-2.40		5.346e-03		107.697		1.666e-03		28.986
2		0.00		-2.00		4.783e-03		103.753		1.541e-03		19.012
2		0.00		-1.60		4.761e-03		117.224		1.515e-03		27.849
2		0.00		-1.20		4.673e-03		119.421		1.342e-03		20.923
2		0.00		-0.80		4.371e-03		103.084		1.363e-03		28.089
2		0.00		-0.40		4.320e-03		111.195		1.309e-03		21.162
3		0.00		0.00		4.198e-03		107.747		1.479e-03		29.702
3		0.00		0.40		3.655e-03		119.645		1.339e-03		21.032
3		0.00		0.80		3.809e-03		113.529		1.232e-03		28.959
3		0.00		1.20		3.664e-03		108.718		1.339e-03		35.154
3		0.00		1.60		3.331e-03		94.867		1.319e-03		34.437
3		0.00		2.00		3.283e-03		98.241		1.149e-03		43.278
3		0.00		2.40		2.668e-03		80.660		1.121e-03		41.213
3		0.00		2.80		2.315e-03		65.706		1.062e-03		57.004
3		0.00		3.20		2.084e-03		57.819		9.703e-04		49.807
3		0.00		3.60		1.746e-03		8.859		8.004e-04		66.811
3		0.00		4.00		1.755e-03		-10.348		8.876e-04		60.140
3		0.00		4.40		2.494e-03		-31.796		9.248e-04		42.562
3		0.00		4.80		2.909e-03		-38.524		1.163e-03		36.803
3		0.00		5.20		4.133e-03		-47.660		1.348e-03		21.800
3		0.00		5.60		4.458e-03		-36.763		1.366e-03		20.608
3		0.00		6.00		5.314e-03		-43.172		1.574e-03		23.469
3		0.00		6.40		5.921e-03		-42.160		1.783e-03		21.143
3		0.00		6.80		6.654e-03		-42.800		1.760e-03		18.182
3		0.00		7.20		7.120e-03		-46.080		1.840e-03		12.545
3		0.00		7.60		8.033e-03		-42.442		1.847e-03		15.547
3		0.00		8.00		9.215e-03		-50.146		2.176e-03		17.065
3		0.00		8.40		1.053e-02		-51.286		2.332e-03		11.797
3		0.00		8.80		1.192e-02		-45.923		2.749e-03		9.947
3		0.00		9.20		1.355e-02		-49.242		2.881e-03		11.410
3		0.00		9.60		1.533e-02		-51.860		3.532e-03		10.057
3		0.00		10.00		1.914e-02		-47.707		4.079e-03		8.246
3		0.00		9.60		2.069e-02		-51.273		4.128e-03		8.333
3		0.00		9.20		2.143e-02		-49.927		4.262e-03		8.893
3		0.00		8.80		2.190e-02		-49.511		4.495e-03		7.649
3		0.00		8.40		2.190e-02		-51.291		4.355e-03		8.953
3		0.00		8.00		2.207e-02		-50.112		3.955e-03		8.203
3		0.00		7.60		2.203e-02		-47.596		3.786e-03		6.855
3		0.00		7.20		2.228e-02		-49.677		3.899e-03		8.609
3		0.00		6.80		2.217e-02		-51.699		3.874e-03		8.832
3		0.00		6.40		2.217e-02		-51.289		4.034e-03		9.392
3		0.00		6.00		2.198e-02		-49.142		4.040e-03		8.158
3		0.00		5.60		2.177e-02		-51.003		4.278e-03		7.773
3		0.00		5.20		2.150e-02		-49.555		4.191e-03		9.424
3		0.00		4.80		2.120e-02		-50.126		4.305e-03		8.752
3		0.00		4.40		2.140e-02		-50.756		4.204e-03		8.460
3		0.00		4.00		2.082e-02		-52.280		4.663e-03		9.578
3		0.00		3.60		2.068e-02		-50.476		4.796e-03		7.992
3		0.00		3.20		2.020e-02		-51.450		5.264e-03		10.221
3		0.00		2.80		2.003e-02		-48.326		5.304e-03		9.284
3		0.00		2.40		2.003e-02		-52.008		5.319e-03		9.417
3		0.00		2.00		1.980e-02		-48.758		5.106e-03		9.608
3		0.00		1.60		1.974e-02		-52.122		5.291e-03		10.243
3		0.00		1.20		2.005e-02		-49.309		5.361e-03		10.470
3		0.00		0.80		1.969e-02		-49.302		5.180e-03		11.882
3		0.00		0.40		2.006e-02		-47.988		4.848e-03		8.784
3		0.00		0.00		2.012e-02		-49.082		4.632e-03		9.393
3		0.00		-0.40		1.998e-02		-47.269		4.692e-03		9.724
3		0.00		-0.80		1.999e-02		-47.619		4.403e-03		10.293
3		0.00		-1.20		1.973e-02		-48.153		4.394e-03		11.460
3		0.00		-1.60		1.978e-02		-49.274		4.251e-03		9.526
3		0.00		-2.00		1.925e-02		-47.141		4.073e-03		8.925
3		0.00		-2.40		1.937e-02		-49.503		3.896e-03		7.058
3		0.00		-2.80		1.875e-02		-46.613		3.486e-03		7.841
3		0.00		-3.20		1.825e-02		-48.349		3.733e-03		8.619
3		0.00		-3.60		1.796e-02		-47.338		3.658e-03		9.294
3		0.00		-4.00		1.760e-02		-51.164		3.573e-03		10.045
3		0.00		-4.40		1.725e-02		-49.303		3.345e-03		9.430
3		0.00		-4.80		1.649e-02		-48.136		3.362e-03		9.822
3		0.00		-5.20		1.577e-02		-50.226		3.141e-03		8.916
3		0.00		-5.60		1.437e-02		-46.588		2.603e-03		10.026
3		0.00		-6.00		1.409e-02		-46.567		2.582e-03		9.363
3		0.00		-6.40		1.258e-02		-47.422		2.494e-03		10.829
3		0.00		-6.80		1.126e-02		-48.525		2.118e-03		13.106
3		0.00		-7.20		9.578e-03		-44.507		1.886e-03		11.637
3		0.00		-7.60		8.343e-03		-46.703		1.842e-03		12.797
3		0.00		-8.00		6.088e-03		-51.609		1.583e-03		13.594
3		0.00		-8.40		3.210e-03		-31.546		1.161e-03		34.368
3		0.00		-8.80		2.085e-03		-18.148		8.231e-04		48.379
3		0.00		-9.20		2.026e-03		15.671		9.627e-04		64.206
3		0.00		-9.60		2.650e-03		84.908		1.061e-03		43.412
3		0.00		-10.00		3.893e-03		97.222		1.373e-03		31.172
3		0.00		-9.60		4.824e-03		103.844		1.473e-03		14.664
3		0.00		-9.20		5.405e-03		108.350		1.658e-03		29.874
3		0.00		-8.80		5.282e-03		106.830		1.725e-03		29.163
3		0.00		-8.40		5.567e-03		106.454		1.763e-03		25.618
3		0.00		-8.00		6.386e-03		112.405		2.121e-03		20.514
3		0.00		-7.60		6.610e-03		117.067		1.828e-03		21.712
3		0.00		-7.20		6.334e-03		112.283		1.772e-03		24.267
3		0.00		-6.80		6.330e-03		112.783		1.745e-03		18.664
3		0.00		-6.40		5.885e-03		107.293		1.687e-03		21.844
3		0.00		-6.00		5.584e-03		105.313		1.655e-03		17.247
3		0.00		-5.60		5.646e-03		118.100		1.614e-03		21.351
3		0.00		-5.20		5.400e-03		114.625		1.424e-03		21.558
3		0.00		-4.80		5.327e-03		108.726		1.522e-03		32.229
3		0.00		-4.40		5.197e-03		112.500		1.486e-03		19.967
3		0.00		-4.00		5.296e-03		112.991		1.474e-03		19.832
3		0.00		-3.60		4.756e-03		112.421		1.525e-03		24.491
3		0.00		-3.20		4.897e-03		110.524		1.514e-03		24.287
3		0.00		-2.80		4.407e-03		109.324		1.455e-03		20.192
3		0.00		-2.40		4.162e-03		108.570		1.385e-03		25.830
3		0.00		-2.00		4.578e-03		111.955		1.475e-03		21.736
3		0.00		-1.60		4.551e-03		105.505		1.325e-03		27.659
3		0.00		-1.20		4.269e-03		109.381		1.339e-03		21.986
3		0.00		-0.80		4.148e-03		112.211		1.227e-03		22.373
3		0.00		-0.40		4.129e-03		109.692		1.236e-03		29.128
4		0.00		0.00		3.824e-03		96.762		1.440e-03		28.030
4		0.00		0.40		3.694e-03		110.044		1.215e-03		24.160
4		0.00		0.80		3.740e-03		103.600		1.242e-03		25.044
4		0.00		1.20		3.356e-03		102.951		1.191e-03		34.437
4		0.00		1.60		3.217e-03		88.279		1.248e-03		28.462
4		0.00		2.00		2.899e-03		84.807		1.111e-03		43.552
4		0.00		2.40		2.283e-03		68.025		8.429e-04		45.555
4		0.00		2.80		2.359e-03		67.995		9.822e-04		54.562
4		0.00		3.20		1.808e-03		20.420		6.917e-04		68.733
4		0.00		3.60		1.894e-03		9.312		8.438e-04		59.313
4		0.00		4.00		1.836e-03		-18.622		8.477e-04		57.343
4		0.00		4.40		2.648e-03		-19.940		9.897e-04		41.424
4		0.00		4.80		3.341e-03		-28.915		1.259e-03		30.392
4		0.00		5.20		4.353e-03		-34.176		1.341e-03		26.782
4		0.00		5.60		4.695e-03		-38.987		1.395e-03		18.600
4		0.00		6.00		5.346e-03		-58.459		1.530e-03		16.847
4		0.00		6.40		6.198e-03		-44.287		1.671e-03		20.443
4		0.00		6.80		6.763e-03		-43.248		1.867e-03		15.052
4		0.00		7.20		7.318e-03		-44.957		1.881e-03		13.200
4		0.00		7.60		8.065e-03		-51.134		2.307e-03		17.069
4		0.00		8.00		8.993e-03		-45.959		2.479e-03		14.838
4		0.00		8.40		1.031e-02		-48.121		2.752e-03		17.009
4		0.00		8.80		1.252e-02		-48.958		3.183e-03		9.213
4		0.00		9.20		1.388e-02		-49.827		3.234e-03		12.115
4		0.00		9.60		1.612e-02		-49.084		3.589e-03		10.713
4		0.00		10.00		1.885e-02		-49.765		3.409e-03		8.572
4		0.00		9.60		2.069e-02		-50.589		3.891e-03		8.532
4		0.00		9.20		2.088e-02		-49.553		3.785e-03		8.810
4		0.00		8.80		2.130e-02		-49.006		3.575e-03		7.377
4		0.00		8.40		2.156e-02		-51.408		3.737e-03		8.278
4		0.00		8.00		2.198e-02		-48.684		3.697e-03		8.470
4		0.00		7.60		2.153e-02		-50.269		3.787e-03		8.149
4		0.00		7.20		2.148e-02		-49.672		3.654e-03		7.479
4		0.00		6.80		2.102e-02		-48.655		3.638e-03		8.485
4		0.00		6.40		2.055e-02		-50.987		3.907e-03		7.860
4		0.00		6.00		2.105e-02		-50.235		4.054e-03		8.138
4		0.00		5.60		2.089e-02		-50.909		4.148e-03		7.991
4		0.00		5.20		2.081e-02		-52.142		4.398e-03		8.881
4		0.00		4.80		2.064e-02		-50.305		4.362e-03		7.977
4		0.00		4.40		1.995e-02		-49.337		4.469e-03		9.092
4		0.00		4.00		1.985e-02		-50.160		4.298e-03		8.825
4		0.00		3.60		2.035e-02		-47.541		4.772e-03		8.510
4		0.00		3.20		1.977e-02		-48.187		4.760e-03		9.478
4		0.00		2.80		2.001e-02		-50.359		4.753e-03		9.466
4		0.00		2.40		1.985e-02		-47.612		4.416e-03		8.579
4		0.00		2.00		1.997e-02		-49.200		4.426e-03		9.888
4		0.00		1.60		1.988e-02		-47.616		4.533e-03		10.535
4		0.00		1.20		1.996e-02		-49.910		4.477e-03		11.306
4		0.00		0.80		2.039e-02		-51.656		4.324e-03		10.334
4		0.00		0.40		2.006e-02		-48.035		3.970e-03		9.448
4		0.00		0.00		1.995e-02		-48.106		3.871e-03		10.954
4		0.00		-0.40		1.982e-02		-49.074		3.777e-03		8.508
4		0.00		-0.80		1.993e-02		-47.967		3.572e-03		7.487
4		0.00		-1.20		1.922e-02		-47.290		3.257e-03		8.940
4		0.00		-1.60		1.893e-02		-48.265		3.478e-03		8.666
4		0.00		-2.00		1.888e-02		-49.440		3.203e-03		9.292
4		0.00		-2.40		1.832e-02		-48.442		3.024e-03		8.540
4		0.00		-2.80		1.785e-02		-49.896		3.143e-03		8.777
4		0.00		-3.20		1.765e-02		-48.662		3.090e-03		8.088
4		0.00		-3.60		1.726e-02		-50.990		3.269e-03		7.849
4		0.00		-4.00		1.588e-02		-47.285		3.416e-03		8.585
4		0.00		-4.40		1.632e-02		-47.687		3.420e-03		8.509
4		0.00		-4.80		1.524e-02		-46.047		3.616e-03		10.022
4		0.00		-5.20		1.470e-02		-48.379		3.350e-03		10.698
4		0.00		-5.60		1.367e-02		-47.016		3.171e-03		9.821
4		0.00		-6.00		1.267e-02		-48.362		3.058e-03		10.729
4		0.00		-6.40		1.165e-02		-44.621		2.905e-03		12.557
4		0.00		-6.80		1.033e-02		-45.638		2.422e-03		12.363
4		0.00		-7.20		9.401e-03		-44.177		2.441e-03		15.875
4		0.00		-7.60		7.353e-03		-41.086		1.840e-03		14.718
4		0.00		-8.00		6.328e-03		-43.769		1.829e-03		15.645
4		0.00		-8.40		4.547e-03		-32.565		1.310e-03		19.742
4		0.00		-8.80		3.142e-03		-23.210		1.195e-03		26.416
4		0.00		-9.20		2.179e-03		-5.584		9.547e-04		51.919
4		0.00		-9.60		2.303e-03		68.349		9.715e-04		51.762
4		0.00		-10.00		3.609e-03		99.490		1.270e-03		32.507
4		0.00		-9.60		5.056e-03		107.874		1.580e-03		22.173
4		0.00		-9.20		6.212e-03		110.958		1.840e-03		20.994
4		0.00		-8.80		6.594e-03		115.372		1.766e-03		15.312
4		0.00		-8.40		6.234e-03		114.610		1.756e-03		14.887
4		0.00		-8.00		6.289e-03		114.415		1.652e-03		15.992
4		0.00		-7.60		6.503e-03		117.074		1.883e-03		14.570
4		0.00		-7.20		5.765e-03		120.082		1.665e-03		13.029
4		0.00		-6.80		5.561e-03		108.222		1.718e-03		23.639
4		0.00		-6.40		5.716e-03		110.526		1.604e-03		16.840
4		0.00		-6.00		5.294e-03		111.370		1.736e-03		24.684
4		0.00		-5.60		5.082e-03		111.089		1.755e-03		17.377
4		0.00		-5.20		5.035e-03		110.924		1.798e-03		22.640
4		0.00		-4.80		4.655e-03		113.254		1.703e-03		25.907
4		0.00		-4.40		4.496e-03		110.206		1.488e-03		28.543
4		0.00		-4.00		4.983e-03		108.596		1.466e-03		25.864
4		0.00		-3.60		4.462e-03		108.720		1.551e-03		25.197
4		0.00		-3.20		4.172e-03		108.398		1.461e-03		25.984
4		0.00		-2.80		4.635e-03		105.875		1.562e-03		22.610
4		0.00		-2.40		4.102e-03		118.021		1.354e-03		22.498
4		0.00		-2.00		4.420e-03		108.888		1.369e-03		30.816
4		0.00		-1.60		4.124e-03		109.743		1.286e-03		36.366
4		0.00		-1.20		3.839e-03		110.653		1.155e-03		25.989
4		0.00		-0.80		3.979e-03		111.399		1.403e-03		29.289
4		0.00		-0.40		4.100e-03		105.251		1.091e-03		22.099
5		0.00		0.00		3.975e-03		110.938		1.214e-03		22.178
5		0.00		0.40		3.812e-03		104.202		1.415e-03		34.464
5		0.00		0.80		3.410e-03		96.887		1.298e-03		30.968
5		0.00		1.20		3.763e-03		100.662		1.233e-03		36.060
5		0.00		1.60		3.358e-03		103.629		1.338e-03		35.973
5		0.00		2.00		3.143e-03		96.955		1.132e-03		35.724
5		0.00		2.40		2.748e-03		82.038		9.648e-04		39.855
5		0.00		2.80		2.498e-03		70.099		1.168e-03		53.090
5		0.00		3.20		2.015e-03		43.973		7.850e-04		57.392
5		0.00		3.60		2.054e-03		4.503		1.009e-03		60.564
5		0.00		4.00		1.910e-03		-4.169		9.123e-04		46.292
5		0.00		4.40		2.869e-03		-23.540		1.230e-03		39.732
5		0.00		4.80		3.440e-03		-38.696		1.240e-03		29.363
5		0.00		5.20		4.026e-03		-35.879		1.263e-03		27.061
5		0.00		5.60		5.046e-03		-45.729		1.536e-03		18.408
5		0.00		6.00		5.402e-03		-41.635		1.538e-03		21.188
5		0.00		6.40		5.994e-03		-49.803		1.739e-03		16.986
5		0.00		6.80		6.774e-03		-55.465		1.965e-03		14.066
5		0.00		7.20		7.445e-03		-46.446		1.788e-03		18.611
5		0.00		7.60		8.165e-03		-50.402		1.987e-03		15.305
5		0.00		8.00		9.130e-03		-46.960		2.277e-03		14.525
5		0.00		8.40		1.023e-02		-47.542		2.472e-03		11.413
5		0.00		8.80		1.187e-02		-51.088		2.750e-03		12.847
5		0.00		9.20		1.305e-02		-46.519		3.237e-03		9.888
5		0.00		9.60		1.458e-02		-48.268		3.060e-03		10.979
5		0.00		10.00		1.624e-02		-50.612		3.634e-03		11.355
5		0.00		9.60		1.744e-02		-49.219		4.047e-03		9.376
5		0.00		9.20		1.829e-02		-48.960		4.088e-03		10.379
5		0.00		8.80		1.859e-02		-49.450		4.452e-03		12.922
5		0.00		8.40		1.902e-02		-50.267		4.329e-03		10.186
5		0.00		8.00		1.907e-02		-48.127		4.457e-03		9.533
5		0.00		7.60		1.927e-02		-51.277		4.622e-03		10.595
5		0.00		7.20		1.905e-02		-51.318		4.539e-03		11.867
5		0.00		6.80		1.876e-02		-49.326		4.502e-03		9.918
5		0.00		6.40		1.894e-02		-48.626		4.340e-03		10.944
5		0.00		6.00		1.922e-02		-48.104		4.450e-03		10.308
5		0.00		5.60		1.894e-02		-51.212		4.488e-03		8.049
5		0.00		5.20		1.875e-02		-46.206		3.983e-03		7.758
5		0.00		4.80		1.882e-02		-51.227		4.160e-03		11.828
5		0.00		4.40		1.870e-02		-49.380		3.959e-03		8.739
5		0.00		4.00		1.876e-02		-48.548		3.985e-03		10.685
5		0.00		3.60		1.846e-02		-49.535		4.039e-03		8.456
5		0.00		3.20		1.826e-02		-48.737		3.903e-03		10.097
5		0.00		2.80		1.838e-02		-49.648		4.434e-03		10.681
5		0.00		2.40		1.829e-02		-47.183		3.834e-03		8.189
5		0.00		2.00		1.812e-02		-47.857		3.817e-03		9.698
5		0.00		1.60		1.825e-02		-47.517		3.561e-03		10.372
5		0.00		1.20		1.791e-02		-49.067		3.958e-03		10.068
5		0.00		0.80		1.777e-02		-48.542		4.129e-03		11.025
5		0.00		0.40		1.745e-02		-50.419		4.236e-03		9.302
5		0.00		0.00		1.712e-02		-46.787		4.043e-03		10.642
5		0.00		-0.40		1.716e-02		-50.036		4.290e-03		10.583
5		0.00		-0.80		1.719e-02		-48.993		3.997e-03		11.195
5		0.00		-1.20		1.674e-02		-46.750		4.061e-03		10.293
5		0.00		-1.60		1.681e-02		-47.110		4.064e-03		8.893
5		0.00		-2.00		1.620e-02		-49.384		3.998e-03		11.512
5		0.00		-2.40		1.585e-02		-47.657		3.629e-03		11.207
5		0.00		-2.80		1.571e-02		-48.401		3.720e-03		12.787
5		0.00		-3.20		1.603e-02		-48.894		3.579e-03		9.070
5		0.00		-3.60		1.546e-02		-45.945		3.224e-03		10.804
5		0.00		-4.00		1.504e-02		-45.881		3.189e-03		9.136
5		0.00		-4.40		1.486e-02		-46.071		3.277e-03		10.532
5		0.00		-4.80		1.406e-02		-48.354		2.988e-03		12.534
5		0.00		-5.20		1.365e-02		-44.325		3.164e-03		11.626
5		0.00		-5.60		1.294e-02		-48.522		2.811e-03		12.235
5		0.00		-6.00		1.214e-02		-47.006		2.739e-03		11.962
5		0.00		-6.40		1.073e-02		-47.067		2.501e-03		11.683
5		0.00		-6.80		9.200e-03		-44.051		2.072e-03		14.986
5		0.00		-7.20		8.196e-03		-43.716		2.184e-03		14.221
5		0.00		-7.60		6.991e-03		-51.833		1.832e-03		13.621
5		0.00		-8.00		5.254e-03		-36.602		1.686e-03		22.234
5		0.00		-8.40		3.664e-03		-51.117		1.330e-03		26.871
5		0.00		-8.80		2.190e-03		-12.755		8.997e-04		53.805
5		0.00		-9.20		1.914e-03		16.926		7.791e-04		58.177
5		0.00		-9.60		2.419e-03		71.482		1.010e-03		52.388
5		0.00		-10.00		3.979e-03		103.760		1.507e-03		31.639
5		0.00		-9.60		5.486e-03		107.556		1.763e-03		24.042
5		0.00		-9.20		5.743e-03		112.508		1.790e-03		22.412
5		0.00		-8.80		7.116e-03		107.109		2.073e-03		25.508
5		0.00		-8.40		7.289e-03		110.676		2.149e-03		15.374
5		0.00		-8.00		7.090e-03		118.333		2.012e-03		24.349
5		0.00		-7.60		7.345e-03		118.619		2.209e-03		18.158
5		0.00		-7.20		6.964e-03		114.290		1.953e-03		15.874
5		0.00		-6.80		6.881e-03		112.705		2.112e-03		18.061
5		0.00		-6.40		6.381e-03		116.334		1.734e-03		19.972
5		0.00		-6.00		6.204e-03		116.500		1.763e-03		15.008
5		0.00		-5.60		5.904e-03		114.254		1.775e-03		17.408
5		0.00		-5.20		6.040e-03		112.877		1.740e-03		16.618
5		0.00		-4.80		5.487e-03		109.824		1.803e-03		18.082
5		0.00		-4.40		5.521e-03		114.812		1.638e-03		16.560
5		0.00		-4.00		5.351e-03		113.285		1.774e-03		24.545
5		0.00		-3.60		4.754e-03		104.785		1.663e-03		25.444
5		0.00		-3.20		4.946e-03		114.013		1.524e-03		18.188
5		0.00		-2.80		5.074e-03		110.513		1.532e-03		19.620
5		0.00		-2.40		4.782e-03		108.822		1.492e-03		26.542
5		0.00		-2.00		4.873e-03		108.661		1.539e-03		16.548
5		0.00		-1.60		4.548e-03		110.503		1.172e-03		17.726
5		0.00		-1.20		4.754e-03		111.483		1.482e-03		18.125
5		0.00		-0.80		4.680e-03		109.176		1.468e-03		22.417
5		0.00		-0.40		4.721e-03		111.229		1.480e-03		22.984
6		0.00		0.00		4.785e-03		110.324		1.382e-03		18.067
6		0.00		0.40		4.750e-03		112.354		1.458e-03		22.281
6		0.00		0.80		4.393e-03		106.031		1.415e-03		22.538
6		0.00		1.20		4.229e-03		112.269		1.273e-03		17.515
6		0.00		1.60		3.905e-03		116.943		1.331e-03		23.010
6		0.00		2.00		3.447e-03		110.219		1.236e-03		22.988
6		0.00		2.40		3.054e-03		89.638		1.227e-03		35.098
6		0.00		2.80		2.515e-03		74.562		1.131e-03		55.787
6		0.00		3.20		1.935e-03		39.747		7.965e-04		62.022
6		0.00		3.60		1.966e-03		15.486		7.668e-04		59.451
6		0.00		4.00		1.943e-03		-2.073		8.500e-04		67.163
6		0.00		4.40		2.161e-03		-28.066		9.093e-04		49.125
6		0.00		4.80		2.585e-03		-33.869		9.463e-04		43.102
6		0.00		5.20		3.374e-03		-38.398		1.180e-03		28.077
6		0.00		5.60		4.314e-03		-47.248		1.443e-03		21.730
6		0.00		6.00		4.582e-03		-40.190		1.462e-03		22.341
6		0.00		6.40		6.054e-03		-46.340		1.505e-03		22.066
6		0.00		6.80		6.557e-03		-38.858		1.572e-03		13.815
6		0.00		7.20		7.534e-03		-44.968		1.615e-03		11.008
6		0.00		7.60		7.774e-03		-46.522		1.750e-03		13.354
6		0.00		8.00		9.162e-03		-47.436		1.831e-03		13.187
6		0.00		8.40		9.849e-03		-47.929		1.899e-03		11.060
6		0.00		8.80		1.121e-02		-48.460		1.744e-03		11.345
6		0.00		9.20		1.225e-02		-47.044		1.996e-03		8.777
6		0.00		9.60		1.453e-02		-47.140		2.269e-03		9.838
6		0.00		10.00		1.582e-02		-46.835		2.508e-03		9.288
6		0.00		9.60		1.769e-02		-48.994		2.992e-03		8.717
6		0.00		9.20		1.757e-02		-48.475		2.926e-03		7.739
6		0.00		8.80		1.837e-02		-47.998		3.237e-03		7.778
6		0.00		8.40		1.872e-02		-50.049		3.589e-03		6.947
6		0.00		8.00		1.897e-02		-50.885		3.851e-03		9.667
6		0.00		7.60		1.906e-02		-49.087		3.920e-03		8.401
6		0.00		7.20		1.856e-02		-49.156		4.217e-03		9.166
6		0.00		6.80		1.831e-02		-48.684		4.144e-03		9.848
6		0.00		6.40		1.791e-02		-48.647		3.753e-03		9.691
6		0.00		6.00		1.826e-02		-50.089		3.683e-03		10.081
6		0.00		5.60		1.798e-02		-49.153		4.194e-03		10.052
6		0.00		5.20		1.792e-02		-49.005		3.846e-03		10.937
6		0.00		4.80		1.772e-02		-47.516		3.885e-03		9.094
6		0.00		4.40		1.758e-02		-47.510		3.892e-03		7.974
6		0.00		4.00		1.751e-02		-48.315		3.368e-03		9.514
6		0.00		3.60		1.726e-02		-49.955		3.236e-03		10.049
6		0.00		3.20		1.741e-02		-48.938		3.116e-03		8.989
6		0.00		2.80		1.757e-02		-47.971		2.739e-03		8.237
6		0.00		2.40		1.777e-02		-50.796		2.750e-03		7.953
6		0.00		2.00		1.755e-02		-47.906		2.855e-03		8.761
6		0.00		1.60		1.810e-02		-48.292		2.977e-03		8.031
6		0.00		1.20		1.789e-02		-50.473		2.887e-03		8.115
6		0.00		0.80		1.757e-02		-47.301		2.811e-03		7.978
6		0.00		0.40		1.731e-02		-45.532		2.820e-03		8.479
6		0.00		0.00		1.714e-02		-45.923		3.318e-03		8.586
6		0.00		-0.40		1.670e-02		-47.355		3.299e-03		9.831
6		0.00		-0.80		1.663e-02		-46.928		3.513e-03		8.541
6		0.00		-1.20		1.659e-02		-48.110		3.656e-03		12.021
6		0.00		-1.60		1.630e-02		-45.860		3.645e-03		9.581
6		0.00		-2.00		1.624e-02		-46.272		3.509e-03		9.164
6		0.00		-2.40		1.623e-02		-47.411		3.554e-03		9.210
6		0.00		-2.80		1.560e-02		-48.469		3.411e-03		11.659
6		0.00		-3.20		1.538e-02		-48.634		3.059e-03		10.033
6		0.00		-3.60		1.486e-02		-48.535		3.029e-03		9.142
6		0.00		-4.00		1.439e-02		-47.901		2.644e-03		10.060
6		0.00		-4.40		1.412e-02		-45.595		2.517e-03		7.938
6		0.00		-4.80		1.415e-02		-47.080		2.497e-03		7.481
6		0.00		-5.20		1.325e-02		-51.517		2.244e-03		8.932
6		0.00		-5.60		1.234e-02		-46.170		2.038e-03		10.539
6		0.00		-6.00		1.156e-02		-45.863		2.081e-03		9.499
6		0.00		-6.40		1.093e-02		-43.879		2.114e-03		9.903
6		0.00		-6.80		9.377e-03		-44.824		1.992e-03		12.582
6		0.00		-7.20		8.134e-03		-40.855		1.810e-03		15.088
6		0.00		-7.60		7.102e-03		-40.485		1.919e-03		12.998
6		0.00		-8.00		5.269e-03		-35.461		1.464e-03		18.296
6		0.00		-8.40		4.128e-03		-40.666		1.346e-03		22.658
6		0.00		-8.80		2.811e-03		-27.556		9.793e-04		33.930
6		0.00		-9.20		1.993e-03		-30.322		7.688e-04		55.099
6		0.00		-9.60		1.907e-03		17.318		8.386e-04		56.590
6		0.00		-10.00		3.350e-03		86.543		1.155e-03		33.940
6		0.00		-9.60		4.284e-03		101.520		1.394e-03		27.015
6		0.00		-9.20		4.967e-03		108.520		1.519e-03		21.965
6		0.00		-8.80		5.009e-03		109.609		1.449e-03		17.192
6		0.00		-8.40		5.312e-03		113.094		1.479e-03		15.948
6		0.00		-8.00		5.271e-03		107.322		1.485e-03		21.526
6		0.00		-7.60		5.480e-03		107.108		1.739e-03		17.279
6		0.00		-7.20		5.332e-03		115.145		1.599e-03		16.612
6		0.00		-6.80		5.046e-03		110.828		1.462e-03		17.676
6		0.00		-6.40		4.582e-03		109.240		1.510e-03		25.836
6		0.00		-6.00		4.765e-03		105.827		1.603e-03		19.649
6		0.00		-5.60		4.428e-03		110.220		1.386e-03		21.976
6		0.00		-5.20		4.580e-03		107.497		1.511e-03		25.957
6		0.00		-4.80		4.545e-03		107.541		1.662e-03		30.646
6		0.00		-4.40		4.586e-03		104.871		1.520e-03		20.289
6		0.00		-4.00		4.348e-03		107.296		1.560e-03		26.474
6		0.00		-3.60		4.476e-03		109.627		1.480e-03		21.628
6		0.00		-3.20		4.329e-03		106.103		1.382e-03		34.816
6		0.00		-2.80		4.160e-03		110.374		1.238e-03		23.847
6		0.00		-2.40		4.233e-03		105.107		1.402e-03		19.232
6		0.00		-2.00		3.983e-03		107.056		1.322e-03		29.374
6		0.00		-1.60		4.032e-03		108.270		1.219e-03		31.206
6		0.00		-1.20		3.922e-03		105.107		1.402e-03		40.199
6		0.00		-0.80		4.059e-03		108.538		1.449e-03		24.703
6		0.00		-0.40		3.744e-03		99.927		1.132e-03		30.186
7		0.00		0.00		3.869e-03		104.513		1.095e-03		21.079
7		0.00		0.40		3.807e-03		111.636		1.331e-03		23.868
7		0.00		0.80		3.656e-03		110.606		1.301e-03		30.884
7		0.00		1.20		3.819e-03		106.649		1.210e-03		25.131
7		0.00		1.60		3.623e-03		99.349		1.423e-03		39.679
7		0.00		2.00		3.162e-03		95.044		1.187e-03		29.596
7		0.00		2.40		2.258e-03		78.587		8.778e-04		49.879
7		0.00		2.80		2.087e-03		49.587		8.149e-04		61.146
7		0.00		3.20		1.760e-03		27.730		7.782e-04		64.696
7		0.00		3.60		1.914e-03		-13.711		7.186e-04		66.007
7		0.00		4.00		2.181e-03		-16.608		9.599e-04		51.751
7		0.00		4.40		2.641e-03		-32.568		1.134e-03		36.274
7		0.00		4.80		3.269e-03		-38.290		1.101e-03		27.549
7		0.00		5.20		4.072e-03		-43.228		1.319e-03		25.901
7		0.00		5.60		4.327e-03		-45.792		1.163e-03		24.663
7		0.00		6.00		5.423e-03		-47.595		1.488e-03		18.593
7		0.00		6.40		5.911e-03		-38.012		1.331e-03		18.056
7		0.00		6.80		6.874e-03		-41.075		1.472e-03		16.832
7		0.00		7.20		7.590e-03		-48.888		1.774e-03		15.003
7		0.00		7.60		8.279e-03		-47.767		1.872e-03		15.067
7		0.00		8.00		8.812e-03		-41.885		1.976e-03		16.276
7		0.00		8.40		1.029e-02		-47.419		2.374e-03		12.266
7		0.00		8.80		1.137e-02		-50.322		2.511e-03		11.924
7		0.00		9.20		1.282e-02		-46.314		2.780e-03		12.159
7		0.00		9.60		1.454e-02		-52.616		3.261e-03		13.573
7		0.00		10.00		1.596e-02		-49.759		3.526e-03		9.822
7		0.00		9.60		1.729e-02		-49.997		4.002e-03		10.080
7		0.00		9.20		1.838e-02		-50.822		4.149e-03		10.570
7		0.00		8.80		1.857e-02		-48.083		4.545e-03		10.053
7		0.00		8.40		1.834e-02		-49.748		4.409e-03		8.972
7		0.00		8.00		1.868e-02		-50.721		4.724e-03		10.357
7		0.00		7.60		1.844e-02		-51.030		4.595e-03		11.877
7		0.00		7.20		1.837e-02		-48.936		4.382e-03		11.071
7		0.00		6.80		1.894e-02		-50.285		4.370e-03		9.470
7		0.00		6.40		1.897e-02		-50.492		4.140e-03		10.744
7		0.00		6.00		1.849e-02		-51.769		4.137e-03		8.209
7		0.00		5.60		1.821e-02		-48.418		3.968e-03		8.282
7		0.00		5.20		1.846e-02		-48.872		3.958e-03		8.140
7		0.00		4.80		1.807e-02		-49.515		3.954e-03		8.524
7		0.00		4.40		1.791e-02		-49.642		3.950e-03		9.620
7		0.00		4.00		1.806e-02		-50.031		3.668e-03		8.162
7		0.00		3.60		1.811e-02		-47.849		3.635e-03		9.368
7		0.00		3.20		1.792e-02		-48.625		3.505e-03		8.257
7		0.00		2.80		1.775e-02		-49.424		3.464e-03		9.274
7		0.00		2.40		1.716e-02		-48.857		3.658e-03		9.450
7		0.00		2.00		1.693e-02		-49.530		3.765e-03		9.452
7		0.00		1.60		1.705e-02		-48.055		3.839e-03		10.048
7		0.00		1.20		1.735e-02		-48.883		3.607e-03		9.332
7		0.00		0.80		1.707e-02		-47.692		3.509e-03		8.376
7		0.00		0.40		1.710e-02		-49.233		3.640e-03		7.977
7		0.00		0.00		1.699e-02		-48.635		3.614e-03		9.645
7		0.00		-0.40		1.690e-02		-48.651		3.450e-03		8.754
7		0.00		-0.80		1.691e-02		-46.264		3.430e-03		9.009
7		0.00		-1.20		1.710e-02		-47.879		2.833e-03		7.981
7		0.00		-1.60		1.660e-02		-49.492		2.940e-03		7.254
7		0.00		-2.00		1.662e-02		-46.266		3.077e-03		7.992
7		0.00		-2.40		1.650e-02		-46.647		2.836e-03		8.262
7		0.00		-2.80		1.642e-02		-47.877		2.893e-03		7.995
7		0.00		-3.20		1.546e-02		-49.426		2.645e-03		8.244
7		0.00		-3.60		1.529e-02		-45.694		2.563e-03		7.957
7		0.00		-4.00		1.461e-02		-45.838		2.411e-03		8.817
7		0.00		-4.40		1.471e-02		-48.572		2.535e-03		9.090
7		0.00		-4.80		1.400e-02		-47.521		2.365e-03		9.121
7		0.00		-5.20		1.343e-02		-47.681		2.384e-03		10.261
7		0.00		-5.60		1.242e-02		-47.121		2.367e-03		11.312
7		0.00		-6.00		1.174e-02		-47.842		2.079e-03		13.700
7		0.00		-6.40		1.079e-02		-48.723		2.126e-03		11.525
7		0.00		-6.80		9.772e-03		-45.843		1.862e-03		11.169
7		0.00		-7.20		8.514e-03		-42.718		1.447e-03		13.027
7		0.00		-7.60		7.967e-03		-44.713		1.599e-03		13.286
7		0.00		-8.00		6.083e-03		-49.958		1.817e-03		18.049
7		0.00		-8.40		4.605e-03		-31.526		1.312e-03		19.187
7		0.00		-8.80		2.282e-03		-4.802		9.098e-04		40.691
7		0.00		-9.20		2.034e-03		14.479		9.387e-04		59.828
7		0.00		-9.60		2.464e-03		67.790		9.943e-04		45.952
7		0.00		-10.00		3.560e-03		98.185		1.294e-03		26.571
7		0.00		-9.60		4.297e-03		109.403		1.386e-03		19.512
7		0.00		-9.20		4.580e-03		112.998		1.359e-03		27.131
7		0.00		-8.80		5.450e-03		112.764		1.517e-03		18.455
7		0.00		-8.40		5.398e-03		109.069		1.524e-03		20.247
7		0.00		-8.00		5.273e-03		102.310		1.560e-03		22.207
7		0.00		-7.60		5.100e-03		106.938		1.503e-03		14.976
7		0.00		-7.20		5.030e-03		109.432		1.746e-03		20.446
7		0.00		-6.80		4.635e-03		114.007		1.340e-03		19.668
7		0.00		-6.40		4.585e-03		109.085		1.427e-03		21.528
7		0.00		-6.00		4.645e-03		111.014		1.582e-03		18.648
7		0.00		-5.60		4.137e-03		108.550		1.315e-03		23.600
7		0.00		-5.20		4.268e-03		109.644		1.341e-03		33.916
7		0.00		-4.80		3.757e-03		98.533		1.355e-03		30.324
7		0.00		-4.40		4.034e-03		105.446		1.349e-03		29.019
7		0.00		-4.00		4.079e-03		104.839		1.433e-03		44.251
7		0.00		-3.60		3.863e-03		105.903		1.497e-03		27.278
7		0.00		-3.20		3.791e-03		103.665		1.298e-03		21.251
7		0.00		-2.80		3.943e-03		107.264		1.196e-03		23.162
7		0.00		-2.40		3.944e-03		114.447		1.410e-03		30.724
7		0.00		-2.00		3.995e-03		106.015		1.315e-03		39.956
7		0.00		-1.60		3.699e-03		105.183		1.258e-03		33.986
7		0.00		-1.20		3.827e-03		101.919		1.303e-03		34.291
7		0.00		-0.80		3.573e-03		101.212		1.289e-03		35.077
7		0.00		-0.40		3.577e-03		109.318		1.350e-03		31.754
8		0.00		0.00		3.808e-03		101.302		1.534e-03		32.761
8		0.00		0.40		3.312e-03		98.930		1.247e-03		33.327
8		0.00		0.80		3.236e-03		103.930		1.330e-03		30.355
8		0.00		1.20		3.386e-03		92.055		1.234e-03		37.138
8		0.00		1.60		3.175e-03		107.258		1.032e-03		36.024
8		0.00		2.00		2.857e-03		93.996		9.928e-04		45.304
8		0.00		2.40		2.692e-03		82.300		1.228e-03		58.929
8		0.00		2.80		2.445e-03		73.626		1.029e-03		52.421
8		0.00		3.20		2.278e-03		43.166		1.100e-03		59.093
8		0.00		3.60		1.928e-03		39.788		8.366e-04		69.659
8		0.00		4.00		2.110e-03		-13.394		9.136e-04		54.583
8		0.00		4.40		2.321e-03		-29.859		8.788e-04		41.194
8		0.00		4.80		2.985e-03		-45.533		1.104e-03		28.299
8		0.00		5.20		3.836e-03		-40.906		1.397e-03		23.840
8		0.00		5.60		4.408e-03		-45.946		1.442e-03		21.267
8		0.00		6.00		5.243e-03		-38.464		1.356e-03		19.787
8		0.00		6.40		5.893e-03		-46.749		1.654e-03		15.646
8		0.00		6.80		6.440e-03		-46.288		1.714e-03		20.341
8		0.00		7.20		7.104e-03		-40.343		1.749e-03		14.235
8		0.00		7.60		7.765e-03		-47.038		1.881e-03		10.907
8		0.00		8.00		8.541e-03		-48.617		2.248e-03		13.439
8		0.00		8.40		9.020e-03		-53.058		2.550e-03		15.216
8		0.00		8.80		1.118e-02		-49.173		2.772e-03		13.219
8		0.00		9.20		1.275e-02		-46.550		3.140e-03		9.778
8		0.00		9.60		1.409e-02		-48.823		3.224e-03		9.512
8		0.00		10.00		1.649e-02		-49.588		3.335e-03		9.696
8		0.00		9.60		1.722e-02		-47.354		3.419e-03		10.649
8		0.00		9.20		1.848e-02		-48.907		3.408e-03		8.391
8		0.00		8.80		1.943e-02		-48.379		3.181e-03		7.387
8		0.00		8.40		1.904e-02		-48.379		2.934e-03		8.457
8		0.00		8.00		1.953e-02		-47.076		3.069e-03		7.543
8		0.00		7.60		1.937e-02		-48.281		3.153e-03		7.438
8		0.00		7.20		1.925e-02		-48.980		3.121e-03		8.017
8		0.00		6.80		1.904e-02		-48.688		3.293e-03		8.575
8		0.00		6.40		1.901e-02		-48.871		3.539e-03		7.815
8		0.00		6.00		1.909e-02		-52.322		3.855e-03		8.481
8		0.00		5.60		1.888e-02		-50.654		3.890e-03		7.860
8		0.00		5.20		1.877e-02		-47.770		4.137e-03		8.566
8		0.00		4.80		1.812e-02		-50.569		4.105e-03		10.118
8		0.00		4.40		1.812e-02		-49.978		4.257e-03		12.110
8		0.00		4.00		1.816e-02		-50.614		4.422e-03		13.964
8		0.00		3.60		1.851e-02		-46.062		4.115e-03		9.166
8		0.00		3.20		1.807e-02		-48.788		3.791e-03		9.805
8		0.00		2.80		1.824e-02		-46.267		3.424e-03		9.354
8		0.00		2.40		1.820e-02		-46.812		2.848e-03		7.930
8		0.00		2.00		1.805e-02		-49.187		3.220e-03		6.852
8		0.00		1.60		1.807e-02		-47.111		2.974e-03		7.559
8		0.00		1.20		1.897e-02		-49.332		2.928e-03		6.772
8		0.00		0.80		1.820e-02		-47.696		2.956e-03		7.582
8		0.00		0.40		1.775e-02		-49.696		2.530e-03		6.961
8		0.00		0.00		1.808e-02		-47.311		2.682e-03		7.664
8		0.00		-0.40		1.803e-02		-47.802		2.801e-03		9.368
8		0.00		-0.80		1.765e-02		-48.496		3.026e-03		7.526
8		0.00		-1.20		1.752e-02		-47.411		3.314e-03		9.504
8		0.00		-1.60		1.750e-02		-49.558		3.202e-03		8.668
8		0.00		-2.00		1.701e-02		-48.115		3.562e-03		9.737
8		0.00		-2.40		1.686e-02		-46.685		3.534e-03		8.739
8		0.00		-2.80		1.634e-02		-49.268		3.635e-03		12.279
8		0.00		-3.20		1.594e-02		-50.286		3.661e-03		11.743
8		0.00		-3.60		1.567e-02		-50.495		3.609e-03		13.298
8		0.00		-4.00		1.510e-02		-47.322		2.924e-03		8.341
8		0.00		-4.40		1.492e-02		-48.040		2.700e-03		9.570
8		0.00		-4.80		1.442e-02		-45.735		2.616e-03		8.894
8		0.00		-5.20		1.350e-02		-44.933		2.285e-03		10.659
8		0.00		-5.60		1.334e-02		-49.181		2.341e-03		9.147
8		0.00		-6.00		1.282e-02		-48.055		2.133e-03		9.640
8		0.00		-6.40		1.167e-02		-46.984		1.998e-03		11.156
8		0.00		-6.80		1.096e-02		-44.199		1.895e-03		9.751
8		0.00		-7.20		9.479e-03		-43.936		1.988e-03		12.907
8		0.00		-7.60		8.120e-03		-51.712		1.839e-03		14.270
8		0.00		-8.00		6.375e-03		-36.571		1.623e-03		14.406
8		0.00		-8.40		5.269e-03		-37.709		1.497e-03		16.813
8		0.00		-8.80		4.458e-03		-40.725		1.299e-03		19.403
8		0.00		-9.20		2.849e-03		-32.752		1.157e-03		39.370
8		0.00		-9.60		2.105e-03		25.351		8.144e-04		54.909
8		0.00		-10.00		2.345e-03		53.966		1.075e-03		53.116
8		0.00		-9.60		3.114e-03		84.673		1.120e-03		38.158
8		0.00		-9.20		4.138e-03		100.209		1.439e-03		23.713
8		0.00		-8.80		4.821e-03		107.988		1.504e-03		22.850
8		0.00		-8.40		4.775e-03		112.106		1.707e-03		27.941
8		0.00		-8.00		4.774e-03		107.988		1.388e-03		16.673
8		0.00		-7.60		4.595e-03		112.845		1.497e-03		24.019
8		0.00		-7.20		4.153e-03		108.141		1.518e-03		24.672
8		0.00		-6.80		4.518e-03		108.358		1.394e-03		22.221
8		0.00		-6.40		4.297e-03		108.408		1.397e-03		29.625
8		0.00		-6.00		3.911e-03		106.271		1.320e-03		26.986
8		0.00		-5.60		4.045e-03		106.468		1.232e-03		29.284
8		0.00		-5.20		4.283e-03		111.905		1.562e-03		22.854
8		0.00		-4.80		4.066e-03		108.204		1.265e-03		18.785
8		0.00		-4.40		3.879e-03		105.912		1.255e-03		42.120
8		0.00		-4.00		3.986e-03		112.661		1.292e-03		24.021
8		0.00		-3.60		3.811e-03		95.613		1.289e-03		22.787
8		0.00		-3.20		3.752e-03		98.307		1.303e-03		24.285
8		0.00		-2.80		3.979e-03		104.695		1.190e-03		25.170
8		0.00		-2.40		3.718e-03		106.822		1.385e-03		28.628
8		0.00		-2.00		3.622e-03		103.803		1.289e-03		29.471
8		0.00		-1.60		3.208e-03		96.307		1.148e-03		39.790
8		0.00		-1.20		3.505e-03		102.471		1.171e-03		44.072
8		0.00		-0.80		3.348e-03		90.323		1.234e-03		31.158
8		0.00		-0.40		3.561e-03		104.530		1.246e-03		28.972
