# Date of analysis: 2023-11-20 16;19
# 
# Loop index	Read Volt (V)	Write Volt (V)	Amplitude (a.u)	Phase (deg)	Sigma Amp (a.u)	Sigma Pha (deg)	
1		0.00		0.00		1.076e-02		-47.314		2.573e-03		12.793
1		0.00		0.40		1.056e-02		-45.618		2.381e-03		14.150
1		0.00		0.80		1.090e-02		-48.003		2.456e-03		14.695
1		0.00		1.20		1.035e-02		-49.854		2.399e-03		13.829
1		0.00		1.60		1.052e-02		-48.783		2.403e-03		13.170
1		0.00		2.00		1.070e-02		-46.182		2.496e-03		12.128
1		0.00		2.40		1.069e-02		-40.445		2.787e-03		14.403
1		0.00		2.80		1.067e-02		-49.377		2.712e-03		12.635
1		0.00		3.20		1.112e-02		-46.496		2.562e-03		13.848
1		0.00		3.60		1.125e-02		-51.163		2.763e-03		13.142
1		0.00		4.00		1.198e-02		-49.719		2.809e-03		13.428
1		0.00		4.40		1.252e-02		-48.045		2.839e-03		12.467
1		0.00		4.80		1.298e-02		-50.560		2.871e-03		11.789
1		0.00		5.20		1.351e-02		-50.897		2.792e-03		10.266
1		0.00		5.60		1.447e-02		-53.239		3.217e-03		9.695
1		0.00		6.00		1.525e-02		-49.398		2.707e-03		9.630
1		0.00		6.40		1.652e-02		-48.988		2.936e-03		9.374
1		0.00		6.80		1.754e-02		-53.468		3.154e-03		8.769
1		0.00		7.20		1.790e-02		-51.447		3.224e-03		8.902
1		0.00		7.60		1.918e-02		-51.091		3.362e-03		8.530
1		0.00		8.00		1.970e-02		-52.417		3.746e-03		8.813
1		0.00		8.40		2.084e-02		-51.520		3.691e-03		9.717
1		0.00		8.80		2.132e-02		-51.806		4.011e-03		8.994
1		0.00		9.20		2.256e-02		-52.036		4.171e-03		8.929
1		0.00		9.60		2.375e-02		-52.403		5.097e-03		9.371
1		0.00		10.00		2.555e-02		-52.226		5.756e-03		8.445
1		0.00		9.60		2.635e-02		-52.030		5.981e-03		8.400
1		0.00		9.20		2.699e-02		-50.911		6.255e-03		9.493
1		0.00		8.80		2.704e-02		-50.878		6.487e-03		9.560
1		0.00		8.40		2.719e-02		-52.354		6.749e-03		10.055
1		0.00		8.00		2.738e-02		-52.419		6.648e-03		9.133
1		0.00		7.60		2.699e-02		-51.724		6.993e-03		9.622
1		0.00		7.20		2.629e-02		-53.268		6.887e-03		11.009
1		0.00		6.80		2.609e-02		-50.834		6.244e-03		11.266
1		0.00		6.40		2.660e-02		-51.236		6.305e-03		9.924
1		0.00		6.00		2.647e-02		-50.415		5.929e-03		9.513
1		0.00		5.60		2.652e-02		-51.968		6.054e-03		11.356
1		0.00		5.20		2.629e-02		-51.219		5.646e-03		11.193
1		0.00		4.80		2.552e-02		-51.794		5.514e-03		12.047
1		0.00		4.40		2.578e-02		-51.337		5.303e-03		11.277
1		0.00		4.00		2.580e-02		-50.767		5.263e-03		8.445
1		0.00		3.60		2.573e-02		-51.273		4.991e-03		9.341
1		0.00		3.20		2.542e-02		-49.868		5.060e-03		8.072
1		0.00		2.80		2.532e-02		-49.894		5.033e-03		8.843
1		0.00		2.40		2.477e-02		-50.432		5.090e-03		8.226
1		0.00		2.00		2.430e-02		-50.308		4.824e-03		7.957
1		0.00		1.60		2.465e-02		-48.836		5.030e-03		7.225
1		0.00		1.20		2.455e-02		-50.496		5.143e-03		8.463
1		0.00		0.80		2.468e-02		-50.606		4.907e-03		7.798
1		0.00		0.40		2.463e-02		-51.084		4.655e-03		8.246
1		0.00		0.00		2.433e-02		-51.295		4.406e-03		8.556
1		0.00		-0.40		2.473e-02		-51.318		4.341e-03		7.360
1		0.00		-0.80		2.440e-02		-52.061		4.227e-03		8.500
1		0.00		-1.20		2.407e-02		-52.533		4.181e-03		8.240
1		0.00		-1.60		2.376e-02		-50.485		3.705e-03		7.577
1		0.00		-2.00		2.358e-02		-49.358		4.121e-03		8.432
1		0.00		-2.40		2.333e-02		-51.326		4.140e-03		9.610
1		0.00		-2.80		2.287e-02		-49.349		4.277e-03		8.228
1		0.00		-3.20		2.222e-02		-51.980		4.223e-03		7.949
1		0.00		-3.60		2.156e-02		-50.556		3.838e-03		8.987
1		0.00		-4.00		2.126e-02		-49.954		4.091e-03		7.380
1		0.00		-4.40		1.978e-02		-49.055		4.278e-03		9.469
1		0.00		-4.80		1.969e-02		-50.794		4.115e-03		9.989
1		0.00		-5.20		1.815e-02		-51.852		4.263e-03		10.577
1		0.00		-5.60		1.691e-02		-51.042		4.103e-03		9.565
1		0.00		-6.00		1.547e-02		-49.299		3.678e-03		11.016
1		0.00		-6.40		1.337e-02		-48.783		3.338e-03		11.971
1		0.00		-6.80		1.161e-02		-48.563		2.840e-03		11.526
1		0.00		-7.20		9.458e-03		-46.191		2.346e-03		12.929
1		0.00		-7.60		6.367e-03		-45.558		1.710e-03		14.785
1		0.00		-8.00		4.053e-03		-35.824		1.574e-03		27.616
1		0.00		-8.40		1.923e-03		-13.620		8.651e-04		53.855
1		0.00		-8.80		2.100e-03		52.618		8.713e-04		65.669
1		0.00		-9.20		4.021e-03		110.653		1.348e-03		35.567
1		0.00		-9.60		6.325e-03		124.699		1.940e-03		22.624
1		0.00		-10.00		8.293e-03		122.950		2.236e-03		17.305
1		0.00		-9.60		9.166e-03		122.513		2.315e-03		16.793
1		0.00		-9.20		9.511e-03		118.589		2.498e-03		15.958
1		0.00		-8.80		1.032e-02		121.588		2.607e-03		18.285
1		0.00		-8.40		1.052e-02		124.619		2.480e-03		16.298
1		0.00		-8.00		9.540e-03		121.977		2.522e-03		13.647
1		0.00		-7.60		1.022e-02		126.201		2.883e-03		14.958
1		0.00		-7.20		9.571e-03		120.394		2.551e-03		15.868
1		0.00		-6.80		9.518e-03		124.050		2.658e-03		13.749
1		0.00		-6.40		9.430e-03		122.385		2.564e-03		16.663
1		0.00		-6.00		9.450e-03		123.308		2.555e-03		15.183
1		0.00		-5.60		8.841e-03		119.318		2.280e-03		13.806
1		0.00		-5.20		8.759e-03		121.170		2.203e-03		12.972
1		0.00		-4.80		8.667e-03		121.069		2.134e-03		12.193
1		0.00		-4.40		8.641e-03		121.565		2.249e-03		14.202
1		0.00		-4.00		8.448e-03		124.415		2.013e-03		14.086
1		0.00		-3.60		8.847e-03		123.927		2.270e-03		11.474
1		0.00		-3.20		8.351e-03		126.932		2.033e-03		13.483
1		0.00		-2.80		8.247e-03		123.385		1.825e-03		13.480
1		0.00		-2.40		8.105e-03		123.069		2.229e-03		13.042
1		0.00		-2.00		7.917e-03		120.511		1.794e-03		14.034
1		0.00		-1.60		7.438e-03		121.917		1.985e-03		15.790
1		0.00		-1.20		7.447e-03		125.508		1.815e-03		12.242
1		0.00		-0.80		7.149e-03		121.035		1.727e-03		14.050
1		0.00		-0.40		7.679e-03		125.690		1.920e-03		12.920
2		0.00		0.00		7.539e-03		126.090		1.642e-03		14.309
2		0.00		0.40		7.552e-03		124.365		2.034e-03		17.807
2		0.00		0.80		7.104e-03		128.721		1.870e-03		12.368
2		0.00		1.20		6.547e-03		123.105		1.790e-03		15.490
2		0.00		1.60		6.336e-03		122.743		1.584e-03		22.312
2		0.00		2.00		6.194e-03		120.329		1.568e-03		14.828
2		0.00		2.40		5.471e-03		121.068		1.605e-03		20.209
2		0.00		2.80		4.693e-03		119.350		1.424e-03		25.099
2		0.00		3.20		3.948e-03		109.161		1.202e-03		31.933
2		0.00		3.60		3.100e-03		111.606		1.117e-03		43.335
2		0.00		4.00		2.598e-03		91.414		1.021e-03		57.124
2		0.00		4.40		2.036e-03		49.760		9.459e-04		71.528
2		0.00		4.80		1.968e-03		29.804		7.534e-04		77.831
2		0.00		5.20		1.924e-03		-12.830		7.324e-04		75.945
2		0.00		5.60		2.045e-03		-55.189		9.240e-04		47.880
2		0.00		6.00		2.635e-03		-53.357		1.009e-03		36.933
2		0.00		6.40		3.338e-03		-49.508		1.134e-03		31.877
2		0.00		6.80		4.182e-03		-57.251		1.236e-03		23.476
2		0.00		7.20		5.330e-03		-54.226		1.304e-03		17.594
2		0.00		7.60		6.497e-03		-51.393		1.716e-03		13.181
2		0.00		8.00		7.672e-03		-48.884		2.134e-03		16.588
2		0.00		8.40		8.800e-03		-57.783		2.326e-03		17.113
2		0.00		8.80		1.028e-02		-50.620		2.504e-03		13.641
2		0.00		9.20		1.228e-02		-58.146		3.147e-03		13.119
2		0.00		9.60		1.475e-02		-51.668		3.406e-03		10.889
2		0.00		10.00		1.672e-02		-53.433		4.290e-03		11.667
2		0.00		9.60		1.835e-02		-52.059		4.473e-03		9.967
2		0.00		9.20		1.993e-02		-51.343		4.871e-03		10.990
2		0.00		8.80		2.022e-02		-52.268		4.855e-03		10.146
2		0.00		8.40		2.044e-02		-52.268		4.840e-03		12.057
2		0.00		8.00		2.079e-02		-49.760		4.586e-03		9.137
2		0.00		7.60		2.025e-02		-51.604		4.516e-03		11.029
2		0.00		7.20		2.013e-02		-51.528		4.689e-03		9.559
2		0.00		6.80		1.987e-02		-50.423		4.692e-03		11.726
2		0.00		6.40		1.998e-02		-50.339		4.694e-03		12.486
2		0.00		6.00		1.957e-02		-51.564		4.896e-03		11.840
2		0.00		5.60		1.939e-02		-51.609		4.730e-03		12.042
2		0.00		5.20		1.937e-02		-52.284		4.713e-03		9.075
2		0.00		4.80		1.943e-02		-51.723		4.960e-03		9.377
2		0.00		4.40		1.882e-02		-48.897		4.968e-03		9.709
2		0.00		4.00		1.877e-02		-51.469		4.998e-03		10.624
2		0.00		3.60		1.884e-02		-53.037		4.903e-03		9.340
2		0.00		3.20		1.853e-02		-53.237		4.624e-03		10.251
2		0.00		2.80		1.853e-02		-52.078		4.180e-03		8.283
2		0.00		2.40		1.853e-02		-52.078		4.439e-03		9.301
2		0.00		2.00		1.864e-02		-49.208		4.378e-03		9.554
2		0.00		1.60		1.858e-02		-49.235		4.015e-03		9.740
2		0.00		1.20		1.839e-02		-50.850		3.594e-03		8.261
2		0.00		0.80		1.823e-02		-52.206		3.706e-03		9.480
2		0.00		0.40		1.831e-02		-51.146		3.474e-03		8.287
2		0.00		0.00		1.826e-02		-50.734		3.164e-03		7.995
2		0.00		-0.40		1.789e-02		-52.180		3.335e-03		8.679
2		0.00		-0.80		1.771e-02		-48.481		3.239e-03		9.815
2		0.00		-1.20		1.745e-02		-47.625		3.370e-03		9.542
2		0.00		-1.60		1.723e-02		-50.684		3.029e-03		8.944
2		0.00		-2.00		1.689e-02		-47.305		3.286e-03		10.221
2		0.00		-2.40		1.629e-02		-51.919		3.475e-03		10.537
2		0.00		-2.80		1.530e-02		-48.131		3.214e-03		11.234
2		0.00		-3.20		1.526e-02		-51.271		3.763e-03		11.656
2		0.00		-3.60		1.476e-02		-49.865		3.631e-03		12.329
2		0.00		-4.00		1.393e-02		-52.588		3.689e-03		14.716
2		0.00		-4.40		1.314e-02		-48.533		3.719e-03		12.399
2		0.00		-4.80		1.286e-02		-53.261		3.512e-03		15.372
2		0.00		-5.20		1.190e-02		-49.175		3.440e-03		13.130
2		0.00		-5.60		1.123e-02		-51.619		3.410e-03		14.708
2		0.00		-6.00		1.049e-02		-47.938		2.932e-03		12.579
2		0.00		-6.40		9.506e-03		-49.626		2.771e-03		13.791
2		0.00		-6.80		8.633e-03		-49.869		2.359e-03		13.306
2		0.00		-7.20		6.909e-03		-44.501		1.687e-03		20.747
2		0.00		-7.60		5.581e-03		-46.929		1.613e-03		23.679
2		0.00		-8.00		4.712e-03		-34.597		1.546e-03		17.010
2		0.00		-8.40		2.585e-03		-43.676		9.857e-04		37.838
2		0.00		-8.80		1.878e-03		24.495		9.164e-04		64.252
2		0.00		-9.20		3.329e-03		100.459		1.265e-03		39.083
2		0.00		-9.60		4.713e-03		119.421		1.404e-03		21.131
2		0.00		-10.00		6.069e-03		121.605		1.668e-03		15.731
2		0.00		-9.60		7.786e-03		122.036		2.138e-03		15.535
2		0.00		-9.20		7.803e-03		120.786		2.191e-03		15.938
2		0.00		-8.80		8.214e-03		120.980		2.310e-03		18.752
2		0.00		-8.40		8.706e-03		119.523		2.640e-03		15.186
2		0.00		-8.00		9.075e-03		122.815		2.781e-03		20.598
2		0.00		-7.60		8.933e-03		117.566		2.954e-03		25.924
2		0.00		-7.20		8.822e-03		119.969		2.479e-03		15.837
2		0.00		-6.80		8.736e-03		120.858		2.455e-03		12.953
2		0.00		-6.40		8.555e-03		118.724		2.522e-03		10.748
2		0.00		-6.00		8.566e-03		122.041		2.214e-03		10.882
2		0.00		-5.60		8.397e-03		122.687		2.181e-03		12.376
2		0.00		-5.20		7.942e-03		123.660		2.007e-03		11.294
2		0.00		-4.80		7.884e-03		122.938		2.158e-03		14.902
2		0.00		-4.40		7.665e-03		127.051		1.873e-03		11.077
2		0.00		-4.00		7.616e-03		122.585		2.170e-03		16.506
2		0.00		-3.60		7.424e-03		124.090		1.982e-03		18.311
2		0.00		-3.20		7.104e-03		117.073		2.065e-03		20.583
2		0.00		-2.80		7.108e-03		123.210		2.062e-03		16.722
2		0.00		-2.40		7.257e-03		119.731		2.173e-03		18.265
2		0.00		-2.00		7.106e-03		119.617		2.251e-03		19.806
2		0.00		-1.60		7.017e-03		121.133		1.966e-03		12.998
2		0.00		-1.20		7.134e-03		126.651		1.915e-03		13.736
2		0.00		-0.80		6.883e-03		120.450		1.905e-03		15.394
2		0.00		-0.40		6.878e-03		119.461		1.785e-03		12.927
3		0.00		0.00		6.876e-03		123.171		1.797e-03		15.533
3		0.00		0.40		6.481e-03		124.710		1.975e-03		15.443
3		0.00		0.80		6.278e-03		117.474		2.043e-03		20.489
3		0.00		1.20		6.290e-03		120.160		2.023e-03		19.548
3		0.00		1.60		6.164e-03		113.540		1.877e-03		31.088
3		0.00		2.00		5.692e-03		111.503		1.926e-03		26.675
3		0.00		2.40		4.891e-03		117.224		1.750e-03		41.914
3		0.00		2.80		4.437e-03		113.937		1.528e-03		25.702
3		0.00		3.20		3.817e-03		119.979		1.478e-03		34.075
3		0.00		3.60		2.795e-03		98.227		1.158e-03		52.476
3		0.00		4.00		2.291e-03		80.208		9.820e-04		57.379
3		0.00		4.40		1.983e-03		55.016		8.256e-04		67.833
3		0.00		4.80		1.765e-03		-0.049		6.714e-04		66.445
3		0.00		5.20		2.026e-03		-23.717		9.224e-04		61.791
3		0.00		5.60		2.064e-03		-33.869		8.872e-04		44.747
3		0.00		6.00		2.433e-03		-28.911		1.009e-03		46.885
3		0.00		6.40		3.315e-03		-58.544		1.344e-03		32.535
3		0.00		6.80		4.420e-03		-40.593		1.319e-03		21.131
3		0.00		7.20		5.233e-03		-48.761		1.501e-03		21.828
3		0.00		7.60		6.541e-03		-60.555		1.839e-03		14.524
3		0.00		8.00		6.938e-03		-48.005		1.437e-03		14.157
3		0.00		8.40		8.609e-03		-49.898		2.021e-03		12.965
3		0.00		8.80		9.713e-03		-53.369		2.285e-03		12.629
3		0.00		9.20		1.160e-02		-49.932		2.962e-03		11.394
3		0.00		9.60		1.349e-02		-50.685		3.419e-03		10.968
3		0.00		10.00		1.584e-02		-53.867		4.486e-03		11.141
3		0.00		9.60		1.741e-02		-52.968		4.597e-03		10.434
3		0.00		9.20		1.799e-02		-50.834		4.972e-03		10.398
3		0.00		8.80		1.882e-02		-51.616		4.506e-03		9.255
3		0.00		8.40		1.946e-02		-52.343		3.928e-03		6.976
3		0.00		8.00		1.915e-02		-50.204		3.485e-03		9.169
3		0.00		7.60		1.957e-02		-51.212		3.534e-03		7.383
3		0.00		7.20		1.970e-02		-50.524		3.411e-03		8.303
3		0.00		6.80		1.936e-02		-52.008		3.403e-03		7.580
3		0.00		6.40		1.914e-02		-49.004		3.351e-03		8.475
3		0.00		6.00		1.893e-02		-50.007		3.678e-03		9.639
3		0.00		5.60		1.875e-02		-51.765		3.728e-03		9.134
3		0.00		5.20		1.800e-02		-51.615		4.100e-03		9.704
3		0.00		4.80		1.778e-02		-52.164		4.384e-03		11.059
3		0.00		4.40		1.765e-02		-50.037		4.784e-03		12.803
3		0.00		4.00		1.762e-02		-51.399		4.848e-03		8.963
3		0.00		3.60		1.749e-02		-52.547		4.340e-03		9.449
3		0.00		3.20		1.747e-02		-52.379		4.066e-03		8.419
3		0.00		2.80		1.734e-02		-54.147		3.737e-03		9.467
3		0.00		2.40		1.731e-02		-51.021		3.700e-03		10.215
3		0.00		2.00		1.706e-02		-54.064		3.356e-03		8.715
3		0.00		1.60		1.668e-02		-50.370		3.589e-03		9.081
3		0.00		1.20		1.698e-02		-52.933		3.691e-03		8.547
3		0.00		0.80		1.675e-02		-51.261		3.834e-03		9.564
3		0.00		0.40		1.713e-02		-50.613		3.724e-03		10.093
3		0.00		0.00		1.691e-02		-47.877		3.642e-03		10.974
3		0.00		-0.40		1.707e-02		-48.713		4.044e-03		11.557
3		0.00		-0.80		1.637e-02		-50.006		4.005e-03		10.785
3		0.00		-1.20		1.592e-02		-48.009		3.795e-03		11.057
3		0.00		-1.60		1.629e-02		-48.189		3.954e-03		9.255
3		0.00		-2.00		1.571e-02		-49.181		3.415e-03		9.931
3		0.00		-2.40		1.529e-02		-50.460		3.303e-03		9.501
3		0.00		-2.80		1.551e-02		-50.469		2.910e-03		9.600
3		0.00		-3.20		1.526e-02		-51.078		2.916e-03		9.096
3		0.00		-3.60		1.449e-02		-52.165		2.628e-03		7.952
3		0.00		-4.00		1.386e-02		-47.853		2.573e-03		9.217
3		0.00		-4.40		1.364e-02		-50.885		2.634e-03		9.183
3		0.00		-4.80		1.263e-02		-46.993		2.346e-03		11.173
3		0.00		-5.20		1.241e-02		-52.017		2.336e-03		10.625
3		0.00		-5.60		1.136e-02		-49.807		2.696e-03		11.737
3		0.00		-6.00		1.062e-02		-47.371		2.417e-03		15.075
3		0.00		-6.40		9.184e-03		-45.255		2.271e-03		12.616
3		0.00		-6.80		7.958e-03		-42.327		2.094e-03		15.069
3		0.00		-7.20		6.845e-03		-46.521		1.909e-03		19.970
3		0.00		-7.60		6.031e-03		-50.058		1.760e-03		16.924
3		0.00		-8.00		4.727e-03		-43.807		1.487e-03		23.484
3		0.00		-8.40		3.160e-03		-40.806		1.349e-03		32.435
3		0.00		-8.80		2.152e-03		-8.777		8.228e-04		51.537
3		0.00		-9.20		2.270e-03		53.827		1.008e-03		69.212
3		0.00		-9.60		3.729e-03		101.471		1.381e-03		31.046
3		0.00		-10.00		6.440e-03		116.729		1.643e-03		16.218
3		0.00		-9.60		6.537e-03		116.809		1.842e-03		30.640
3		0.00		-9.20		6.744e-03		112.372		1.887e-03		15.037
3		0.00		-8.80		7.227e-03		119.201		1.995e-03		13.308
3		0.00		-8.40		7.818e-03		119.575		2.029e-03		14.241
3		0.00		-8.00		7.996e-03		121.476		2.287e-03		13.845
3		0.00		-7.60		8.168e-03		124.080		2.178e-03		15.162
3		0.00		-7.20		7.961e-03		122.314		1.913e-03		12.040
3		0.00		-6.80		7.744e-03		125.506		2.075e-03		14.191
3		0.00		-6.40		7.578e-03		119.027		1.975e-03		13.488
3		0.00		-6.00		7.544e-03		124.700		1.837e-03		12.589
3		0.00		-5.60		7.242e-03		120.907		2.032e-03		12.129
3		0.00		-5.20		7.414e-03		123.765		2.022e-03		14.744
3		0.00		-4.80		7.038e-03		121.175		1.653e-03		11.618
3		0.00		-4.40		7.109e-03		121.959		1.608e-03		14.579
3		0.00		-4.00		7.063e-03		124.163		1.615e-03		14.720
3		0.00		-3.60		6.992e-03		118.919		1.563e-03		14.141
3		0.00		-3.20		6.698e-03		120.667		1.590e-03		15.229
3		0.00		-2.80		6.892e-03		121.028		1.749e-03		14.473
3		0.00		-2.40		6.480e-03		126.687		1.436e-03		12.059
3		0.00		-2.00		6.614e-03		119.779		1.666e-03		15.832
3		0.00		-1.60		6.644e-03		123.018		1.724e-03		14.248
3		0.00		-1.20		6.891e-03		123.255		1.753e-03		16.684
3		0.00		-0.80		6.510e-03		125.355		1.833e-03		15.119
3		0.00		-0.40		6.532e-03		122.338		1.738e-03		16.058
4		0.00		0.00		6.841e-03		123.855		1.721e-03		14.890
4		0.00		0.40		6.741e-03		119.967		1.853e-03		18.711
4		0.00		0.80		6.679e-03		120.860		1.649e-03		15.796
4		0.00		1.20		6.443e-03		126.852		1.581e-03		15.070
4		0.00		1.60		6.160e-03		126.526		1.707e-03		18.798
4		0.00		2.00		5.761e-03		123.040		1.546e-03		17.595
4		0.00		2.40		5.086e-03		120.754		1.446e-03		22.293
4		0.00		2.80		4.542e-03		124.890		1.275e-03		23.235
4		0.00		3.20		4.161e-03		117.499		1.050e-03		21.398
4		0.00		3.60		3.462e-03		115.659		1.085e-03		34.571
4		0.00		4.00		2.769e-03		92.047		1.158e-03		61.317
4		0.00		4.40		1.876e-03		48.503		7.255e-04		80.742
4		0.00		4.80		1.868e-03		19.188		7.131e-04		68.033
4		0.00		5.20		2.164e-03		-52.241		9.355e-04		56.190
4		0.00		5.60		2.280e-03		-55.584		9.044e-04		50.584
4		0.00		6.00		2.768e-03		-61.956		1.092e-03		35.234
4		0.00		6.40		3.416e-03		-43.631		1.161e-03		33.133
4		0.00		6.80		4.359e-03		-59.739		1.278e-03		22.413
4		0.00		7.20		5.489e-03		-48.968		1.346e-03		16.345
4		0.00		7.60		6.813e-03		-48.842		1.659e-03		12.441
4		0.00		8.00		7.331e-03		-50.083		1.765e-03		14.597
4		0.00		8.40		8.754e-03		-48.354		1.881e-03		15.169
4		0.00		8.80		1.054e-02		-47.706		2.070e-03		12.568
4		0.00		9.20		1.269e-02		-51.793		2.565e-03		13.093
4		0.00		9.60		1.423e-02		-52.792		2.981e-03		10.194
4		0.00		10.00		1.605e-02		-53.450		3.397e-03		8.411
4		0.00		9.60		1.731e-02		-51.229		3.451e-03		9.719
4		0.00		9.20		1.781e-02		-53.307		3.509e-03		8.400
4		0.00		8.80		1.816e-02		-52.891		3.497e-03		8.227
4		0.00		8.40		1.865e-02		-53.268		3.824e-03		8.690
4		0.00		8.00		1.875e-02		-50.663		3.876e-03		8.656
4		0.00		7.60		1.875e-02		-53.018		3.938e-03		8.645
4		0.00		7.20		1.825e-02		-48.608		4.235e-03		9.105
4		0.00		6.80		1.809e-02		-47.774		4.229e-03		9.474
4		0.00		6.40		1.857e-02		-52.623		4.281e-03		9.965
4		0.00		6.00		1.792e-02		-53.383		4.401e-03		9.897
4		0.00		5.60		1.792e-02		-49.273		4.606e-03		10.943
4		0.00		5.20		1.735e-02		-52.368		4.361e-03		11.014
4		0.00		4.80		1.721e-02		-50.379		4.180e-03		11.832
4		0.00		4.40		1.719e-02		-51.453		4.103e-03		10.503
4		0.00		4.00		1.726e-02		-50.442		4.011e-03		9.222
4		0.00		3.60		1.690e-02		-49.587		4.138e-03		10.387
4		0.00		3.20		1.693e-02		-49.478		3.522e-03		9.514
4		0.00		2.80		1.737e-02		-50.675		3.522e-03		10.635
4		0.00		2.40		1.675e-02		-47.640		3.185e-03		8.287
4		0.00		2.00		1.723e-02		-50.208		3.106e-03		8.726
4		0.00		1.60		1.714e-02		-49.146		2.657e-03		9.749
4		0.00		1.20		1.691e-02		-50.358		2.770e-03		8.915
4		0.00		0.80		1.717e-02		-52.163		2.910e-03		9.018
4		0.00		0.40		1.691e-02		-48.706		2.897e-03		10.349
4		0.00		0.00		1.673e-02		-50.007		2.712e-03		8.645
4		0.00		-0.40		1.673e-02		-48.791		3.107e-03		7.950
4		0.00		-0.80		1.626e-02		-50.080		3.049e-03		10.170
4		0.00		-1.20		1.641e-02		-49.853		3.304e-03		8.494
4		0.00		-1.60		1.559e-02		-47.281		3.630e-03		8.524
4		0.00		-2.00		1.497e-02		-52.077		3.740e-03		10.572
4		0.00		-2.40		1.490e-02		-48.750		4.258e-03		11.698
4		0.00		-2.80		1.427e-02		-46.735		3.904e-03		15.248
4		0.00		-3.20		1.427e-02		-49.498		3.577e-03		13.592
4		0.00		-3.60		1.369e-02		-46.988		3.372e-03		12.737
4		0.00		-4.00		1.329e-02		-49.928		3.188e-03		10.223
4		0.00		-4.40		1.263e-02		-47.503		3.015e-03		11.887
4		0.00		-4.80		1.239e-02		-46.153		2.565e-03		9.355
4		0.00		-5.20		1.213e-02		-50.636		2.437e-03		12.819
4		0.00		-5.60		1.198e-02		-45.972		1.981e-03		9.879
4		0.00		-6.00		1.115e-02		-46.603		1.937e-03		12.162
4		0.00		-6.40		9.621e-03		-46.483		1.697e-03		11.539
4		0.00		-6.80		8.505e-03		-47.785		1.686e-03		10.590
4		0.00		-7.20		7.456e-03		-45.773		1.547e-03		12.508
4		0.00		-7.60		5.794e-03		-46.088		1.600e-03		20.135
4		0.00		-8.00		4.528e-03		-41.782		1.407e-03		23.138
4		0.00		-8.40		3.529e-03		-34.264		1.441e-03		33.446
4		0.00		-8.80		2.242e-03		-28.978		9.412e-04		43.189
4		0.00		-9.20		2.046e-03		43.728		7.833e-04		68.120
4		0.00		-9.60		3.419e-03		105.700		1.263e-03		34.813
4		0.00		-10.00		5.196e-03		119.696		1.513e-03		18.062
4		0.00		-9.60		6.757e-03		127.781		1.588e-03		15.271
4		0.00		-9.20		6.612e-03		125.490		1.671e-03		13.547
4		0.00		-8.80		7.398e-03		120.519		1.701e-03		13.556
4		0.00		-8.40		7.473e-03		121.705		1.827e-03		11.671
4		0.00		-8.00		7.703e-03		119.186		1.899e-03		14.278
4		0.00		-7.60		7.545e-03		118.433		1.897e-03		14.723
4		0.00		-7.20		7.283e-03		123.937		1.882e-03		15.175
4		0.00		-6.80		7.370e-03		118.074		2.044e-03		15.618
4		0.00		-6.40		6.815e-03		118.887		2.058e-03		17.631
4		0.00		-6.00		7.010e-03		115.123		2.237e-03		20.049
4		0.00		-5.60		7.020e-03		118.462		1.881e-03		19.704
4		0.00		-5.20		6.906e-03		125.460		1.672e-03		15.136
4		0.00		-4.80		6.847e-03		124.166		1.829e-03		12.939
4		0.00		-4.40		6.722e-03		124.280		1.527e-03		14.017
4		0.00		-4.00		6.695e-03		119.984		1.498e-03		13.716
4		0.00		-3.60		6.767e-03		119.276		1.919e-03		16.548
4		0.00		-3.20		6.826e-03		121.915		1.695e-03		15.409
4		0.00		-2.80		6.751e-03		123.438		1.793e-03		16.860
4		0.00		-2.40		6.616e-03		120.754		1.838e-03		14.426
4		0.00		-2.00		6.262e-03		122.346		1.797e-03		18.496
4		0.00		-1.60		6.476e-03		118.842		1.971e-03		16.867
4		0.00		-1.20		6.280e-03		122.725		1.833e-03		20.071
4		0.00		-0.80		6.502e-03		121.677		1.749e-03		17.145
4		0.00		-0.40		6.601e-03		119.453		1.651e-03		17.716
5		0.00		0.00		6.732e-03		120.972		1.540e-03		15.360
5		0.00		0.40		6.761e-03		121.046		1.581e-03		15.994
5		0.00		0.80		6.752e-03		123.435		1.577e-03		13.418
5		0.00		1.20		6.108e-03		116.077		1.471e-03		14.134
5		0.00		1.60		5.820e-03		120.665		1.601e-03		15.279
5		0.00		2.00		5.706e-03		119.518		1.701e-03		17.978
5		0.00		2.40		5.085e-03		115.368		1.484e-03		18.989
5		0.00		2.80		4.451e-03		112.203		1.501e-03		27.543
5		0.00		3.20		3.985e-03		121.488		1.345e-03		22.013
5		0.00		3.60		3.292e-03		107.883		1.161e-03		41.271
5		0.00		4.00		2.606e-03		83.134		9.121e-04		64.312
5		0.00		4.40		1.853e-03		54.217		8.040e-04		70.234
5		0.00		4.80		1.740e-03		-2.479		6.396e-04		69.647
5		0.00		5.20		1.973e-03		-30.010		9.899e-04		57.466
5		0.00		5.60		2.069e-03		-54.480		8.683e-04		49.650
5		0.00		6.00		2.810e-03		-35.574		1.060e-03		41.362
5		0.00		6.40		3.107e-03		-52.123		1.192e-03		32.717
5		0.00		6.80		3.867e-03		-42.897		1.467e-03		24.400
5		0.00		7.20		4.298e-03		-50.018		1.415e-03		21.689
5		0.00		7.60		5.399e-03		-55.715		1.544e-03		18.447
5		0.00		8.00		7.190e-03		-49.592		1.542e-03		17.552
5		0.00		8.40		7.918e-03		-56.904		1.735e-03		14.275
5		0.00		8.80		9.600e-03		-51.952		1.698e-03		13.265
5		0.00		9.20		1.117e-02		-53.992		1.984e-03		11.753
5		0.00		9.60		1.326e-02		-49.406		2.281e-03		9.306
5		0.00		10.00		1.449e-02		-51.768		2.605e-03		8.775
5		0.00		9.60		1.597e-02		-51.322		3.207e-03		10.441
5		0.00		9.20		1.632e-02		-50.608		4.132e-03		9.300
5		0.00		8.80		1.645e-02		-49.975		4.231e-03		9.949
5		0.00		8.40		1.667e-02		-51.908		4.350e-03		12.926
5		0.00		8.00		1.670e-02		-49.977		3.783e-03		11.416
5		0.00		7.60		1.716e-02		-51.286		3.794e-03		11.375
5		0.00		7.20		1.686e-02		-49.752		3.604e-03		8.983
5		0.00		6.80		1.709e-02		-50.285		3.448e-03		8.309
5		0.00		6.40		1.704e-02		-52.046		3.215e-03		9.247
5		0.00		6.00		1.686e-02		-51.833		3.552e-03		7.992
5		0.00		5.60		1.629e-02		-48.718		3.239e-03		9.309
5		0.00		5.20		1.644e-02		-49.868		3.099e-03		9.390
5		0.00		4.80		1.648e-02		-52.061		3.602e-03		8.335
5		0.00		4.40		1.603e-02		-50.942		3.663e-03		9.390
5		0.00		4.00		1.620e-02		-49.350		3.447e-03		9.059
5		0.00		3.60		1.634e-02		-50.214		3.573e-03		10.957
5		0.00		3.20		1.630e-02		-49.763		3.132e-03		11.199
5		0.00		2.80		1.658e-02		-50.697		3.248e-03		9.489
5		0.00		2.40		1.637e-02		-50.403		2.470e-03		9.125
5		0.00		2.00		1.639e-02		-51.695		2.446e-03		10.258
5		0.00		1.60		1.598e-02		-48.999		2.837e-03		9.251
5		0.00		1.20		1.624e-02		-50.252		2.851e-03		9.718
5		0.00		0.80		1.605e-02		-52.429		3.204e-03		9.599
5		0.00		0.40		1.573e-02		-51.583		3.374e-03		10.220
5		0.00		0.00		1.519e-02		-48.064		3.798e-03		11.550
5		0.00		-0.40		1.522e-02		-49.399		3.597e-03		11.238
5		0.00		-0.80		1.504e-02		-46.246		3.439e-03		13.255
5		0.00		-1.20		1.543e-02		-49.818		3.175e-03		10.885
5		0.00		-1.60		1.503e-02		-49.195		2.978e-03		7.494
5		0.00		-2.00		1.482e-02		-47.753		2.491e-03		8.395
5		0.00		-2.40		1.452e-02		-49.988		2.392e-03		10.396
5		0.00		-2.80		1.459e-02		-48.777		2.482e-03		9.876
5		0.00		-3.20		1.381e-02		-50.223		2.517e-03		9.176
5		0.00		-3.60		1.311e-02		-51.785		2.893e-03		10.081
5		0.00		-4.00		1.242e-02		-49.393		2.720e-03		12.586
5		0.00		-4.40		1.239e-02		-48.503		2.879e-03		12.984
5		0.00		-4.80		1.171e-02		-47.353		2.603e-03		11.070
5		0.00		-5.20		1.141e-02		-48.577		2.354e-03		14.120
5		0.00		-5.60		1.070e-02		-51.929		2.384e-03		9.117
5		0.00		-6.00		9.947e-03		-52.458		1.975e-03		13.428
5		0.00		-6.40		9.102e-03		-51.260		1.866e-03		12.975
5		0.00		-6.80		7.878e-03		-43.995		1.790e-03		15.956
5		0.00		-7.20		6.927e-03		-43.450		1.766e-03		11.588
5		0.00		-7.60		5.229e-03		-50.920		1.531e-03		20.254
5		0.00		-8.00		4.007e-03		-39.204		1.356e-03		29.880
5		0.00		-8.40		2.634e-03		-41.752		1.189e-03		35.567
5		0.00		-8.80		1.764e-03		14.402		6.503e-04		72.960
5		0.00		-9.20		2.133e-03		60.192		8.748e-04		67.999
5		0.00		-9.60		3.049e-03		102.516		1.229e-03		47.744
5		0.00		-10.00		4.926e-03		110.359		1.502e-03		19.015
5		0.00		-9.60		6.252e-03		117.555		1.637e-03		14.830
5		0.00		-9.20		7.072e-03		120.913		2.048e-03		13.609
5		0.00		-8.80		7.331e-03		124.760		2.026e-03		12.973
5		0.00		-8.40		7.522e-03		122.337		2.000e-03		14.980
5		0.00		-8.00		7.496e-03		117.192		2.142e-03		16.472
5		0.00		-7.60		7.433e-03		122.965		2.046e-03		18.249
5		0.00		-7.20		7.564e-03		122.293		1.954e-03		12.113
5		0.00		-6.80		7.946e-03		128.967		1.918e-03		12.554
5		0.00		-6.40		7.578e-03		122.080		1.697e-03		11.256
5		0.00		-6.00		7.563e-03		125.771		1.469e-03		12.210
5		0.00		-5.60		7.349e-03		127.129		1.528e-03		11.874
5		0.00		-5.20		7.216e-03		125.637		1.569e-03		10.680
5		0.00		-4.80		7.220e-03		121.705		1.759e-03		12.347
5		0.00		-4.40		7.145e-03		120.205		1.964e-03		15.795
5		0.00		-4.00		6.791e-03		115.306		1.954e-03		23.821
5		0.00		-3.60		7.442e-03		118.529		1.852e-03		17.182
5		0.00		-3.20		6.956e-03		121.210		1.866e-03		19.378
5		0.00		-2.80		6.803e-03		125.822		1.671e-03		15.647
5		0.00		-2.40		7.277e-03		122.130		1.717e-03		12.995
5		0.00		-2.00		7.272e-03		122.160		1.709e-03		14.923
5		0.00		-1.60		6.995e-03		118.904		1.807e-03		13.142
5		0.00		-1.20		7.129e-03		121.553		1.354e-03		10.724
5		0.00		-0.80		6.895e-03		122.955		1.603e-03		13.047
5		0.00		-0.40		6.859e-03		119.869		1.857e-03		12.285
6		0.00		0.00		6.910e-03		124.950		1.929e-03		13.243
6		0.00		0.40		6.545e-03		121.628		1.954e-03		17.419
6		0.00		0.80		6.471e-03		118.519		1.842e-03		18.686
6		0.00		1.20		6.122e-03		116.820		1.891e-03		20.080
6		0.00		1.60		6.146e-03		123.498		1.767e-03		17.098
6		0.00		2.00		5.466e-03		120.819		1.492e-03		17.109
6		0.00		2.40		5.400e-03		124.584		1.419e-03		21.428
6		0.00		2.80		4.678e-03		125.339		1.505e-03		16.899
6		0.00		3.20		4.228e-03		117.984		1.365e-03		20.473
6		0.00		3.60		3.711e-03		111.416		1.235e-03		25.880
6		0.00		4.00		2.395e-03		90.562		9.976e-04		55.066
6		0.00		4.40		2.354e-03		70.904		9.758e-04		58.158
6		0.00		4.80		1.843e-03		36.532		7.164e-04		74.939
6		0.00		5.20		1.798e-03		-28.140		6.407e-04		67.309
6		0.00		5.60		2.002e-03		-36.803		8.774e-04		55.835
6		0.00		6.00		2.747e-03		-55.857		1.046e-03		32.835
6		0.00		6.40		3.235e-03		-47.753		1.062e-03		27.309
6		0.00		6.80		4.232e-03		-54.975		1.057e-03		19.562
6		0.00		7.20		4.928e-03		-51.146		1.372e-03		17.885
6		0.00		7.60		5.642e-03		-50.008		1.240e-03		13.028
6		0.00		8.00		6.423e-03		-54.383		1.504e-03		18.186
6		0.00		8.40		8.102e-03		-54.718		2.155e-03		10.704
6		0.00		8.80		9.150e-03		-54.221		2.506e-03		15.181
6		0.00		9.20		1.027e-02		-47.943		2.511e-03		11.052
6		0.00		9.60		1.209e-02		-52.506		2.479e-03		10.011
6		0.00		10.00		1.460e-02		-48.320		2.654e-03		10.573
6		0.00		9.60		1.509e-02		-48.822		2.578e-03		9.210
6		0.00		9.20		1.597e-02		-55.208		2.781e-03		9.370
6		0.00		8.80		1.620e-02		-50.344		2.903e-03		8.116
6		0.00		8.40		1.614e-02		-54.014		3.315e-03		9.158
6		0.00		8.00		1.606e-02		-49.686		3.503e-03		9.788
6		0.00		7.60		1.612e-02		-50.822		3.490e-03		10.768
6		0.00		7.20		1.589e-02		-50.653		3.360e-03		12.659
6		0.00		6.80		1.594e-02		-49.398		3.221e-03		9.857
6		0.00		6.40		1.623e-02		-50.761		2.803e-03		7.320
6		0.00		6.00		1.647e-02		-50.588		2.984e-03		7.607
6		0.00		5.60		1.576e-02		-49.982		3.176e-03		9.886
6		0.00		5.20		1.547e-02		-50.355		3.216e-03		8.547
6		0.00		4.80		1.531e-02		-52.013		3.668e-03		8.739
6		0.00		4.40		1.473e-02		-48.588		3.728e-03		12.342
6		0.00		4.00		1.473e-02		-48.345		3.856e-03		9.927
6		0.00		3.60		1.498e-02		-48.141		3.604e-03		11.714
6		0.00		3.20		1.485e-02		-49.071		3.534e-03		12.404
6		0.00		2.80		1.482e-02		-49.432		3.064e-03		11.310
6		0.00		2.40		1.492e-02		-50.283		2.850e-03		9.530
6		0.00		2.00		1.489e-02		-49.148		2.472e-03		9.325
6		0.00		1.60		1.477e-02		-48.365		2.478e-03		9.982
6		0.00		1.20		1.455e-02		-49.212		2.628e-03		8.060
6		0.00		0.80		1.448e-02		-49.124		2.854e-03		8.657
6		0.00		0.40		1.434e-02		-48.852		3.230e-03		9.934
6		0.00		0.00		1.450e-02		-51.183		3.427e-03		9.976
6		0.00		-0.40		1.460e-02		-51.606		3.259e-03		13.474
6		0.00		-0.80		1.455e-02		-50.803		3.164e-03		12.220
6		0.00		-1.20		1.431e-02		-49.594		3.082e-03		9.205
6		0.00		-1.60		1.408e-02		-48.475		3.025e-03		11.031
6		0.00		-2.00		1.367e-02		-47.700		3.020e-03		10.977
6		0.00		-2.40		1.344e-02		-49.648		2.577e-03		9.577
6		0.00		-2.80		1.322e-02		-46.492		2.152e-03		9.840
6		0.00		-3.20		1.334e-02		-50.170		2.526e-03		8.140
6		0.00		-3.60		1.271e-02		-50.288		2.455e-03		9.621
6		0.00		-4.00		1.210e-02		-52.471		2.442e-03		10.042
6		0.00		-4.40		1.171e-02		-47.931		2.575e-03		11.062
6		0.00		-4.80		1.117e-02		-50.050		2.527e-03		10.087
6		0.00		-5.20		1.072e-02		-46.628		2.630e-03		12.219
6		0.00		-5.60		1.008e-02		-45.834		2.395e-03		11.088
6		0.00		-6.00		9.148e-03		-49.219		2.339e-03		12.482
6		0.00		-6.40		8.072e-03		-39.841		2.142e-03		15.714
6		0.00		-6.80		7.205e-03		-52.393		1.799e-03		14.783
6		0.00		-7.20		5.955e-03		-44.409		1.488e-03		18.844
6		0.00		-7.60		4.945e-03		-44.183		1.285e-03		20.421
6		0.00		-8.00		3.537e-03		-43.942		1.119e-03		25.856
6		0.00		-8.40		2.142e-03		-21.573		8.627e-04		53.273
6		0.00		-8.80		1.732e-03		5.356		6.345e-04		70.735
6		0.00		-9.20		2.924e-03		79.977		1.171e-03		57.076
6		0.00		-9.60		4.168e-03		110.588		1.556e-03		29.745
6		0.00		-10.00		5.129e-03		121.598		1.436e-03		18.162
6		0.00		-9.60		6.120e-03		118.398		1.873e-03		17.643
6		0.00		-9.20		7.048e-03		120.314		1.922e-03		13.667
6		0.00		-8.80		7.083e-03		119.275		2.020e-03		16.511
6		0.00		-8.40		7.499e-03		122.196		2.411e-03		15.531
6		0.00		-8.00		7.155e-03		119.298		2.283e-03		21.393
6		0.00		-7.60		7.518e-03		123.873		2.078e-03		19.856
6		0.00		-7.20		7.253e-03		121.455		1.980e-03		21.148
6		0.00		-6.80		7.252e-03		120.798		2.106e-03		15.558
6		0.00		-6.40		7.285e-03		123.945		1.821e-03		13.994
6		0.00		-6.00		7.064e-03		124.814		1.900e-03		16.318
6		0.00		-5.60		6.936e-03		125.402		1.583e-03		12.471
6		0.00		-5.20		7.049e-03		124.510		1.590e-03		12.972
6		0.00		-4.80		7.052e-03		121.118		1.585e-03		13.065
6		0.00		-4.40		7.073e-03		120.124		1.688e-03		13.943
6		0.00		-4.00		6.556e-03		120.873		1.332e-03		14.737
6		0.00		-3.60		6.392e-03		124.210		1.881e-03		13.719
6		0.00		-3.20		6.613e-03		124.595		1.617e-03		14.628
6		0.00		-2.80		6.542e-03		119.272		1.911e-03		11.899
6		0.00		-2.40		6.587e-03		123.762		1.770e-03		17.069
6		0.00		-2.00		6.556e-03		119.088		1.718e-03		13.889
6		0.00		-1.60		6.662e-03		120.004		1.925e-03		18.768
6		0.00		-1.20		6.269e-03		120.878		1.846e-03		17.560
6		0.00		-0.80		6.515e-03		122.746		1.712e-03		20.506
6		0.00		-0.40		6.866e-03		121.680		1.731e-03		18.525
7		0.00		0.00		6.873e-03		122.486		1.796e-03		16.622
7		0.00		0.40		6.596e-03		125.233		1.796e-03		15.577
7		0.00		0.80		6.786e-03		123.156		1.584e-03		14.241
7		0.00		1.20		6.337e-03		118.955		1.631e-03		16.285
7		0.00		1.60		6.371e-03		120.750		1.439e-03		13.851
7		0.00		2.00		5.945e-03		125.324		1.598e-03		18.548
7		0.00		2.40		5.198e-03		121.967		1.518e-03		16.292
7		0.00		2.80		4.948e-03		117.759		1.276e-03		21.145
7		0.00		3.20		4.107e-03		113.354		1.418e-03		23.894
7		0.00		3.60		3.352e-03		104.994		1.172e-03		40.832
7		0.00		4.00		2.974e-03		104.933		1.128e-03		40.023
7		0.00		4.40		2.113e-03		71.288		8.402e-04		64.549
7		0.00		4.80		1.768e-03		38.942		7.522e-04		66.659
7		0.00		5.20		1.667e-03		-14.381		6.710e-04		63.137
7		0.00		5.60		1.954e-03		-39.096		8.749e-04		57.215
7		0.00		6.00		2.530e-03		-45.003		1.090e-03		38.619
7		0.00		6.40		2.885e-03		-37.900		1.175e-03		42.432
7		0.00		6.80		3.632e-03		-57.059		1.120e-03		23.367
7		0.00		7.20		4.884e-03		-53.929		1.398e-03		19.047
7		0.00		7.60		5.294e-03		-49.574		1.390e-03		23.220
7		0.00		8.00		6.353e-03		-53.303		1.522e-03		14.694
7		0.00		8.40		7.556e-03		-51.368		1.787e-03		12.935
7		0.00		8.80		8.971e-03		-47.395		2.180e-03		13.575
7		0.00		9.20		1.053e-02		-53.578		2.670e-03		11.627
7		0.00		9.60		1.224e-02		-50.634		3.143e-03		10.615
7		0.00		10.00		1.367e-02		-48.718		3.503e-03		10.079
7		0.00		9.60		1.408e-02		-50.781		3.493e-03		13.385
7		0.00		9.20		1.511e-02		-50.357		3.765e-03		10.620
7		0.00		8.80		1.574e-02		-50.490		3.731e-03		10.344
7		0.00		8.40		1.597e-02		-52.027		3.565e-03		12.388
7		0.00		8.00		1.589e-02		-47.640		3.294e-03		9.119
7		0.00		7.60		1.612e-02		-48.175		3.226e-03		9.187
7		0.00		7.20		1.626e-02		-51.045		3.169e-03		10.538
7		0.00		6.80		1.582e-02		-51.920		3.111e-03		8.687
7		0.00		6.40		1.580e-02		-52.659		3.126e-03		9.362
7		0.00		6.00		1.557e-02		-51.285		2.983e-03		8.348
7		0.00		5.60		1.547e-02		-50.330		3.031e-03		7.838
7		0.00		5.20		1.576e-02		-53.496		3.144e-03		9.361
7		0.00		4.80		1.569e-02		-50.296		2.975e-03		8.929
7		0.00		4.40		1.505e-02		-50.668		3.081e-03		9.607
7		0.00		4.00		1.477e-02		-50.622		3.364e-03		8.993
7		0.00		3.60		1.478e-02		-51.186		3.307e-03		9.396
7		0.00		3.20		1.478e-02		-50.183		3.368e-03		10.291
7		0.00		2.80		1.464e-02		-51.832		3.414e-03		10.143
7		0.00		2.40		1.418e-02		-49.382		3.619e-03		11.473
7		0.00		2.00		1.476e-02		-48.527		3.607e-03		10.422
7		0.00		1.60		1.395e-02		-48.893		3.504e-03		11.402
7		0.00		1.20		1.413e-02		-48.983		3.476e-03		12.372
7		0.00		0.80		1.407e-02		-49.208		3.445e-03		11.477
7		0.00		0.40		1.411e-02		-45.568		3.441e-03		11.280
7		0.00		0.00		1.401e-02		-44.713		3.278e-03		9.111
7		0.00		-0.40		1.399e-02		-48.869		2.960e-03		9.125
7		0.00		-0.80		1.411e-02		-51.038		2.985e-03		9.557
7		0.00		-1.20		1.382e-02		-50.897		2.642e-03		10.160
7		0.00		-1.60		1.398e-02		-50.408		2.661e-03		8.911
7		0.00		-2.00		1.395e-02		-50.780		2.522e-03		9.192
7		0.00		-2.40		1.369e-02		-48.748		2.303e-03		8.744
7		0.00		-2.80		1.342e-02		-51.923		2.350e-03		9.645
7		0.00		-3.20		1.271e-02		-51.116		2.260e-03		11.833
7		0.00		-3.60		1.207e-02		-44.858		2.182e-03		9.012
7		0.00		-4.00		1.151e-02		-46.204		2.173e-03		10.863
7		0.00		-4.40		1.124e-02		-49.900		2.455e-03		11.866
7		0.00		-4.80		1.077e-02		-47.250		2.366e-03		10.588
7		0.00		-5.20		1.031e-02		-48.794		2.403e-03		9.894
7		0.00		-5.60		9.560e-03		-46.028		2.299e-03		13.678
7		0.00		-6.00		8.625e-03		-49.553		2.115e-03		13.667
7		0.00		-6.40		7.874e-03		-51.166		2.097e-03		16.206
7		0.00		-6.80		7.085e-03		-52.303		1.848e-03		15.526
7		0.00		-7.20		5.857e-03		-54.468		1.713e-03		16.709
7		0.00		-7.60		4.526e-03		-39.069		1.382e-03		20.104
7		0.00		-8.00		3.564e-03		-47.294		1.366e-03		33.512
7		0.00		-8.40		2.894e-03		-31.607		1.146e-03		37.463
7		0.00		-8.80		1.714e-03		19.886		6.457e-04		64.102
7		0.00		-9.20		2.490e-03		70.989		1.063e-03		65.558
7		0.00		-9.60		3.431e-03		94.193		1.210e-03		51.221
7		0.00		-10.00		5.399e-03		110.925		1.532e-03		20.254
7		0.00		-9.60		5.992e-03		120.195		1.602e-03		15.409
7		0.00		-9.20		6.483e-03		120.906		1.398e-03		13.512
7		0.00		-8.80		6.820e-03		123.879		1.776e-03		13.572
7		0.00		-8.40		7.301e-03		120.491		1.735e-03		13.878
7		0.00		-8.00		7.099e-03		124.143		1.630e-03		14.118
7		0.00		-7.60		7.081e-03		118.537		1.888e-03		17.636
7		0.00		-7.20		7.035e-03		120.701		1.917e-03		13.930
7		0.00		-6.80		6.740e-03		121.847		2.087e-03		15.072
7		0.00		-6.40		6.389e-03		115.810		1.829e-03		18.649
7		0.00		-6.00		6.343e-03		120.866		2.027e-03		18.068
7		0.00		-5.60		6.445e-03		114.140		2.072e-03		25.896
7		0.00		-5.20		6.239e-03		112.852		1.938e-03		17.166
7		0.00		-4.80		6.359e-03		120.955		1.910e-03		19.003
7		0.00		-4.40		6.081e-03		115.998		1.879e-03		19.197
7		0.00		-4.00		6.324e-03		118.477		1.969e-03		20.437
7		0.00		-3.60		6.112e-03		121.970		1.855e-03		20.593
7		0.00		-3.20		6.058e-03		121.061		1.627e-03		21.393
7		0.00		-2.80		6.134e-03		121.623		1.703e-03		17.750
7		0.00		-2.40		6.022e-03		124.742		1.508e-03		16.386
7		0.00		-2.00		6.140e-03		121.816		1.626e-03		17.589
7		0.00		-1.60		6.288e-03		125.991		1.870e-03		15.062
7		0.00		-1.20		6.015e-03		120.935		1.601e-03		17.630
7		0.00		-0.80		5.978e-03		122.321		1.539e-03		13.246
7		0.00		-0.40		6.194e-03		120.679		1.641e-03		15.380
8		0.00		0.00		6.108e-03		124.048		1.646e-03		15.778
8		0.00		0.40		5.767e-03		128.074		1.412e-03		15.640
8		0.00		0.80		6.033e-03		120.661		1.581e-03		14.513
8		0.00		1.20		5.701e-03		123.340		1.502e-03		16.143
8		0.00		1.60		5.437e-03		124.499		1.473e-03		15.315
8		0.00		2.00		5.061e-03		122.077		1.422e-03		17.243
8		0.00		2.40		5.091e-03		123.050		1.503e-03		20.463
8		0.00		2.80		4.758e-03		127.828		1.164e-03		18.361
8		0.00		3.20		4.176e-03		115.982		1.275e-03		33.953
8		0.00		3.60		3.199e-03		111.002		1.130e-03		35.950
8		0.00		4.00		2.798e-03		91.948		1.133e-03		67.154
8		0.00		4.40		2.050e-03		72.232		8.277e-04		59.437
8		0.00		4.80		1.934e-03		32.597		8.765e-04		75.706
8		0.00		5.20		1.838e-03		-29.295		7.583e-04		62.606
8		0.00		5.60		2.143e-03		-53.693		7.874e-04		48.694
8		0.00		6.00		2.697e-03		-46.133		1.025e-03		43.676
8		0.00		6.40		3.192e-03		-54.254		1.168e-03		28.602
8		0.00		6.80		4.241e-03		-53.797		1.199e-03		19.494
8		0.00		7.20		4.732e-03		-57.905		1.284e-03		18.764
8		0.00		7.60		5.001e-03		-41.736		1.396e-03		17.823
8		0.00		8.00		6.358e-03		-50.757		1.727e-03		16.773
8		0.00		8.40		7.220e-03		-50.129		1.726e-03		12.012
8		0.00		8.80		8.458e-03		-56.722		2.359e-03		16.831
8		0.00		9.20		9.975e-03		-53.508		2.646e-03		10.464
8		0.00		9.60		1.103e-02		-51.600		2.811e-03		9.125
8		0.00		10.00		1.286e-02		-51.151		3.266e-03		11.021
8		0.00		9.60		1.424e-02		-52.650		3.882e-03		8.650
8		0.00		9.20		1.443e-02		-50.783		3.777e-03		10.425
8		0.00		8.80		1.482e-02		-55.558		3.953e-03		12.734
8		0.00		8.40		1.505e-02		-52.567		3.925e-03		12.150
8		0.00		8.00		1.529e-02		-48.237		3.821e-03		10.245
8		0.00		7.60		1.523e-02		-50.140		3.558e-03		11.339
8		0.00		7.20		1.520e-02		-49.214		3.735e-03		12.538
8		0.00		6.80		1.493e-02		-51.592		3.147e-03		13.512
8		0.00		6.40		1.494e-02		-49.591		3.258e-03		14.581
8		0.00		6.00		1.516e-02		-49.516		3.131e-03		10.799
8		0.00		5.60		1.515e-02		-49.058		3.008e-03		12.870
8		0.00		5.20		1.473e-02		-51.771		3.122e-03		11.824
8		0.00		4.80		1.512e-02		-48.275		3.029e-03		11.593
8		0.00		4.40		1.422e-02		-52.025		3.024e-03		10.705
8		0.00		4.00		1.423e-02		-46.943		2.814e-03		11.084
8		0.00		3.60		1.449e-02		-49.994		2.945e-03		8.877
8		0.00		3.20		1.454e-02		-48.135		2.674e-03		8.883
8		0.00		2.80		1.400e-02		-52.543		2.738e-03		9.563
8		0.00		2.40		1.419e-02		-51.167		2.553e-03		9.212
8		0.00		2.00		1.425e-02		-50.030		2.325e-03		7.912
8		0.00		1.60		1.450e-02		-50.443		2.736e-03		9.921
8		0.00		1.20		1.422e-02		-48.875		2.351e-03		8.555
8		0.00		0.80		1.430e-02		-50.304		2.553e-03		8.409
8		0.00		0.40		1.414e-02		-48.303		2.554e-03		8.873
8		0.00		0.00		1.440e-02		-52.369		2.662e-03		7.850
8		0.00		-0.40		1.425e-02		-49.429		2.352e-03		9.214
8		0.00		-0.80		1.407e-02		-46.500		2.406e-03		10.233
8		0.00		-1.20		1.413e-02		-49.528		2.369e-03		8.465
8		0.00		-1.60		1.353e-02		-49.423		2.428e-03		10.578
8		0.00		-2.00		1.334e-02		-46.138		2.420e-03		8.674
8		0.00		-2.40		1.262e-02		-49.928		2.537e-03		9.930
8		0.00		-2.80		1.263e-02		-48.413		2.423e-03		8.215
8		0.00		-3.20		1.213e-02		-51.008		2.713e-03		10.021
8		0.00		-3.60		1.175e-02		-49.979		2.863e-03		11.546
8		0.00		-4.00		1.110e-02		-49.346		2.884e-03		9.737
8		0.00		-4.40		1.059e-02		-47.961		2.710e-03		13.299
8		0.00		-4.80		1.020e-02		-48.942		2.508e-03		12.029
8		0.00		-5.20		9.539e-03		-46.444		2.446e-03		12.385
8		0.00		-5.60		9.108e-03		-50.125		2.425e-03		12.004
8		0.00		-6.00		8.837e-03		-49.965		2.458e-03		13.249
8		0.00		-6.40		7.905e-03		-49.585		2.300e-03		15.978
8		0.00		-6.80		7.172e-03		-47.233		1.998e-03		12.973
8		0.00		-7.20		6.012e-03		-50.671		1.666e-03		19.781
8		0.00		-7.60		4.888e-03		-42.524		1.486e-03		24.159
8		0.00		-8.00		3.534e-03		-41.111		1.235e-03		32.907
8		0.00		-8.40		2.489e-03		-57.752		9.994e-04		43.970
8		0.00		-8.80		1.815e-03		-6.371		6.437e-04		69.937
8		0.00		-9.20		2.299e-03		72.619		9.855e-04		59.543
8		0.00		-9.60		3.606e-03		103.043		1.421e-03		32.655
8		0.00		-10.00		5.663e-03		111.833		1.881e-03		29.498
8		0.00		-9.60		6.791e-03		121.685		1.688e-03		17.253
8		0.00		-9.20		8.124e-03		119.849		2.029e-03		14.886
8		0.00		-8.80		8.091e-03		122.992		2.105e-03		14.326
8		0.00		-8.40		7.927e-03		121.020		2.285e-03		12.883
8		0.00		-8.00		7.699e-03		122.140		2.121e-03		15.530
8		0.00		-7.60		8.008e-03		124.070		2.122e-03		14.007
8		0.00		-7.20		8.299e-03		120.635		2.142e-03		14.293
8		0.00		-6.80		8.025e-03		123.887		1.984e-03		18.098
8		0.00		-6.40		7.692e-03		118.886		2.031e-03		17.372
8		0.00		-6.00		7.733e-03		125.137		1.941e-03		19.995
8		0.00		-5.60		7.189e-03		123.800		1.936e-03		15.530
8		0.00		-5.20		7.666e-03		121.866		1.794e-03		14.108
8		0.00		-4.80		7.274e-03		125.840		1.761e-03		12.377
8		0.00		-4.40		7.449e-03		122.954		1.753e-03		14.412
8		0.00		-4.00		7.177e-03		124.058		1.643e-03		13.958
8		0.00		-3.60		7.316e-03		119.469		1.651e-03		14.251
8		0.00		-3.20		7.393e-03		127.374		1.658e-03		13.251
8		0.00		-2.80		7.321e-03		125.454		1.726e-03		13.118
8		0.00		-2.40		7.129e-03		122.653		1.689e-03		14.814
8		0.00		-2.00		7.149e-03		123.974		1.416e-03		12.954
8		0.00		-1.60		7.184e-03		122.494		1.748e-03		12.512
8		0.00		-1.20		6.706e-03		125.440		1.628e-03		16.206
8		0.00		-0.80		7.040e-03		118.372		1.876e-03		16.600
8		0.00		-0.40		6.893e-03		120.805		1.766e-03		14.590
