# Date of analysis: 2023-11-20 16;19
# 
# Loop index	Read Volt (V)	Write Volt (V)	Amplitude (a.u)	Phase (deg)	Sigma Amp (a.u)	Sigma Pha (deg)	
1		0.00		0.00		3.303e-02		-51.893		5.934e-03		7.981
1		0.00		0.40		3.329e-02		-52.689		5.905e-03		7.954
1		0.00		0.80		3.322e-02		-51.659		5.774e-03		7.489
1		0.00		1.20		3.257e-02		-51.315		5.895e-03		8.349
1		0.00		1.60		3.232e-02		-51.273		6.189e-03		7.824
1		0.00		2.00		3.242e-02		-51.910		6.900e-03		6.892
1		0.00		2.40		3.209e-02		-52.533		6.977e-03		7.441
1		0.00		2.80		3.275e-02		-52.741		7.515e-03		7.718
1		0.00		3.20		3.224e-02		-52.864		7.115e-03		7.461
1		0.00		3.60		3.269e-02		-51.938		7.363e-03		7.413
1		0.00		4.00		3.333e-02		-51.427		7.359e-03		6.935
1		0.00		4.40		3.377e-02		-52.877		7.690e-03		7.188
1		0.00		4.80		3.400e-02		-52.222		7.419e-03		6.405
1		0.00		5.20		3.496e-02		-53.006		7.482e-03		6.953
1		0.00		5.60		3.619e-02		-52.440		7.397e-03		6.794
1		0.00		6.00		3.684e-02		-52.952		7.097e-03		7.442
1		0.00		6.40		3.696e-02		-52.538		6.766e-03		5.830
1		0.00		6.80		3.823e-02		-52.960		7.304e-03		6.296
1		0.00		7.20		3.953e-02		-52.101		7.372e-03		6.872
1		0.00		7.60		4.126e-02		-52.348		7.815e-03		5.309
1		0.00		8.00		4.280e-02		-51.865		7.968e-03		7.578
1		0.00		8.40		4.461e-02		-52.676		8.416e-03		6.921
1		0.00		8.80		4.671e-02		-52.378		9.085e-03		6.694
1		0.00		9.20		4.970e-02		-52.748		9.556e-03		6.680
1		0.00		9.60		5.043e-02		-51.894		1.051e-02		8.490
1		0.00		10.00		5.334e-02		-50.613		1.085e-02		7.533
1		0.00		9.60		5.230e-02		-51.115		1.024e-02		8.609
1		0.00		9.20		5.444e-02		-50.276		1.176e-02		9.463
1		0.00		8.80		5.401e-02		-50.099		1.181e-02		9.282
1		0.00		8.40		5.474e-02		-52.140		1.157e-02		7.728
1		0.00		8.00		5.463e-02		-50.153		1.115e-02		7.410
1		0.00		7.60		5.484e-02		-52.338		1.154e-02		7.794
1		0.00		7.20		5.289e-02		-50.820		1.094e-02		8.660
1		0.00		6.80		5.444e-02		-51.578		1.188e-02		8.247
1		0.00		6.40		5.277e-02		-50.783		9.641e-03		6.771
1		0.00		6.00		5.250e-02		-50.871		9.717e-03		6.782
1		0.00		5.60		5.243e-02		-51.144		1.028e-02		7.106
1		0.00		5.20		5.134e-02		-51.073		1.045e-02		7.731
1		0.00		4.80		5.156e-02		-50.956		1.022e-02		8.514
1		0.00		4.40		5.158e-02		-50.746		9.504e-03		7.438
1		0.00		4.00		5.085e-02		-50.722		1.001e-02		7.016
1		0.00		3.60		5.136e-02		-52.346		1.055e-02		8.998
1		0.00		3.20		5.063e-02		-51.053		1.032e-02		9.137
1		0.00		2.80		4.977e-02		-50.630		1.027e-02		7.273
1		0.00		2.40		4.955e-02		-50.769		1.130e-02		8.449
1		0.00		2.00		4.891e-02		-51.145		1.065e-02		7.663
1		0.00		1.60		4.893e-02		-52.184		1.127e-02		8.638
1		0.00		1.20		4.835e-02		-51.483		1.128e-02		6.694
1		0.00		0.80		4.782e-02		-52.086		1.084e-02		9.370
1		0.00		0.40		4.738e-02		-52.252		1.145e-02		9.421
1		0.00		0.00		4.675e-02		-50.913		1.128e-02		8.911
1		0.00		-0.40		4.730e-02		-52.635		1.119e-02		10.935
1		0.00		-0.80		4.698e-02		-51.117		1.038e-02		7.255
1		0.00		-1.20		4.538e-02		-49.833		9.604e-03		9.286
1		0.00		-1.60		4.590e-02		-51.284		1.001e-02		8.129
1		0.00		-2.00		4.438e-02		-51.764		9.617e-03		7.775
1		0.00		-2.40		4.187e-02		-51.442		9.400e-03		7.780
1		0.00		-2.80		3.982e-02		-50.898		8.999e-03		8.775
1		0.00		-3.20		3.681e-02		-51.088		8.410e-03		9.401
1		0.00		-3.60		3.235e-02		-49.783		7.790e-03		9.213
1		0.00		-4.00		2.840e-02		-51.053		6.555e-03		10.477
1		0.00		-4.40		2.302e-02		-50.257		5.963e-03		10.299
1		0.00		-4.80		2.027e-02		-48.034		5.429e-03		12.841
1		0.00		-5.20		1.551e-02		-46.648		4.264e-03		13.673
1		0.00		-5.60		1.179e-02		-46.283		3.484e-03		15.891
1		0.00		-6.00		7.521e-03		-44.969		2.643e-03		20.978
1		0.00		-6.40		4.133e-03		-46.231		1.694e-03		25.309
1		0.00		-6.80		2.065e-03		13.198		9.284e-04		51.163
1		0.00		-7.20		3.926e-03		96.639		1.707e-03		37.097
1		0.00		-7.60		6.060e-03		113.864		1.801e-03		23.211
1		0.00		-8.00		8.425e-03		116.114		2.444e-03		18.617
1		0.00		-8.40		1.101e-02		120.475		3.109e-03		14.946
1		0.00		-8.80		1.295e-02		123.404		3.396e-03		13.459
1		0.00		-9.20		1.478e-02		120.780		3.986e-03		11.746
1		0.00		-9.60		1.691e-02		122.606		4.265e-03		10.995
1		0.00		-10.00		1.775e-02		123.505		4.178e-03		11.286
1		0.00		-9.60		1.850e-02		123.830		4.371e-03		9.867
1		0.00		-9.20		1.828e-02		125.281		4.175e-03		10.841
1		0.00		-8.80		1.806e-02		126.063		3.664e-03		9.679
1		0.00		-8.40		1.856e-02		122.899		3.779e-03		10.961
1		0.00		-8.00		1.831e-02		125.097		3.567e-03		10.434
1		0.00		-7.60		1.766e-02		124.206		3.640e-03		9.517
1		0.00		-7.20		1.653e-02		122.243		3.444e-03		10.186
1		0.00		-6.80		1.606e-02		123.172		3.458e-03		9.846
1		0.00		-6.40		1.546e-02		122.976		3.181e-03		11.090
1		0.00		-6.00		1.513e-02		123.336		3.405e-03		9.559
1		0.00		-5.60		1.370e-02		123.667		3.267e-03		11.365
1		0.00		-5.20		1.281e-02		125.136		2.975e-03		12.530
1		0.00		-4.80		1.247e-02		122.572		2.809e-03		13.818
1		0.00		-4.40		1.257e-02		121.585		3.049e-03		12.896
1		0.00		-4.00		1.158e-02		125.851		2.733e-03		13.067
1		0.00		-3.60		1.124e-02		126.264		2.329e-03		11.637
1		0.00		-3.20		1.054e-02		123.596		2.329e-03		14.700
1		0.00		-2.80		9.980e-03		119.592		2.137e-03		13.434
1		0.00		-2.40		9.502e-03		124.043		2.229e-03		15.361
1		0.00		-2.00		8.827e-03		121.626		2.222e-03		17.983
1		0.00		-1.60		8.295e-03		125.041		2.310e-03		16.771
1		0.00		-1.20		8.283e-03		117.475		2.134e-03		19.235
1		0.00		-0.80		7.932e-03		119.741		2.193e-03		17.313
1		0.00		-0.40		7.545e-03		124.090		1.914e-03		22.217
2		0.00		0.00		7.293e-03		122.417		2.112e-03		19.436
2		0.00		0.40		6.557e-03		119.521		1.816e-03		19.270
2		0.00		0.80		6.532e-03		117.538		1.977e-03		22.362
2		0.00		1.20		5.713e-03		119.534		2.006e-03		23.634
2		0.00		1.60		4.574e-03		112.521		1.633e-03		28.481
2		0.00		2.00		4.127e-03		107.808		1.399e-03		46.632
2		0.00		2.40		3.179e-03		97.097		1.201e-03		41.514
2		0.00		2.80		2.462e-03		85.698		1.222e-03		44.248
2		0.00		3.20		1.870e-03		47.868		8.492e-04		76.436
2		0.00		3.60		1.774e-03		-12.893		7.812e-04		74.437
2		0.00		4.00		2.121e-03		-52.617		9.124e-04		49.926
2		0.00		4.40		2.936e-03		-45.550		1.160e-03		37.616
2		0.00		4.80		4.665e-03		-51.610		1.533e-03		23.677
2		0.00		5.20		5.579e-03		-52.782		1.552e-03		20.550
2		0.00		5.60		7.113e-03		-53.925		1.572e-03		18.771
2		0.00		6.00		9.432e-03		-50.162		2.052e-03		15.843
2		0.00		6.40		1.235e-02		-49.472		2.270e-03		13.898
2		0.00		6.80		1.491e-02		-52.848		2.471e-03		11.143
2		0.00		7.20		1.857e-02		-51.527		3.185e-03		10.525
2		0.00		7.60		2.167e-02		-51.068		3.775e-03		9.582
2		0.00		8.00		2.624e-02		-52.288		4.640e-03		8.923
2		0.00		8.40		3.000e-02		-52.138		5.628e-03		7.845
2		0.00		8.80		3.474e-02		-52.479		6.646e-03		6.416
2		0.00		9.20		3.979e-02		-51.753		7.903e-03		6.795
2		0.00		9.60		4.403e-02		-52.068		9.189e-03		7.901
2		0.00		10.00		4.854e-02		-53.353		1.023e-02		8.653
2		0.00		9.60		5.027e-02		-51.319		1.117e-02		6.696
2		0.00		9.20		5.046e-02		-50.905		1.055e-02		6.925
2		0.00		8.80		5.101e-02		-51.229		1.074e-02		6.669
2		0.00		8.40		4.920e-02		-50.799		1.130e-02		9.498
2		0.00		8.00		5.002e-02		-51.895		1.098e-02		8.604
2		0.00		7.60		4.920e-02		-50.723		1.062e-02		6.615
2		0.00		7.20		5.011e-02		-50.952		1.073e-02		8.461
2		0.00		6.80		4.838e-02		-50.301		1.079e-02		6.992
2		0.00		6.40		4.837e-02		-51.012		1.117e-02		8.704
2		0.00		6.00		4.750e-02		-50.842		1.085e-02		8.511
2		0.00		5.60		4.729e-02		-50.590		1.075e-02		7.103
2		0.00		5.20		4.666e-02		-51.912		1.102e-02		10.283
2		0.00		4.80		4.682e-02		-52.672		1.073e-02		8.974
2		0.00		4.40		4.641e-02		-53.024		1.146e-02		8.749
2		0.00		4.00		4.546e-02		-51.709		1.182e-02		9.136
2		0.00		3.60		4.485e-02		-53.089		1.170e-02		9.153
2		0.00		3.20		4.440e-02		-54.323		1.184e-02		10.082
2		0.00		2.80		4.324e-02		-53.873		1.179e-02		10.259
2		0.00		2.40		4.345e-02		-53.252		1.172e-02		9.953
2		0.00		2.00		4.369e-02		-52.695		1.171e-02		8.562
2		0.00		1.60		4.416e-02		-54.117		1.158e-02		8.936
2		0.00		1.20		4.335e-02		-53.144		1.103e-02		8.202
2		0.00		0.80		4.328e-02		-52.894		1.093e-02		7.955
2		0.00		0.40		4.317e-02		-52.209		1.009e-02		8.110
2		0.00		0.00		4.416e-02		-54.297		9.594e-03		7.881
2		0.00		-0.40		4.404e-02		-52.703		8.800e-03		6.822
2		0.00		-0.80		4.370e-02		-52.776		8.277e-03		6.837
2		0.00		-1.20		4.317e-02		-52.000		7.906e-03		6.017
2		0.00		-1.60		4.344e-02		-51.637		7.753e-03		6.996
2		0.00		-2.00		4.265e-02		-52.483		7.220e-03		5.579
2		0.00		-2.40		4.142e-02		-51.815		7.360e-03		7.841
2		0.00		-2.80		3.944e-02		-51.691		6.889e-03		6.743
2		0.00		-3.20		3.759e-02		-51.018		6.098e-03		6.863
2		0.00		-3.60		3.390e-02		-52.370		5.850e-03		8.868
2		0.00		-4.00		3.044e-02		-51.417		5.661e-03		7.969
2		0.00		-4.40		2.709e-02		-48.414		5.299e-03		9.780
2		0.00		-4.80		2.238e-02		-50.010		4.643e-03		9.525
2		0.00		-5.20		1.841e-02		-48.492		3.876e-03		11.216
2		0.00		-5.60		1.457e-02		-48.000		3.575e-03		11.846
2		0.00		-6.00		1.076e-02		-48.714		2.926e-03		13.440
2		0.00		-6.40		6.576e-03		-47.398		2.032e-03		19.881
2		0.00		-6.80		3.682e-03		-42.648		1.568e-03		30.454
2		0.00		-7.20		2.063e-03		6.191		8.886e-04		61.811
2		0.00		-7.60		3.128e-03		94.809		1.246e-03		46.064
2		0.00		-8.00		5.799e-03		109.371		1.895e-03		18.063
2		0.00		-8.40		7.801e-03		116.848		2.242e-03		19.764
2		0.00		-8.80		1.014e-02		117.882		2.522e-03		18.992
2		0.00		-9.20		1.141e-02		123.677		2.843e-03		18.998
2		0.00		-9.60		1.369e-02		122.988		3.417e-03		15.307
2		0.00		-10.00		1.451e-02		120.017		3.596e-03		16.800
2		0.00		-9.60		1.484e-02		122.330		3.868e-03		14.001
2		0.00		-9.20		1.488e-02		123.009		3.858e-03		14.722
2		0.00		-8.80		1.453e-02		122.485		4.070e-03		17.368
2		0.00		-8.40		1.447e-02		121.353		3.980e-03		17.375
2		0.00		-8.00		1.442e-02		122.400		4.056e-03		13.979
2		0.00		-7.60		1.373e-02		119.769		3.787e-03		18.202
2		0.00		-7.20		1.329e-02		118.031		3.776e-03		16.091
2		0.00		-6.80		1.281e-02		119.951		3.510e-03		13.682
2		0.00		-6.40		1.225e-02		123.010		3.250e-03		12.950
2		0.00		-6.00		1.156e-02		119.466		3.191e-03		13.725
2		0.00		-5.60		1.111e-02		122.395		3.032e-03		13.950
2		0.00		-5.20		1.043e-02		123.859		2.810e-03		12.802
2		0.00		-4.80		1.020e-02		120.298		2.801e-03		15.468
2		0.00		-4.40		9.559e-03		118.994		2.402e-03		14.326
2		0.00		-4.00		8.704e-03		122.509		2.302e-03		12.530
2		0.00		-3.60		8.685e-03		122.759		2.056e-03		14.463
2		0.00		-3.20		7.758e-03		116.916		1.853e-03		12.391
2		0.00		-2.80		7.794e-03		123.325		2.036e-03		13.986
2		0.00		-2.40		7.297e-03		120.175		1.433e-03		16.891
2		0.00		-2.00		6.811e-03		121.644		1.884e-03		16.903
2		0.00		-1.60		6.520e-03		122.751		1.643e-03		17.931
2		0.00		-1.20		6.056e-03		121.279		1.583e-03		19.703
2		0.00		-0.80		5.674e-03		116.589		1.490e-03		18.761
2		0.00		-0.40		5.670e-03		116.672		1.535e-03		16.432
3		0.00		0.00		4.828e-03		119.945		1.554e-03		21.074
3		0.00		0.40		4.565e-03		119.156		1.605e-03		27.918
3		0.00		0.80		3.683e-03		108.861		1.282e-03		41.880
3		0.00		1.20		3.720e-03		112.799		1.266e-03		28.223
3		0.00		1.60		3.077e-03		99.905		1.178e-03		43.549
3		0.00		2.00		2.733e-03		96.340		1.081e-03		53.647
3		0.00		2.40		2.160e-03		47.146		8.838e-04		85.629
3		0.00		2.80		1.704e-03		-7.110		6.984e-04		71.538
3		0.00		3.20		2.136e-03		-51.234		9.437e-04		55.327
3		0.00		3.60		2.739e-03		-43.894		1.239e-03		45.012
3		0.00		4.00		3.554e-03		-53.297		1.335e-03		26.425
3		0.00		4.40		4.626e-03		-61.877		1.547e-03		19.555
3		0.00		4.80		5.911e-03		-47.313		1.693e-03		19.510
3		0.00		5.20		7.342e-03		-53.033		1.780e-03		17.866
3		0.00		5.60		9.109e-03		-49.140		2.272e-03		17.148
3		0.00		6.00		1.060e-02		-50.118		2.574e-03		15.045
3		0.00		6.40		1.357e-02		-52.778		3.110e-03		12.979
3		0.00		6.80		1.509e-02		-49.585		3.554e-03		11.569
3		0.00		7.20		1.788e-02		-53.218		4.185e-03		12.233
3		0.00		7.60		2.102e-02		-50.383		5.263e-03		10.964
3		0.00		8.00		2.399e-02		-52.235		6.112e-03		10.102
3		0.00		8.40		2.745e-02		-52.754		6.911e-03		9.015
3		0.00		8.80		3.119e-02		-53.186		7.824e-03		9.041
3		0.00		9.20		3.474e-02		-54.180		8.666e-03		8.546
3		0.00		9.60		3.894e-02		-52.768		1.053e-02		9.210
3		0.00		10.00		4.304e-02		-52.957		1.163e-02		8.940
3		0.00		9.60		4.384e-02		-53.620		1.227e-02		10.223
3		0.00		9.20		4.468e-02		-53.798		1.185e-02		9.242
3		0.00		8.80		4.543e-02		-53.433		1.092e-02		8.456
3		0.00		8.40		4.549e-02		-53.618		1.094e-02		9.203
3		0.00		8.00		4.579e-02		-53.703		1.120e-02		8.823
3		0.00		7.60		4.555e-02		-54.163		1.017e-02		7.648
3		0.00		7.20		4.470e-02		-53.800		9.940e-03		7.797
3		0.00		6.80		4.440e-02		-54.015		9.465e-03		7.241
3		0.00		6.40		4.430e-02		-53.718		9.164e-03		5.678
3		0.00		6.00		4.376e-02		-53.713		8.867e-03		7.377
3		0.00		5.60		4.341e-02		-52.164		8.303e-03		6.198
3		0.00		5.20		4.266e-02		-53.074		9.021e-03		7.368
3		0.00		4.80		4.221e-02		-51.965		8.807e-03		6.488
3		0.00		4.40		4.221e-02		-53.155		9.023e-03		7.040
3		0.00		4.00		4.181e-02		-53.927		8.703e-03		6.344
3		0.00		3.60		4.127e-02		-53.533		8.133e-03		5.835
3		0.00		3.20		4.037e-02		-51.494		7.982e-03		6.103
3		0.00		2.80		4.017e-02		-53.495		8.180e-03		6.110
3		0.00		2.40		3.992e-02		-53.119		7.471e-03		6.379
3		0.00		2.00		4.013e-02		-52.102		7.795e-03		5.918
3		0.00		1.60		4.034e-02		-52.988		7.366e-03		6.163
3		0.00		1.20		4.040e-02		-53.441		6.933e-03		7.361
3		0.00		0.80		4.076e-02		-52.561		6.811e-03		5.777
3		0.00		0.40		4.001e-02		-52.040		6.507e-03		6.809
3		0.00		0.00		3.984e-02		-52.321		6.363e-03		5.862
3		0.00		-0.40		3.929e-02		-52.111		6.480e-03		6.709
3		0.00		-0.80		3.926e-02		-52.108		6.433e-03		7.286
3		0.00		-1.20		3.891e-02		-52.715		6.412e-03		7.799
3		0.00		-1.60		3.801e-02		-52.067		6.263e-03		7.512
3		0.00		-2.00		3.738e-02		-51.856		6.478e-03		8.227
3		0.00		-2.40		3.557e-02		-51.527		6.284e-03		6.840
3		0.00		-2.80		3.417e-02		-51.802		5.984e-03		7.227
3		0.00		-3.20		3.291e-02		-52.280		5.840e-03		7.288
3		0.00		-3.60		3.044e-02		-50.996		5.564e-03		8.243
3		0.00		-4.00		2.697e-02		-51.038		5.258e-03		8.231
3		0.00		-4.40		2.484e-02		-52.380		4.762e-03		8.685
3		0.00		-4.80		2.117e-02		-49.036		4.459e-03		9.776
3		0.00		-5.20		1.664e-02		-48.176		3.641e-03		10.898
3		0.00		-5.60		1.334e-02		-51.596		3.114e-03		15.895
3		0.00		-6.00		8.908e-03		-49.228		2.390e-03		16.860
3		0.00		-6.40		5.782e-03		-41.556		2.075e-03		17.648
3		0.00		-6.80		2.084e-03		-46.963		1.104e-03		63.507
3		0.00		-7.20		2.219e-03		60.191		9.377e-04		59.490
3		0.00		-7.60		4.445e-03		104.542		1.444e-03		24.199
3		0.00		-8.00		6.912e-03		119.156		2.054e-03		20.656
3		0.00		-8.40		9.150e-03		121.274		2.545e-03		19.367
3		0.00		-8.80		1.073e-02		118.672		3.079e-03		17.804
3		0.00		-9.20		1.263e-02		119.340		3.393e-03		17.273
3		0.00		-9.60		1.407e-02		123.573		3.700e-03		14.967
3		0.00		-10.00		1.557e-02		122.450		4.043e-03		15.534
3		0.00		-9.60		1.555e-02		123.411		4.023e-03		12.772
3		0.00		-9.20		1.569e-02		122.504		4.192e-03		11.060
3		0.00		-8.80		1.473e-02		121.917		3.921e-03		13.557
3		0.00		-8.40		1.478e-02		122.175		3.738e-03		13.607
3		0.00		-8.00		1.511e-02		122.837		3.804e-03		11.504
3		0.00		-7.60		1.490e-02		122.390		3.545e-03		10.099
3		0.00		-7.20		1.418e-02		122.255		3.244e-03		10.370
3		0.00		-6.80		1.376e-02		123.353		3.273e-03		8.929
3		0.00		-6.40		1.300e-02		124.077		3.023e-03		12.440
3		0.00		-6.00		1.262e-02		124.450		2.889e-03		13.160
3		0.00		-5.60		1.191e-02		122.657		2.327e-03		11.241
3		0.00		-5.20		1.148e-02		124.807		2.047e-03		9.715
3		0.00		-4.80		1.026e-02		122.491		2.003e-03		12.349
3		0.00		-4.40		1.013e-02		124.990		2.166e-03		13.086
3		0.00		-4.00		8.840e-03		122.651		1.901e-03		13.411
3		0.00		-3.60		9.131e-03		125.214		1.753e-03		14.561
3		0.00		-3.20		8.422e-03		122.976		1.759e-03		14.502
3		0.00		-2.80		7.550e-03		120.708		1.703e-03		15.461
3		0.00		-2.40		6.741e-03		121.519		1.698e-03		18.052
3		0.00		-2.00		6.235e-03		117.118		1.512e-03		17.972
3		0.00		-1.60		6.090e-03		127.287		1.552e-03		17.768
3		0.00		-1.20		5.712e-03		112.967		1.753e-03		25.440
3		0.00		-0.80		5.063e-03		116.323		1.591e-03		23.708
3		0.00		-0.40		4.900e-03		112.140		1.665e-03		24.271
4		0.00		0.00		4.529e-03		107.517		1.486e-03		24.708
4		0.00		0.40		4.255e-03		108.828		1.398e-03		34.124
4		0.00		0.80		3.923e-03		105.881		1.279e-03		40.029
4		0.00		1.20		3.278e-03		99.726		1.171e-03		49.113
4		0.00		1.60		2.791e-03		92.753		1.170e-03		48.655
4		0.00		2.00		2.518e-03		87.186		1.005e-03		51.867
4		0.00		2.40		2.152e-03		46.601		9.613e-04		75.366
4		0.00		2.80		1.824e-03		13.645		6.770e-04		80.797
4		0.00		3.20		1.735e-03		-32.340		7.646e-04		62.440
4		0.00		3.60		2.655e-03		-53.402		1.026e-03		39.310
4		0.00		4.00		3.523e-03		-53.533		1.460e-03		26.893
4		0.00		4.40		4.517e-03		-40.999		1.200e-03		21.452
4		0.00		4.80		5.623e-03		-49.738		1.570e-03		17.182
4		0.00		5.20		6.847e-03		-46.955		1.516e-03		14.984
4		0.00		5.60		8.166e-03		-56.094		1.598e-03		15.316
4		0.00		6.00		9.447e-03		-48.948		1.811e-03		17.057
4		0.00		6.40		1.111e-02		-49.922		2.538e-03		15.427
4		0.00		6.80		1.319e-02		-53.633		2.594e-03		14.146
4		0.00		7.20		1.549e-02		-53.271		3.519e-03		14.489
4		0.00		7.60		1.829e-02		-51.636		4.084e-03		10.816
4		0.00		8.00		2.225e-02		-51.868		5.277e-03		12.228
4		0.00		8.40		2.518e-02		-52.339		6.413e-03		9.846
4		0.00		8.80		2.948e-02		-51.134		7.702e-03		9.689
4		0.00		9.20		3.259e-02		-52.008		8.557e-03		9.444
4		0.00		9.60		3.520e-02		-53.187		9.553e-03		9.817
4		0.00		10.00		3.961e-02		-52.605		9.995e-03		8.819
4		0.00		9.60		4.223e-02		-54.315		1.055e-02		8.986
4		0.00		9.20		4.298e-02		-53.141		9.242e-03		7.993
4		0.00		8.80		4.311e-02		-53.393		8.695e-03		6.591
4		0.00		8.40		4.407e-02		-51.983		8.267e-03		6.564
4		0.00		8.00		4.412e-02		-52.832		7.730e-03		5.772
4		0.00		7.60		4.409e-02		-52.378		7.312e-03		5.363
4		0.00		7.20		4.345e-02		-51.299		6.999e-03		5.662
4		0.00		6.80		4.308e-02		-51.863		6.508e-03		6.274
4		0.00		6.40		4.215e-02		-52.067		6.234e-03		6.603
4		0.00		6.00		4.184e-02		-51.989		6.971e-03		6.565
4		0.00		5.60		4.132e-02		-50.819		6.950e-03		5.692
4		0.00		5.20		4.067e-02		-52.026		7.405e-03		6.511
4		0.00		4.80		3.983e-02		-52.842		7.640e-03		7.819
4		0.00		4.40		3.926e-02		-52.860		7.615e-03		6.666
4		0.00		4.00		3.882e-02		-51.522		8.563e-03		8.106
4		0.00		3.60		3.856e-02		-52.723		8.710e-03		7.427
4		0.00		3.20		3.749e-02		-50.765		9.085e-03		8.620
4		0.00		2.80		3.763e-02		-52.279		9.224e-03		9.589
4		0.00		2.40		3.792e-02		-52.969		9.555e-03		8.945
4		0.00		2.00		3.779e-02		-52.260		8.829e-03		9.428
4		0.00		1.60		3.801e-02		-52.784		8.720e-03		9.195
4		0.00		1.20		3.867e-02		-52.539		7.984e-03		7.620
4		0.00		0.80		3.856e-02		-53.313		7.408e-03		8.008
4		0.00		0.40		3.875e-02		-53.548		6.686e-03		6.004
4		0.00		0.00		3.881e-02		-52.498		6.614e-03		6.059
4		0.00		-0.40		3.895e-02		-52.063		6.566e-03		6.645
4		0.00		-0.80		3.853e-02		-52.438		6.337e-03		7.265
4		0.00		-1.20		3.823e-02		-52.761		6.056e-03		6.114
4		0.00		-1.60		3.741e-02		-51.635		6.264e-03		6.524
4		0.00		-2.00		3.640e-02		-50.973		6.809e-03		6.569
4		0.00		-2.40		3.461e-02		-53.531		7.490e-03		7.970
4		0.00		-2.80		3.367e-02		-52.152		7.790e-03		9.053
4		0.00		-3.20		3.202e-02		-52.576		7.842e-03		10.819
4		0.00		-3.60		2.911e-02		-53.599		7.856e-03		10.588
4		0.00		-4.00		2.578e-02		-53.633		6.476e-03		10.413
4		0.00		-4.40		2.224e-02		-52.570		5.716e-03		10.766
4		0.00		-4.80		2.035e-02		-51.096		4.647e-03		9.548
4		0.00		-5.20		1.583e-02		-51.888		3.541e-03		11.028
4		0.00		-5.60		1.179e-02		-51.516		2.485e-03		12.103
4		0.00		-6.00		7.358e-03		-50.556		1.681e-03		14.747
4		0.00		-6.40		4.619e-03		-36.871		1.606e-03		24.809
4		0.00		-6.80		2.945e-03		-20.321		1.210e-03		41.105
4		0.00		-7.20		2.492e-03		76.259		1.088e-03		51.868
4		0.00		-7.60		4.482e-03		109.151		1.572e-03		26.559
4		0.00		-8.00		7.332e-03		123.429		2.034e-03		17.366
4		0.00		-8.40		9.586e-03		120.775		2.526e-03		15.251
4		0.00		-8.80		1.045e-02		121.530		2.675e-03		21.955
4		0.00		-9.20		1.213e-02		121.625		3.113e-03		11.836
4		0.00		-9.60		1.384e-02		123.903		3.111e-03		11.193
4		0.00		-10.00		1.498e-02		121.960		3.114e-03		9.413
4		0.00		-9.60		1.525e-02		123.073		2.752e-03		8.334
4		0.00		-9.20		1.541e-02		121.991		2.547e-03		10.963
4		0.00		-8.80		1.493e-02		121.819		3.064e-03		9.212
4		0.00		-8.40		1.443e-02		123.864		2.716e-03		9.041
4		0.00		-8.00		1.389e-02		125.791		2.828e-03		8.718
4		0.00		-7.60		1.377e-02		124.027		3.037e-03		13.832
4		0.00		-7.20		1.286e-02		123.468		2.795e-03		15.342
4		0.00		-6.80		1.237e-02		121.560		3.079e-03		13.969
4		0.00		-6.40		1.126e-02		121.055		3.101e-03		14.647
4		0.00		-6.00		1.087e-02		122.975		2.848e-03		13.403
4		0.00		-5.60		1.051e-02		124.210		2.544e-03		14.596
4		0.00		-5.20		1.021e-02		124.985		2.154e-03		12.774
4		0.00		-4.80		1.001e-02		122.799		2.051e-03		12.076
4		0.00		-4.40		9.139e-03		121.250		1.727e-03		13.043
4		0.00		-4.00		8.521e-03		121.196		1.838e-03		12.245
4		0.00		-3.60		8.010e-03		118.945		1.720e-03		13.978
4		0.00		-3.20		7.210e-03		124.813		1.758e-03		15.159
4		0.00		-2.80		6.766e-03		119.417		1.556e-03		19.419
4		0.00		-2.40		6.480e-03		115.017		1.746e-03		19.838
4		0.00		-2.00		5.850e-03		118.439		1.729e-03		22.188
4		0.00		-1.60		5.396e-03		118.674		1.786e-03		23.115
4		0.00		-1.20		4.994e-03		114.879		1.709e-03		25.990
4		0.00		-0.80		4.928e-03		116.077		1.462e-03		21.593
4		0.00		-0.40		4.074e-03		117.446		1.351e-03		30.659
5		0.00		0.00		4.080e-03		116.459		1.375e-03		23.864
5		0.00		0.40		3.496e-03		110.191		1.117e-03		30.475
5		0.00		0.80		3.438e-03		94.116		1.213e-03		45.538
5		0.00		1.20		3.250e-03		103.396		1.043e-03		32.538
5		0.00		1.60		2.444e-03		81.545		1.075e-03		60.204
5		0.00		2.00		1.831e-03		47.010		7.911e-04		78.041
5		0.00		2.40		1.772e-03		12.761		7.073e-04		72.846
5		0.00		2.80		2.034e-03		-17.255		8.619e-04		64.781
5		0.00		3.20		2.083e-03		-33.316		7.920e-04		52.865
5		0.00		3.60		2.378e-03		-46.666		1.013e-03		43.293
5		0.00		4.00		3.909e-03		-55.347		1.310e-03		24.829
5		0.00		4.40		4.746e-03		-48.251		1.324e-03		18.952
5		0.00		4.80		6.204e-03		-60.994		1.685e-03		19.250
5		0.00		5.20		7.844e-03		-57.941		1.589e-03		15.006
5		0.00		5.60		8.707e-03		-48.194		1.730e-03		16.134
5		0.00		6.00		9.703e-03		-51.512		1.848e-03		16.161
5		0.00		6.40		1.176e-02		-48.940		2.583e-03		11.759
5		0.00		6.80		1.373e-02		-52.898		3.259e-03		12.277
5		0.00		7.20		1.781e-02		-51.085		4.472e-03		12.930
5		0.00		7.60		2.001e-02		-53.055		5.150e-03		11.823
5		0.00		8.00		2.318e-02		-51.289		5.947e-03		8.766
5		0.00		8.40		2.714e-02		-52.788		6.310e-03		8.303
5		0.00		8.80		3.047e-02		-53.036		6.210e-03		5.636
5		0.00		9.20		3.476e-02		-53.763		6.620e-03		7.231
5		0.00		9.60		3.782e-02		-53.038		6.632e-03		6.790
5		0.00		10.00		3.977e-02		-52.323		6.915e-03		6.986
5		0.00		9.60		4.177e-02		-51.573		7.582e-03		6.830
5		0.00		9.20		4.192e-02		-52.765		8.599e-03		10.969
5		0.00		8.80		4.213e-02		-50.936		9.350e-03		6.617
5		0.00		8.40		4.117e-02		-52.173		9.328e-03		9.245
5		0.00		8.00		4.156e-02		-53.098		9.894e-03		11.089
5		0.00		7.60		4.103e-02		-52.394		9.565e-03		8.610
5		0.00		7.20		4.129e-02		-53.175		8.919e-03		7.285
5		0.00		6.80		4.179e-02		-54.193		7.695e-03		5.624
5		0.00		6.40		4.106e-02		-52.928		7.094e-03		6.224
5		0.00		6.00		4.041e-02		-52.383		6.624e-03		5.924
5		0.00		5.60		4.002e-02		-53.059		6.914e-03		6.807
5		0.00		5.20		3.919e-02		-51.256		7.270e-03		5.953
5		0.00		4.80		3.833e-02		-51.854		8.288e-03		7.461
5		0.00		4.40		3.728e-02		-50.587		8.553e-03		7.853
5		0.00		4.00		3.707e-02		-52.586		9.213e-03		9.026
5		0.00		3.60		3.674e-02		-53.158		9.701e-03		11.557
5		0.00		3.20		3.733e-02		-52.642		9.548e-03		9.216
5		0.00		2.80		3.685e-02		-54.094		8.884e-03		8.112
5		0.00		2.40		3.690e-02		-53.253		7.545e-03		6.715
5		0.00		2.00		3.719e-02		-52.865		6.894e-03		6.814
5		0.00		1.60		3.780e-02		-52.017		6.184e-03		6.159
5		0.00		1.20		3.801e-02		-51.817		6.049e-03		6.973
5		0.00		0.80		3.739e-02		-51.999		5.974e-03		6.517
5		0.00		0.40		3.741e-02		-50.499		6.441e-03		7.256
5		0.00		0.00		3.731e-02		-52.207		7.358e-03		7.899
5		0.00		-0.40		3.691e-02		-51.850		7.724e-03		8.902
5		0.00		-0.80		3.635e-02		-51.978		8.176e-03		8.716
5		0.00		-1.20		3.620e-02		-53.329		8.055e-03		8.227
5		0.00		-1.60		3.592e-02		-52.747		7.700e-03		8.864
5		0.00		-2.00		3.537e-02		-53.113		7.395e-03		7.613
5		0.00		-2.40		3.456e-02		-52.721		6.285e-03		5.642
5		0.00		-2.80		3.382e-02		-54.235		5.706e-03		6.525
5		0.00		-3.20		3.217e-02		-51.906		5.125e-03		6.935
5		0.00		-3.60		2.962e-02		-51.640		4.835e-03		9.142
5		0.00		-4.00		2.691e-02		-52.569		4.463e-03		8.896
5		0.00		-4.40		2.426e-02		-51.088		4.194e-03		8.863
5		0.00		-4.80		2.038e-02		-53.744		4.163e-03		10.539
5		0.00		-5.20		1.679e-02		-50.058		3.730e-03		12.524
5		0.00		-5.60		1.165e-02		-48.591		2.892e-03		14.004
5		0.00		-6.00		7.683e-03		-47.131		2.290e-03		20.180
5		0.00		-6.40		4.302e-03		-49.194		1.528e-03		25.794
5		0.00		-6.80		2.275e-03		-32.256		8.966e-04		47.764
5		0.00		-7.20		2.190e-03		35.747		1.107e-03		69.407
5		0.00		-7.60		3.796e-03		95.280		1.400e-03		29.665
5		0.00		-8.00		5.807e-03		112.748		1.882e-03		21.312
5		0.00		-8.40		8.387e-03		119.790		2.363e-03		18.491
5		0.00		-8.80		9.994e-03		123.408		2.198e-03		11.597
5		0.00		-9.20		1.121e-02		122.859		2.512e-03		11.601
5		0.00		-9.60		1.308e-02		123.633		2.548e-03		10.071
5		0.00		-10.00		1.425e-02		125.439		2.754e-03		9.748
5		0.00		-9.60		1.500e-02		122.776		3.169e-03		11.190
5		0.00		-9.20		1.517e-02		125.058		3.279e-03		12.430
5		0.00		-8.80		1.439e-02		124.569		3.796e-03		13.489
5		0.00		-8.40		1.397e-02		122.660		3.728e-03		16.512
5		0.00		-8.00		1.403e-02		121.678		4.149e-03		15.757
5		0.00		-7.60		1.318e-02		121.309		3.931e-03		18.116
5		0.00		-7.20		1.257e-02		120.508		3.825e-03		11.519
5		0.00		-6.80		1.227e-02		123.920		3.251e-03		12.798
5		0.00		-6.40		1.125e-02		123.039		2.987e-03		10.986
5		0.00		-6.00		1.098e-02		123.320		2.760e-03		11.617
5		0.00		-5.60		1.048e-02		122.704		2.245e-03		12.388
5		0.00		-5.20		9.780e-03		123.325		2.067e-03		12.831
5		0.00		-4.80		9.595e-03		122.690		2.017e-03		13.823
5		0.00		-4.40		8.287e-03		123.169		1.923e-03		14.390
5		0.00		-4.00		7.730e-03		122.143		2.070e-03		15.848
5		0.00		-3.60		6.796e-03		115.655		1.720e-03		19.073
5		0.00		-3.20		6.705e-03		119.246		1.715e-03		15.741
5		0.00		-2.80		6.107e-03		120.794		1.895e-03		18.723
5		0.00		-2.40		5.756e-03		115.993		1.700e-03		26.828
5		0.00		-2.00		5.134e-03		113.548		1.696e-03		19.923
5		0.00		-1.60		4.659e-03		114.756		1.527e-03		26.034
5		0.00		-1.20		4.279e-03		117.523		1.437e-03		25.738
5		0.00		-0.80		4.172e-03		115.356		1.222e-03		22.333
5		0.00		-0.40		3.885e-03		107.401		1.469e-03		37.598
6		0.00		0.00		3.800e-03		106.247		1.296e-03		33.105
6		0.00		0.40		3.142e-03		95.815		1.237e-03		33.712
6		0.00		0.80		2.877e-03		103.578		1.117e-03		47.194
6		0.00		1.20		2.466e-03		83.454		9.637e-04		58.573
6		0.00		1.60		1.723e-03		28.959		8.192e-04		72.924
6		0.00		2.00		1.649e-03		37.663		5.923e-04		75.164
6		0.00		2.40		1.828e-03		4.866		6.828e-04		57.685
6		0.00		2.80		2.022e-03		-29.673		8.360e-04		60.770
6		0.00		3.20		2.771e-03		-43.909		1.149e-03		32.432
6		0.00		3.60		3.454e-03		-54.407		1.319e-03		28.931
6		0.00		4.00		4.584e-03		-50.891		1.390e-03		20.359
6		0.00		4.40		5.758e-03		-48.030		1.631e-03		19.126
6		0.00		4.80		6.675e-03		-58.904		1.654e-03		18.483
6		0.00		5.20		8.217e-03		-50.899		1.764e-03		16.536
6		0.00		5.60		9.505e-03		-51.212		1.859e-03		13.400
6		0.00		6.00		1.070e-02		-48.821		2.032e-03		14.141
6		0.00		6.40		1.245e-02		-52.775		2.513e-03		13.254
6		0.00		6.80		1.344e-02		-50.718		3.043e-03		14.608
6		0.00		7.20		1.693e-02		-50.998		4.317e-03		12.092
6		0.00		7.60		1.915e-02		-53.246		4.843e-03		13.543
6		0.00		8.00		2.213e-02		-53.052		5.679e-03		11.880
6		0.00		8.40		2.411e-02		-53.831		5.980e-03		9.848
6		0.00		8.80		2.761e-02		-53.171		6.274e-03		8.202
6		0.00		9.20		3.141e-02		-52.082		6.290e-03		7.196
6		0.00		9.60		3.506e-02		-51.288		6.624e-03		6.046
6		0.00		10.00		3.817e-02		-52.859		7.212e-03		6.211
6		0.00		9.60		3.908e-02		-52.397		7.230e-03		6.233
6		0.00		9.20		3.993e-02		-51.385		7.284e-03		6.115
6		0.00		8.80		3.946e-02		-51.932		7.239e-03		8.309
6		0.00		8.40		3.936e-02		-51.468		7.660e-03		7.323
6		0.00		8.00		3.963e-02		-51.380		8.419e-03		7.902
6		0.00		7.60		3.942e-02		-50.975		8.694e-03		8.339
6		0.00		7.20		3.872e-02		-52.083		8.921e-03		9.476
6		0.00		6.80		3.851e-02		-51.566		8.811e-03		8.654
6		0.00		6.40		3.851e-02		-52.975		8.407e-03		8.061
6		0.00		6.00		3.857e-02		-53.801		7.728e-03		6.751
6		0.00		5.60		3.817e-02		-51.753		6.694e-03		6.101
6		0.00		5.20		3.853e-02		-52.770		6.375e-03		5.503
6		0.00		4.80		3.763e-02		-51.468		5.813e-03		5.792
6		0.00		4.40		3.748e-02		-51.723		5.699e-03		6.602
6		0.00		4.00		3.691e-02		-51.848		5.810e-03		6.762
6		0.00		3.60		3.674e-02		-52.017		5.975e-03		6.013
6		0.00		3.20		3.649e-02		-50.613		6.004e-03		6.461
6		0.00		2.80		3.616e-02		-51.529		6.684e-03		6.179
6		0.00		2.40		3.519e-02		-49.873		7.281e-03		8.143
6		0.00		2.00		3.498e-02		-52.281		7.770e-03		10.326
6		0.00		1.60		3.448e-02		-52.677		8.083e-03		11.375
6		0.00		1.20		3.498e-02		-51.718		8.117e-03		8.835
6		0.00		0.80		3.544e-02		-52.071		7.852e-03		8.250
6		0.00		0.40		3.539e-02		-52.657		7.175e-03		8.463
6		0.00		0.00		3.591e-02		-52.424		6.816e-03		7.566
6		0.00		-0.40		3.644e-02		-51.360		6.305e-03		6.759
6		0.00		-0.80		3.606e-02		-52.742		5.868e-03		6.249
6		0.00		-1.20		3.589e-02		-52.107		5.650e-03		5.435
6		0.00		-1.60		3.575e-02		-51.663		5.424e-03		6.053
6		0.00		-2.00		3.506e-02		-51.905		5.409e-03		7.468
6		0.00		-2.40		3.401e-02		-51.324		5.269e-03		7.089
6		0.00		-2.80		3.290e-02		-53.479		5.837e-03		6.571
6		0.00		-3.20		3.152e-02		-51.235		6.037e-03		7.634
6		0.00		-3.60		2.945e-02		-51.708		6.278e-03		7.433
6		0.00		-4.00		2.703e-02		-51.950		6.160e-03		9.695
6		0.00		-4.40		2.347e-02		-52.128		5.851e-03		9.855
6		0.00		-4.80		2.076e-02		-52.878		5.411e-03		11.929
6		0.00		-5.20		1.696e-02		-50.694		4.478e-03		12.657
6		0.00		-5.60		1.377e-02		-47.427		3.583e-03		12.262
6		0.00		-6.00		1.010e-02		-48.584		2.650e-03		13.017
6		0.00		-6.40		6.502e-03		-45.398		1.938e-03		18.846
6		0.00		-6.80		3.474e-03		-42.642		1.440e-03		34.948
6		0.00		-7.20		1.949e-03		19.502		7.292e-04		69.177
6		0.00		-7.60		3.661e-03		98.445		1.513e-03		47.881
6		0.00		-8.00		5.453e-03		119.416		1.718e-03		20.936
6		0.00		-8.40		7.756e-03		121.781		2.202e-03		13.595
6		0.00		-8.80		9.781e-03		124.872		2.146e-03		14.831
6		0.00		-9.20		1.113e-02		121.361		2.609e-03		16.121
6		0.00		-9.60		1.281e-02		122.079		3.279e-03		16.445
6		0.00		-10.00		1.416e-02		124.804		3.487e-03		13.304
6		0.00		-9.60		1.487e-02		122.944		3.647e-03		12.933
6		0.00		-9.20		1.456e-02		123.189		3.300e-03		11.826
6		0.00		-8.80		1.484e-02		125.126		3.343e-03		10.284
6		0.00		-8.40		1.486e-02		122.974		3.207e-03		9.553
6		0.00		-8.00		1.388e-02		125.080		2.716e-03		10.718
6		0.00		-7.60		1.388e-02		125.509		2.587e-03		11.198
6		0.00		-7.20		1.320e-02		122.891		2.824e-03		10.928
6		0.00		-6.80		1.210e-02		124.053		2.472e-03		9.757
6		0.00		-6.40		1.217e-02		124.130		2.622e-03		11.056
6		0.00		-6.00		1.066e-02		121.346		2.361e-03		12.161
6		0.00		-5.60		9.780e-03		121.048		2.570e-03		14.183
6		0.00		-5.20		9.114e-03		122.090		2.341e-03		19.122
6		0.00		-4.80		8.806e-03		119.398		2.305e-03		18.829
6		0.00		-4.40		7.996e-03		118.327		2.191e-03		18.683
6		0.00		-4.00		7.804e-03		120.949		2.232e-03		13.673
6		0.00		-3.60		6.995e-03		121.134		1.808e-03		15.617
6		0.00		-3.20		6.656e-03		123.348		1.749e-03		16.331
6		0.00		-2.80		5.978e-03		115.691		1.513e-03		19.457
6		0.00		-2.40		5.702e-03		120.120		1.415e-03		18.069
6		0.00		-2.00		5.499e-03		118.567		1.402e-03		16.001
6		0.00		-1.60		4.891e-03		117.572		1.373e-03		20.901
6		0.00		-1.20		4.695e-03		115.844		1.371e-03		19.951
6		0.00		-0.80		4.288e-03		116.582		1.419e-03		22.480
6		0.00		-0.40		3.966e-03		111.834		1.342e-03		23.738
7		0.00		0.00		3.299e-03		104.759		1.190e-03		38.514
7		0.00		0.40		3.217e-03		94.288		1.157e-03		52.025
7		0.00		0.80		2.956e-03		87.949		1.287e-03		42.227
7		0.00		1.20		2.213e-03		92.378		8.791e-04		48.027
7		0.00		1.60		2.164e-03		75.040		9.457e-04		60.583
7		0.00		2.00		1.887e-03		21.129		7.828e-04		86.697
7		0.00		2.40		1.875e-03		1.002		8.175e-04		72.571
7		0.00		2.80		1.935e-03		-39.285		7.634e-04		63.827
7		0.00		3.20		2.549e-03		-44.092		1.091e-03		43.972
7		0.00		3.60		3.427e-03		-56.457		1.099e-03		23.373
7		0.00		4.00		4.221e-03		-58.240		1.457e-03		25.995
7		0.00		4.40		5.460e-03		-52.616		1.381e-03		18.772
7		0.00		4.80		6.685e-03		-43.513		1.594e-03		17.521
7		0.00		5.20		7.382e-03		-46.728		1.552e-03		15.238
7		0.00		5.60		8.840e-03		-48.941		2.089e-03		12.822
7		0.00		6.00		9.638e-03		-55.351		2.248e-03		14.123
7		0.00		6.40		1.132e-02		-51.902		2.864e-03		13.119
7		0.00		6.80		1.266e-02		-52.963		3.041e-03		13.828
7		0.00		7.20		1.418e-02		-51.592		3.469e-03		11.636
7		0.00		7.60		1.602e-02		-50.479		3.981e-03		10.409
7		0.00		8.00		1.836e-02		-53.078		4.423e-03		9.799
7		0.00		8.40		2.228e-02		-52.287		4.317e-03		8.402
7		0.00		8.80		2.615e-02		-51.592		5.317e-03		6.893
7		0.00		9.20		3.107e-02		-53.140		5.105e-03		6.378
7		0.00		9.60		3.484e-02		-51.823		5.766e-03		6.914
7		0.00		10.00		3.724e-02		-53.708		6.451e-03		7.254
7		0.00		9.60		3.884e-02		-52.536		6.423e-03		7.425
7		0.00		9.20		4.012e-02		-52.094		6.456e-03		6.448
7		0.00		8.80		4.006e-02		-51.531		6.353e-03		6.189
7		0.00		8.40		4.081e-02		-50.991		5.871e-03		6.189
7		0.00		8.00		4.021e-02		-51.663		6.404e-03		5.996
7		0.00		7.60		3.920e-02		-51.073		6.052e-03		6.945
7		0.00		7.20		3.816e-02		-50.493		6.395e-03		6.193
7		0.00		6.80		3.857e-02		-50.247		6.445e-03		6.641
7		0.00		6.40		3.788e-02		-51.283		7.040e-03		7.075
7		0.00		6.00		3.763e-02		-51.857		7.046e-03		8.009
7		0.00		5.60		3.729e-02		-50.519		7.274e-03		7.274
7		0.00		5.20		3.616e-02		-50.150		8.061e-03		7.710
7		0.00		4.80		3.600e-02		-51.502		8.391e-03		7.619
7		0.00		4.40		3.499e-02		-51.844		7.965e-03		9.243
7		0.00		4.00		3.492e-02		-51.395		8.517e-03		8.743
7		0.00		3.60		3.417e-02		-51.183		8.702e-03		10.774
7		0.00		3.20		3.420e-02		-52.126		8.622e-03		9.322
7		0.00		2.80		3.454e-02		-52.313		8.852e-03		11.220
7		0.00		2.40		3.396e-02		-52.560		8.703e-03		9.890
7		0.00		2.00		3.352e-02		-51.384		8.621e-03		9.656
7		0.00		1.60		3.387e-02		-51.924		8.357e-03		10.788
7		0.00		1.20		3.489e-02		-51.400		8.295e-03		9.338
7		0.00		0.80		3.426e-02		-51.529		7.639e-03		8.041
7		0.00		0.40		3.422e-02		-51.913		7.620e-03		8.828
7		0.00		0.00		3.431e-02		-51.656		7.734e-03		9.091
7		0.00		-0.40		3.435e-02		-53.086		7.896e-03		8.940
7		0.00		-0.80		3.398e-02		-50.563		7.576e-03		8.426
7		0.00		-1.20		3.347e-02		-52.598		7.270e-03		7.593
7		0.00		-1.60		3.356e-02		-51.045		7.306e-03		7.078
7		0.00		-2.00		3.280e-02		-52.345		6.917e-03		7.808
7		0.00		-2.40		3.149e-02		-53.657		6.876e-03		8.072
7		0.00		-2.80		3.007e-02		-51.478		6.316e-03		6.921
7		0.00		-3.20		2.777e-02		-51.447		5.855e-03		8.949
7		0.00		-3.60		2.677e-02		-51.777		5.370e-03		7.221
7		0.00		-4.00		2.464e-02		-51.752		4.950e-03		7.858
7		0.00		-4.40		2.171e-02		-50.786		4.287e-03		8.066
7		0.00		-4.80		1.892e-02		-53.975		3.726e-03		9.373
7		0.00		-5.20		1.556e-02		-49.752		3.080e-03		10.981
7		0.00		-5.60		1.311e-02		-51.025		2.749e-03		12.477
7		0.00		-6.00		9.051e-03		-49.064		2.224e-03		13.872
7		0.00		-6.40		5.817e-03		-51.397		1.699e-03		18.849
7		0.00		-6.80		2.638e-03		-37.426		1.245e-03		37.458
7		0.00		-7.20		2.104e-03		40.203		8.298e-04		66.213
7		0.00		-7.60		3.894e-03		96.538		1.635e-03		37.358
7		0.00		-8.00		5.853e-03		120.750		1.772e-03		19.926
7		0.00		-8.40		9.636e-03		121.372		2.142e-03		12.729
7		0.00		-8.80		1.133e-02		125.998		2.684e-03		11.189
7		0.00		-9.20		1.198e-02		121.567		2.777e-03		10.509
7		0.00		-9.60		1.349e-02		124.946		3.023e-03		12.178
7		0.00		-10.00		1.492e-02		121.465		3.485e-03		9.097
7		0.00		-9.60		1.481e-02		125.735		3.481e-03		8.850
7		0.00		-9.20		1.538e-02		123.041		4.061e-03		9.967
7		0.00		-8.80		1.531e-02		120.174		4.006e-03		12.066
7		0.00		-8.40		1.465e-02		122.649		3.922e-03		10.460
7		0.00		-8.00		1.437e-02		124.605		3.743e-03		13.008
7		0.00		-7.60		1.352e-02		121.738		3.653e-03		15.491
7		0.00		-7.20		1.292e-02		121.453		3.691e-03		16.422
7		0.00		-6.80		1.216e-02		120.929		3.394e-03		19.358
7		0.00		-6.40		1.141e-02		121.877		3.112e-03		15.934
7		0.00		-6.00		1.107e-02		125.433		2.742e-03		15.072
7		0.00		-5.60		1.095e-02		123.681		2.694e-03		14.114
7		0.00		-5.20		1.003e-02		123.000		2.166e-03		15.432
7		0.00		-4.80		9.220e-03		121.154		1.988e-03		14.042
7		0.00		-4.40		8.861e-03		124.170		1.901e-03		15.873
7		0.00		-4.00		7.879e-03		124.770		1.994e-03		13.928
7		0.00		-3.60		7.713e-03		128.171		1.928e-03		14.372
7		0.00		-3.20		7.039e-03		124.640		1.752e-03		12.776
7		0.00		-2.80		6.673e-03		124.371		1.547e-03		15.627
7		0.00		-2.40		6.577e-03		121.296		1.523e-03		13.847
7		0.00		-2.00		5.748e-03		120.394		1.564e-03		14.980
7		0.00		-1.60		5.230e-03		116.552		1.432e-03		25.739
7		0.00		-1.20		4.790e-03		116.791		1.321e-03		18.311
7		0.00		-0.80		4.546e-03		117.014		1.220e-03		20.087
7		0.00		-0.40		4.358e-03		107.847		1.485e-03		29.989
8		0.00		0.00		3.882e-03		105.900		1.507e-03		41.335
8		0.00		0.40		3.533e-03		112.998		1.429e-03		31.643
8		0.00		0.80		3.187e-03		101.806		1.090e-03		36.131
8		0.00		1.20		2.634e-03		83.334		1.059e-03		50.918
8		0.00		1.60		2.412e-03		66.350		1.002e-03		72.092
8		0.00		2.00		2.041e-03		68.719		9.592e-04		60.496
8		0.00		2.40		1.834e-03		28.905		7.258e-04		65.265
8		0.00		2.80		1.806e-03		-26.436		8.134e-04		61.049
8		0.00		3.20		2.206e-03		-38.725		1.085e-03		52.571
8		0.00		3.60		2.962e-03		-31.158		1.264e-03		31.068
8		0.00		4.00		3.927e-03		-38.883		1.205e-03		25.015
8		0.00		4.40		4.514e-03		-53.581		1.406e-03		24.621
8		0.00		4.80		5.702e-03		-49.132		1.506e-03		19.411
8		0.00		5.20		6.665e-03		-45.663		1.989e-03		16.689
8		0.00		5.60		7.903e-03		-53.108		2.369e-03		15.321
8		0.00		6.00		9.103e-03		-54.753		2.225e-03		12.506
8		0.00		6.40		1.041e-02		-48.774		2.525e-03		15.267
8		0.00		6.80		1.202e-02		-50.737		2.582e-03		13.155
8		0.00		7.20		1.348e-02		-52.103		3.260e-03		11.185
8		0.00		7.60		1.534e-02		-49.683		3.308e-03		13.661
8		0.00		8.00		1.801e-02		-49.552		3.799e-03		10.366
8		0.00		8.40		2.106e-02		-50.390		4.286e-03		9.848
8		0.00		8.80		2.492e-02		-50.694		5.190e-03		9.043
8		0.00		9.20		2.829e-02		-49.818		4.926e-03		8.755
8		0.00		9.60		3.248e-02		-51.543		5.436e-03		7.516
8		0.00		10.00		3.484e-02		-50.892		5.491e-03		7.416
8		0.00		9.60		3.727e-02		-51.466		5.725e-03		6.827
8		0.00		9.20		3.833e-02		-53.003		5.774e-03		6.168
8		0.00		8.80		3.858e-02		-50.865		6.376e-03		6.379
8		0.00		8.40		3.831e-02		-51.926		6.097e-03		7.464
8		0.00		8.00		3.817e-02		-51.020		6.399e-03		6.219
8		0.00		7.60		3.727e-02		-52.333		6.581e-03		6.354
8		0.00		7.20		3.731e-02		-52.893		7.041e-03		6.470
8		0.00		6.80		3.626e-02		-52.402		7.413e-03		5.983
8		0.00		6.40		3.552e-02		-53.618		8.137e-03		7.036
8		0.00		6.00		3.464e-02		-53.654		8.229e-03		9.410
8		0.00		5.60		3.468e-02		-54.130		8.569e-03		7.815
8		0.00		5.20		3.358e-02		-51.070		8.720e-03		8.537
8		0.00		4.80		3.364e-02		-52.265		8.245e-03		8.878
8		0.00		4.40		3.338e-02		-51.345		8.218e-03		8.565
8		0.00		4.00		3.326e-02		-51.303		7.949e-03		9.284
8		0.00		3.60		3.345e-02		-51.584		7.013e-03		8.790
8		0.00		3.20		3.432e-02		-50.894		6.589e-03		7.115
8		0.00		2.80		3.436e-02		-51.192		6.298e-03		7.659
8		0.00		2.40		3.448e-02		-50.483		5.757e-03		7.464
8		0.00		2.00		3.444e-02		-50.543		5.448e-03		7.281
8		0.00		1.60		3.469e-02		-51.828		5.335e-03		5.713
8		0.00		1.20		3.466e-02		-51.625		5.437e-03		7.000
8		0.00		0.80		3.469e-02		-52.138		5.474e-03		6.947
8		0.00		0.40		3.417e-02		-51.303		5.189e-03		6.899
8		0.00		0.00		3.431e-02		-52.664		6.335e-03		6.895
8		0.00		-0.40		3.323e-02		-52.345		6.664e-03		7.572
8		0.00		-0.80		3.299e-02		-52.307		7.231e-03		8.064
8		0.00		-1.20		3.236e-02		-52.596		7.788e-03		8.976
8		0.00		-1.60		3.187e-02		-52.934		8.220e-03		8.507
8		0.00		-2.00		3.154e-02		-53.636		7.933e-03		11.792
8		0.00		-2.40		3.024e-02		-50.363		7.533e-03		10.900
8		0.00		-2.80		2.885e-02		-51.568		7.162e-03		10.446
8		0.00		-3.20		2.739e-02		-51.360		6.487e-03		10.499
8		0.00		-3.60		2.638e-02		-50.919		5.744e-03		8.861
8		0.00		-4.00		2.477e-02		-50.565		4.309e-03		9.080
8		0.00		-4.40		2.236e-02		-50.816		3.668e-03		7.876
8		0.00		-4.80		1.933e-02		-48.274		3.249e-03		9.530
8		0.00		-5.20		1.599e-02		-51.104		2.910e-03		11.696
8		0.00		-5.60		1.261e-02		-47.363		2.350e-03		13.027
8		0.00		-6.00		8.651e-03		-47.402		1.999e-03		16.571
8		0.00		-6.40		4.681e-03		-47.480		1.671e-03		19.744
8		0.00		-6.80		2.131e-03		-5.388		9.417e-04		62.072
8		0.00		-7.20		2.446e-03		70.664		1.191e-03		56.727
8		0.00		-7.60		5.123e-03		116.821		1.527e-03		18.442
8		0.00		-8.00		7.195e-03		122.250		2.119e-03		13.737
8		0.00		-8.40		9.419e-03		121.029		2.695e-03		12.616
8		0.00		-8.80		1.096e-02		123.054		3.027e-03		15.396
8		0.00		-9.20		1.317e-02		120.446		3.786e-03		14.856
8		0.00		-9.60		1.421e-02		123.042		3.554e-03		13.936
8		0.00		-10.00		1.565e-02		122.964		4.168e-03		13.544
8		0.00		-9.60		1.598e-02		122.719		4.105e-03		14.556
8		0.00		-9.20		1.566e-02		124.201		3.775e-03		15.459
8		0.00		-8.80		1.564e-02		125.688		3.292e-03		10.370
8		0.00		-8.40		1.559e-02		125.275		3.205e-03		12.011
8		0.00		-8.00		1.537e-02		124.840		3.145e-03		11.044
8		0.00		-7.60		1.519e-02		127.212		2.822e-03		8.499
8		0.00		-7.20		1.419e-02		124.339		2.453e-03		8.884
8		0.00		-6.80		1.348e-02		127.123		2.448e-03		9.806
8		0.00		-6.40		1.301e-02		125.836		2.283e-03		8.958
8		0.00		-6.00		1.227e-02		125.832		2.261e-03		10.810
8		0.00		-5.60		1.167e-02		125.626		2.314e-03		9.635
8		0.00		-5.20		1.136e-02		123.421		2.318e-03		11.636
8		0.00		-4.80		1.058e-02		122.732		2.178e-03		11.904
8		0.00		-4.40		9.550e-03		124.585		2.071e-03		10.995
8		0.00		-4.00		8.870e-03		124.049		1.810e-03		15.257
8		0.00		-3.60		8.589e-03		121.806		1.994e-03		13.092
8		0.00		-3.20		8.109e-03		124.250		2.086e-03		13.175
8		0.00		-2.80		7.775e-03		120.797		1.973e-03		12.146
8		0.00		-2.40		7.145e-03		122.001		1.806e-03		15.245
8		0.00		-2.00		6.777e-03		126.010		1.967e-03		16.306
8		0.00		-1.60		6.218e-03		116.027		1.801e-03		18.626
8		0.00		-1.20		5.828e-03		124.710		1.853e-03		16.660
8		0.00		-0.80		5.359e-03		114.426		1.687e-03		29.063
8		0.00		-0.40		4.823e-03		117.154		1.466e-03		28.709
