# Date of analysis: 2024-03-08 10;58
# Segment other properties: height: -35.27947977327193, diff height: 230.19333912783088, deflection: 36.10716814541626, deflection error: 3.5399189527845802, adhesion: 37.15376511737895, phase offset: 0
# 
# Loop index	Read Volt (V)	Write Volt (V)	Amplitude (a.u)	Phase (deg)	Sigma Amp (a.u)	Sigma Pha (deg)	
1		0.00		0.00		1.419e-02		-52.682		4.215e-03		13.033
1		0.00		0.40		1.373e-02		-53.281		4.211e-03		15.445
1		0.00		0.80		1.335e-02		-54.264		3.943e-03		15.251
1		0.00		1.20		1.337e-02		-53.767		4.160e-03		15.074
1		0.00		1.60		1.284e-02		-56.827		4.012e-03		14.779
1		0.00		2.00		1.355e-02		-56.231		4.018e-03		16.759
1		0.00		2.40		1.429e-02		-58.134		4.110e-03		13.204
1		0.00		2.80		1.412e-02		-56.328		3.858e-03		15.037
1		0.00		3.20		1.414e-02		-57.152		3.597e-03		14.707
1		0.00		3.60		1.391e-02		-53.701		3.410e-03		15.408
1		0.00		4.00		1.480e-02		-54.891		3.492e-03		16.060
1		0.00		4.40		1.504e-02		-56.146		3.512e-03		15.346
1		0.00		4.80		1.584e-02		-59.422		3.761e-03		16.119
1		0.00		5.20		1.653e-02		-56.998		3.862e-03		16.052
1		0.00		5.60		1.711e-02		-56.769		4.348e-03		16.805
1		0.00		6.00		1.809e-02		-55.595		4.178e-03		16.703
1		0.00		6.40		2.036e-02		-55.357		4.879e-03		15.605
1		0.00		6.80		2.210e-02		-55.614		5.452e-03		14.494
1		0.00		7.20		2.442e-02		-55.995		6.121e-03		15.197
1		0.00		7.60		2.682e-02		-55.173		7.196e-03		15.027
1		0.00		8.00		3.014e-02		-55.496		7.977e-03		14.279
1		0.00		8.40		3.349e-02		-54.251		8.885e-03		13.340
1		0.00		8.80		3.981e-02		-54.818		1.050e-02		13.453
1		0.00		9.20		4.257e-02		-53.824		1.124e-02		12.205
1		0.00		9.60		4.613e-02		-54.699		1.219e-02		12.220
1		0.00		10.00		4.754e-02		-54.758		1.297e-02		11.662
1		0.00		9.60		4.743e-02		-55.278		1.253e-02		12.553
1		0.00		9.20		4.695e-02		-55.251		1.217e-02		12.072
1		0.00		8.80		4.616e-02		-54.105		1.201e-02		12.868
1		0.00		8.40		4.638e-02		-54.428		1.218e-02		12.716
1		0.00		8.00		4.459e-02		-54.238		1.103e-02		12.305
1		0.00		7.60		4.420e-02		-54.098		1.106e-02		12.778
1		0.00		7.20		4.307e-02		-54.453		1.089e-02		11.396
1		0.00		6.80		4.274e-02		-54.080		1.014e-02		12.323
1		0.00		6.40		4.125e-02		-53.564		9.740e-03		11.763
1		0.00		6.00		4.167e-02		-53.524		9.828e-03		11.782
1		0.00		5.60		4.056e-02		-52.644		9.846e-03		11.450
1		0.00		5.20		4.012e-02		-53.215		9.619e-03		11.098
1		0.00		4.80		3.834e-02		-52.634		9.554e-03		11.398
1		0.00		4.40		3.784e-02		-52.970		1.046e-02		11.057
1		0.00		4.00		3.629e-02		-53.074		1.020e-02		12.624
1		0.00		3.60		3.625e-02		-53.258		1.016e-02		11.406
1		0.00		3.20		3.586e-02		-53.337		1.066e-02		11.228
1		0.00		2.80		3.532e-02		-52.372		1.064e-02		11.997
1		0.00		2.40		3.451e-02		-52.215		1.054e-02		10.988
1		0.00		2.00		3.348e-02		-51.383		1.029e-02		12.806
1		0.00		1.60		3.339e-02		-51.292		1.050e-02		12.131
1		0.00		1.20		3.338e-02		-49.381		9.956e-03		11.810
1		0.00		0.80		3.256e-02		-48.255		9.815e-03		13.249
1		0.00		0.40		3.199e-02		-47.787		9.211e-03		12.235
1		0.00		0.00		3.145e-02		-50.282		8.768e-03		15.340
1		0.00		-0.40		3.081e-02		-48.565		8.734e-03		14.646
1		0.00		-0.80		2.890e-02		-51.493		7.950e-03		16.016
1		0.00		-1.20		2.688e-02		-52.594		7.048e-03		16.264
1		0.00		-1.60		2.447e-02		-51.690		6.376e-03		16.061
1		0.00		-2.00		2.195e-02		-51.327		5.420e-03		15.797
1		0.00		-2.40		1.965e-02		-50.554		4.940e-03		15.670
1		0.00		-2.80		1.616e-02		-50.727		4.058e-03		15.785
1		0.00		-3.20		1.185e-02		-52.554		3.089e-03		17.119
1		0.00		-3.60		7.070e-03		-58.210		1.949e-03		19.478
1		0.00		-4.00		3.431e-03		-39.313		1.527e-03		49.479
1		0.00		-4.40		2.565e-03		51.918		1.111e-03		84.431
1		0.00		-4.80		4.928e-03		104.740		2.282e-03		43.910
1		0.00		-5.20		7.280e-03		114.740		3.070e-03		28.760
1		0.00		-5.60		1.075e-02		121.992		3.398e-03		19.559
1		0.00		-6.00		1.370e-02		122.684		4.247e-03		15.147
1		0.00		-6.40		1.489e-02		123.304		4.620e-03		13.447
1		0.00		-6.80		1.649e-02		124.711		4.774e-03		12.602
1		0.00		-7.20		1.883e-02		125.542		5.548e-03		12.423
1		0.00		-7.60		1.965e-02		124.782		6.141e-03		13.007
1		0.00		-8.00		2.212e-02		124.666		6.765e-03		22.837
1		0.00		-8.40		2.186e-02		124.446		6.193e-03		23.600
1		0.00		-8.80		2.363e-02		123.316		6.753e-03		25.273
1		0.00		-9.20		2.473e-02		122.287		7.131e-03		25.753
1		0.00		-9.60		2.774e-02		124.095		7.595e-03		20.539
1		0.00		-10.00		2.604e-02		124.582		7.439e-03		17.936
1		0.00		-9.60		2.757e-02		122.499		7.890e-03		18.194
1		0.00		-9.20		2.494e-02		123.251		6.950e-03		15.704
1		0.00		-8.80		2.618e-02		124.863		6.833e-03		13.926
1		0.00		-8.40		2.514e-02		123.419		6.824e-03		14.695
1		0.00		-8.00		2.487e-02		123.685		6.457e-03		15.043
1		0.00		-7.60		2.468e-02		121.307		6.695e-03		14.660
1		0.00		-7.20		2.365e-02		122.070		6.427e-03		13.989
1		0.00		-6.80		2.333e-02		123.197		5.860e-03		14.158
1		0.00		-6.40		2.332e-02		122.986		5.785e-03		13.135
1		0.00		-6.00		2.193e-02		125.439		5.222e-03		12.264
1		0.00		-5.60		2.207e-02		125.106		5.325e-03		11.649
1		0.00		-5.20		2.112e-02		125.237		4.862e-03		10.764
1		0.00		-4.80		2.103e-02		126.895		5.386e-03		10.119
1		0.00		-4.40		2.012e-02		124.263		5.365e-03		9.510
1		0.00		-4.00		1.952e-02		126.320		5.196e-03		10.275
1		0.00		-3.60		1.947e-02		126.725		5.426e-03		10.990
1		0.00		-3.20		1.853e-02		124.090		5.539e-03		14.175
1		0.00		-2.80		1.860e-02		125.763		5.302e-03		17.852
1		0.00		-2.40		1.772e-02		123.231		5.116e-03		22.744
1		0.00		-2.00		1.775e-02		121.398		5.269e-03		25.890
1		0.00		-1.60		1.684e-02		122.425		5.109e-03		29.168
1		0.00		-1.20		1.648e-02		121.937		4.654e-03		26.263
1		0.00		-0.80		1.574e-02		120.840		4.672e-03		25.564
1		0.00		-0.40		1.535e-02		124.525		4.427e-03		23.849
2		0.00		0.00		1.503e-02		122.512		4.130e-03		18.480
2		0.00		0.40		1.477e-02		123.300		4.155e-03		20.318
2		0.00		0.80		1.375e-02		125.249		3.694e-03		20.101
2		0.00		1.20		1.351e-02		124.907		3.345e-03		15.124
2		0.00		1.60		1.259e-02		125.211		3.051e-03		16.355
2		0.00		2.00		1.148e-02		127.344		2.880e-03		14.842
2		0.00		2.40		9.950e-03		128.331		2.498e-03		14.763
2		0.00		2.80		8.846e-03		129.406		2.193e-03		15.873
2		0.00		3.20		7.351e-03		128.450		1.805e-03		14.956
2		0.00		3.60		4.822e-03		123.932		1.463e-03		29.099
2		0.00		4.00		3.218e-03		104.611		1.273e-03		55.302
2		0.00		4.40		2.105e-03		13.376		7.836e-04		78.449
2		0.00		4.80		3.161e-03		-41.173		1.235e-03		47.473
2		0.00		5.20		5.374e-03		-59.986		1.775e-03		22.219
2		0.00		5.60		8.112e-03		-55.911		2.449e-03		21.814
2		0.00		6.00		1.223e-02		-52.654		3.224e-03		15.243
2		0.00		6.40		1.536e-02		-56.601		4.105e-03		16.983
2		0.00		6.80		2.124e-02		-55.465		5.421e-03		14.708
2		0.00		7.20		2.606e-02		-56.153		6.783e-03		15.336
2		0.00		7.60		2.943e-02		-54.360		7.631e-03		12.768
2		0.00		8.00		3.342e-02		-53.478		8.751e-03		11.306
2		0.00		8.40		3.641e-02		-53.765		9.643e-03		11.344
2		0.00		8.80		3.868e-02		-53.194		9.511e-03		10.126
2		0.00		9.20		4.036e-02		-52.341		9.607e-03		10.771
2		0.00		9.60		4.185e-02		-52.376		1.050e-02		10.274
2		0.00		10.00		4.223e-02		-52.038		1.160e-02		10.841
2		0.00		9.60		4.105e-02		-51.088		1.114e-02		10.951
2		0.00		9.20		4.059e-02		-50.654		1.117e-02		11.745
2		0.00		8.80		3.882e-02		-50.263		1.066e-02		12.229
2		0.00		8.40		3.811e-02		-49.043		1.067e-02		12.307
2		0.00		8.00		3.699e-02		-48.483		1.054e-02		14.854
2		0.00		7.60		3.677e-02		-50.363		1.040e-02		17.590
2		0.00		7.20		3.567e-02		-47.917		9.994e-03		14.349
2		0.00		6.80		3.509e-02		-48.196		1.022e-02		16.588
2		0.00		6.40		3.425e-02		-50.224		9.675e-03		14.094
2		0.00		6.00		3.344e-02		-49.461		9.035e-03		14.035
2		0.00		5.60		3.245e-02		-51.044		9.038e-03		16.438
2		0.00		5.20		3.225e-02		-52.468		8.668e-03		14.916
2		0.00		4.80		3.185e-02		-51.323		7.887e-03		13.989
2		0.00		4.40		3.066e-02		-51.802		7.752e-03		14.076
2		0.00		4.00		3.137e-02		-51.759		7.497e-03		13.418
2		0.00		3.60		3.097e-02		-51.680		6.607e-03		13.241
2		0.00		3.20		3.109e-02		-51.767		6.212e-03		12.884
2		0.00		2.80		3.042e-02		-52.960		5.943e-03		13.163
2		0.00		2.40		3.037e-02		-52.546		5.847e-03		13.135
2		0.00		2.00		2.994e-02		-53.800		5.463e-03		13.243
2		0.00		1.60		2.900e-02		-52.513		5.545e-03		11.982
2		0.00		1.20		2.946e-02		-53.242		5.964e-03		11.227
2		0.00		0.80		2.897e-02		-51.734		6.049e-03		11.086
2		0.00		0.40		2.911e-02		-51.909		5.898e-03		10.880
2		0.00		0.00		2.796e-02		-53.207		6.551e-03		10.067
2		0.00		-0.40		2.710e-02		-51.709		6.900e-03		10.231
2		0.00		-0.80		2.601e-02		-50.081		6.839e-03		11.207
2		0.00		-1.20		2.441e-02		-51.731		6.867e-03		9.954
2		0.00		-1.60		2.168e-02		-49.086		6.107e-03		10.908
2		0.00		-2.00		1.934e-02		-52.046		5.572e-03		11.144
2		0.00		-2.40		1.562e-02		-48.915		4.587e-03		13.384
2		0.00		-2.80		1.264e-02		-48.512		3.811e-03		15.382
2		0.00		-3.20		9.374e-03		-46.262		2.922e-03		18.290
2		0.00		-3.60		6.439e-03		-41.970		2.205e-03		21.059
2		0.00		-4.00		3.848e-03		-42.443		1.853e-03		34.875
2		0.00		-4.40		2.955e-03		-24.782		1.465e-03		53.610
2		0.00		-4.80		2.577e-03		36.957		1.144e-03		59.846
2		0.00		-5.20		4.519e-03		95.892		1.697e-03		39.481
2		0.00		-5.60		6.167e-03		105.509		2.439e-03		41.660
2		0.00		-6.00		8.000e-03		112.369		2.764e-03		29.952
2		0.00		-6.40		1.088e-02		120.329		3.250e-03		19.121
2		0.00		-6.80		1.164e-02		122.578		3.488e-03		18.553
2		0.00		-7.20		1.436e-02		125.268		4.138e-03		15.065
2		0.00		-7.60		1.560e-02		124.756		4.244e-03		13.069
2		0.00		-8.00		1.730e-02		124.652		4.642e-03		12.625
2		0.00		-8.40		1.722e-02		123.507		4.577e-03		12.746
2		0.00		-8.80		1.928e-02		123.519		4.692e-03		12.008
2		0.00		-9.20		2.082e-02		125.470		5.130e-03		11.609
2		0.00		-9.60		2.046e-02		125.352		4.803e-03		13.777
2		0.00		-10.00		2.221e-02		123.576		5.499e-03		11.472
2		0.00		-9.60		2.233e-02		124.758		5.299e-03		12.066
2		0.00		-9.20		2.184e-02		123.738		4.924e-03		10.934
2		0.00		-8.80		2.304e-02		124.705		5.561e-03		9.633
2		0.00		-8.40		2.104e-02		126.043		4.889e-03		11.197
2		0.00		-8.00		2.181e-02		125.321		5.200e-03		10.084
2		0.00		-7.60		1.949e-02		126.687		4.795e-03		10.855
2		0.00		-7.20		1.873e-02		126.909		4.649e-03		9.705
2		0.00		-6.80		1.844e-02		126.852		4.840e-03		9.211
2		0.00		-6.40		1.726e-02		123.464		4.534e-03		11.682
2		0.00		-6.00		1.673e-02		123.970		4.673e-03		16.237
2		0.00		-5.60		1.604e-02		124.257		4.319e-03		21.391
2		0.00		-5.20		1.497e-02		123.853		3.949e-03		23.970
2		0.00		-4.80		1.441e-02		124.763		3.879e-03		26.213
2		0.00		-4.40		1.421e-02		121.023		3.879e-03		22.828
2		0.00		-4.00		1.303e-02		121.117		3.778e-03		21.602
2		0.00		-3.60		1.291e-02		124.163		3.431e-03		17.840
2		0.00		-3.20		1.214e-02		123.038		3.377e-03		15.127
2		0.00		-2.80		1.152e-02		123.913		2.854e-03		13.146
2		0.00		-2.40		1.133e-02		122.684		2.776e-03		14.780
2		0.00		-2.00		1.043e-02		119.315		2.821e-03		13.148
2		0.00		-1.60		1.039e-02		125.169		2.343e-03		13.498
2		0.00		-1.20		9.908e-03		125.931		2.210e-03		15.505
2		0.00		-0.80		9.330e-03		124.366		2.391e-03		13.560
2		0.00		-0.40		8.543e-03		123.300		2.373e-03		13.639
3		0.00		0.00		8.165e-03		125.446		2.217e-03		17.416
3		0.00		0.40		7.569e-03		122.692		2.062e-03		15.734
3		0.00		0.80		7.184e-03		121.319		2.046e-03		16.753
3		0.00		1.20		6.272e-03		121.967		2.028e-03		20.150
3		0.00		1.60		5.814e-03		115.143		1.958e-03		33.385
3		0.00		2.00		4.832e-03		117.879		1.658e-03		30.739
3		0.00		2.40		4.290e-03		117.510		1.466e-03		43.096
3		0.00		2.80		3.311e-03		96.589		1.227e-03		39.747
3		0.00		3.20		2.464e-03		63.163		1.100e-03		57.144
3		0.00		3.60		1.886e-03		14.747		7.707e-04		60.184
3		0.00		4.00		2.398e-03		-36.309		9.704e-04		47.865
3		0.00		4.40		3.400e-03		-36.976		1.283e-03		37.228
3		0.00		4.80		5.841e-03		-46.122		1.894e-03		22.677
3		0.00		5.20		1.018e-02		-51.886		2.869e-03		21.977
3		0.00		5.60		1.405e-02		-52.075		3.901e-03		18.351
3		0.00		6.00		1.732e-02		-49.465		4.301e-03		16.131
3		0.00		6.40		2.006e-02		-49.422		4.834e-03		14.963
3		0.00		6.80		2.473e-02		-50.250		5.922e-03		16.452
3		0.00		7.20		2.744e-02		-51.431		6.521e-03		15.972
3		0.00		7.60		2.835e-02		-50.751		6.611e-03		14.244
3		0.00		8.00		2.990e-02		-50.776		7.609e-03		16.216
3		0.00		8.40		3.206e-02		-51.752		7.922e-03		14.895
3		0.00		8.80		3.392e-02		-50.321		8.697e-03		15.418
3		0.00		9.20		3.443e-02		-50.366		8.739e-03		15.024
3		0.00		9.60		3.635e-02		-50.566		9.160e-03		15.678
3		0.00		10.00		3.749e-02		-50.096		9.051e-03		14.316
3		0.00		9.60		3.544e-02		-50.742		9.639e-03		15.585
3		0.00		9.20		3.361e-02		-53.146		9.349e-03		15.482
3		0.00		8.80		3.246e-02		-52.185		8.566e-03		15.954
3		0.00		8.40		3.112e-02		-51.533		7.975e-03		14.700
3		0.00		8.00		3.068e-02		-51.356		7.697e-03		14.980
3		0.00		7.60		2.939e-02		-51.306		7.133e-03		15.841
3		0.00		7.20		2.865e-02		-51.152		7.242e-03		15.941
3		0.00		6.80		2.927e-02		-50.930		6.665e-03		14.973
3		0.00		6.40		2.885e-02		-51.153		6.629e-03		15.100
3		0.00		6.00		2.898e-02		-50.283		5.979e-03		15.043
3		0.00		5.60		2.870e-02		-50.128		5.908e-03		13.418
3		0.00		5.20		2.824e-02		-53.462		5.761e-03		14.640
3		0.00		4.80		2.850e-02		-51.160		5.717e-03		14.501
3		0.00		4.40		2.750e-02		-49.957		5.710e-03		14.538
3		0.00		4.00		2.731e-02		-50.554		5.706e-03		14.018
3		0.00		3.60		2.694e-02		-50.612		5.544e-03		13.150
3		0.00		3.20		2.698e-02		-51.940		5.313e-03		12.702
3		0.00		2.80		2.619e-02		-49.728		5.167e-03		13.942
3		0.00		2.40		2.599e-02		-50.999		5.267e-03		13.429
3		0.00		2.00		2.487e-02		-50.869		5.247e-03		14.412
3		0.00		1.60		2.517e-02		-50.963		5.143e-03		13.410
3		0.00		1.20		2.471e-02		-52.363		4.954e-03		14.150
3		0.00		0.80		2.451e-02		-50.981		5.240e-03		13.759
3		0.00		0.40		2.417e-02		-51.739		5.436e-03		14.864
3		0.00		0.00		2.433e-02		-51.158		4.883e-03		13.518
3		0.00		-0.40		2.410e-02		-50.520		4.707e-03		12.948
3		0.00		-0.80		2.246e-02		-51.518		4.260e-03		13.230
3		0.00		-1.20		2.104e-02		-49.591		3.903e-03		12.851
3		0.00		-1.60		1.902e-02		-48.906		2.997e-03		13.895
3		0.00		-2.00		1.738e-02		-50.722		2.827e-03		14.810
3		0.00		-2.40		1.461e-02		-50.347		2.512e-03		13.857
3		0.00		-2.80		1.158e-02		-48.864		1.925e-03		14.147
3		0.00		-3.20		9.785e-03		-50.458		1.890e-03		13.683
3		0.00		-3.60		6.513e-03		-51.713		1.721e-03		19.337
3		0.00		-4.00		3.886e-03		-38.238		1.912e-03		31.963
3		0.00		-4.40		2.786e-03		3.449		1.416e-03		61.273
3		0.00		-4.80		2.597e-03		34.089		1.141e-03		64.448
3		0.00		-5.20		4.138e-03		92.520		1.784e-03		48.891
3		0.00		-5.60		5.159e-03		94.358		2.256e-03		50.186
3		0.00		-6.00		7.573e-03		109.480		2.813e-03		35.457
3		0.00		-6.40		9.889e-03		112.112		3.331e-03		39.348
3		0.00		-6.80		1.096e-02		116.318		3.677e-03		28.845
3		0.00		-7.20		1.237e-02		121.768		4.096e-03		19.408
3		0.00		-7.60		1.435e-02		121.294		4.373e-03		11.618
3		0.00		-8.00		1.642e-02		121.883		4.850e-03		11.585
3		0.00		-8.40		1.665e-02		124.565		4.712e-03		13.270
3		0.00		-8.80		1.885e-02		123.940		4.855e-03		11.544
3		0.00		-9.20		1.968e-02		123.373		4.905e-03		11.588
3		0.00		-9.60		2.027e-02		123.948		4.873e-03		12.516
3		0.00		-10.00		1.997e-02		124.518		4.850e-03		13.338
3		0.00		-9.60		1.919e-02		124.089		4.848e-03		12.652
3		0.00		-9.20		1.987e-02		123.481		5.211e-03		12.532
3		0.00		-8.80		1.845e-02		124.285		4.361e-03		13.157
3		0.00		-8.40		1.852e-02		125.027		4.694e-03		13.385
3		0.00		-8.00		1.845e-02		125.489		4.767e-03		12.682
3		0.00		-7.60		1.821e-02		126.686		5.160e-03		12.786
3		0.00		-7.20		1.765e-02		125.314		4.787e-03		12.456
3		0.00		-6.80		1.612e-02		126.153		4.688e-03		15.584
3		0.00		-6.40		1.486e-02		126.634		4.185e-03		13.390
3		0.00		-6.00		1.379e-02		124.752		4.305e-03		14.082
3		0.00		-5.60		1.337e-02		124.279		4.078e-03		18.496
3		0.00		-5.20		1.234e-02		120.553		3.970e-03		23.766
3		0.00		-4.80		1.171e-02		120.761		3.836e-03		23.105
3		0.00		-4.40		1.116e-02		116.827		3.773e-03		30.573
3		0.00		-4.00		1.040e-02		118.442		3.588e-03		33.311
3		0.00		-3.60		9.748e-03		118.275		3.378e-03		34.237
3		0.00		-3.20		9.487e-03		113.397		3.273e-03		32.464
3		0.00		-2.80		8.530e-03		113.967		2.956e-03		35.189
3		0.00		-2.40		8.308e-03		115.485		2.668e-03		35.345
3		0.00		-2.00		8.197e-03		113.257		2.915e-03		26.260
3		0.00		-1.60		7.471e-03		121.356		2.508e-03		25.546
3		0.00		-1.20		7.027e-03		117.565		2.453e-03		28.459
3		0.00		-0.80		6.342e-03		118.590		2.433e-03		24.715
3		0.00		-0.40		6.127e-03		114.490		2.061e-03		30.708
4		0.00		0.00		5.299e-03		113.773		1.878e-03		28.036
4		0.00		0.40		4.875e-03		115.814		1.995e-03		30.448
4		0.00		0.80		4.358e-03		108.951		1.585e-03		34.432
4		0.00		1.20		3.589e-03		96.499		1.611e-03		51.754
4		0.00		1.60		3.083e-03		90.838		1.373e-03		43.964
4		0.00		2.00		2.611e-03		67.808		1.159e-03		66.984
4		0.00		2.40		2.288e-03		52.390		8.507e-04		55.692
4		0.00		2.80		1.961e-03		41.657		9.589e-04		56.002
4		0.00		3.20		1.929e-03		1.990		8.403e-04		65.547
4		0.00		3.60		2.179e-03		-22.952		8.855e-04		56.283
4		0.00		4.00		3.244e-03		-36.050		1.379e-03		40.583
4		0.00		4.40		4.519e-03		-51.410		1.657e-03		27.351
4		0.00		4.80		6.934e-03		-47.077		2.095e-03		20.168
4		0.00		5.20		9.392e-03		-48.275		2.819e-03		21.255
4		0.00		5.60		1.150e-02		-46.001		3.091e-03		15.888
4		0.00		6.00		1.523e-02		-49.654		4.059e-03		12.696
4		0.00		6.40		1.936e-02		-51.629		4.696e-03		12.364
4		0.00		6.80		2.279e-02		-51.087		5.507e-03		12.749
4		0.00		7.20		2.427e-02		-50.852		5.444e-03		12.680
4		0.00		7.60		2.519e-02		-52.594		5.640e-03		14.613
4		0.00		8.00		2.822e-02		-52.732		6.626e-03		15.445
4		0.00		8.40		2.982e-02		-51.442		7.526e-03		15.539
4		0.00		8.80		3.171e-02		-50.162		8.204e-03		15.372
4		0.00		9.20		3.223e-02		-51.077		9.192e-03		15.765
4		0.00		9.60		3.399e-02		-50.779		1.042e-02		18.476
4		0.00		10.00		3.372e-02		-52.059		1.033e-02		20.828
4		0.00		9.60		3.223e-02		-50.113		9.974e-03		25.897
4		0.00		9.20		3.175e-02		-47.900		9.907e-03		24.874
4		0.00		8.80		3.085e-02		-48.540		9.871e-03		22.217
4		0.00		8.40		3.021e-02		-48.646		9.206e-03		12.057
4		0.00		8.00		2.930e-02		-47.850		7.954e-03		10.814
4		0.00		7.60		2.877e-02		-50.137		7.174e-03		10.958
4		0.00		7.20		2.880e-02		-50.422		6.163e-03		12.096
4		0.00		6.80		2.846e-02		-51.846		5.667e-03		13.428
4		0.00		6.40		2.776e-02		-51.767		5.628e-03		13.935
4		0.00		6.00		2.644e-02		-51.983		5.509e-03		14.513
4		0.00		5.60		2.561e-02		-50.808		5.620e-03		14.430
4		0.00		5.20		2.466e-02		-51.441		6.006e-03		15.574
4		0.00		4.80		2.407e-02		-49.271		5.837e-03		16.112
4		0.00		4.40		2.341e-02		-49.388		6.022e-03		18.634
4		0.00		4.00		2.316e-02		-48.945		6.218e-03		20.839
4		0.00		3.60		2.345e-02		-47.558		6.374e-03		27.248
4		0.00		3.20		2.346e-02		-47.107		6.509e-03		22.520
4		0.00		2.80		2.379e-02		-50.113		6.866e-03		13.144
4		0.00		2.40		2.360e-02		-48.972		6.053e-03		10.703
4		0.00		2.00		2.334e-02		-51.619		5.470e-03		11.408
4		0.00		1.60		2.369e-02		-51.935		5.284e-03		12.480
4		0.00		1.20		2.308e-02		-52.583		4.780e-03		13.721
4		0.00		0.80		2.218e-02		-51.072		4.890e-03		15.160
4		0.00		0.40		2.171e-02		-50.924		5.178e-03		14.854
4		0.00		0.00		2.105e-02		-51.839		5.406e-03		15.968
4		0.00		-0.40		2.113e-02		-51.299		5.587e-03		18.900
4		0.00		-0.80		1.998e-02		-49.059		5.252e-03		20.038
4		0.00		-1.20		1.869e-02		-47.706		4.932e-03		23.942
4		0.00		-1.60		1.760e-02		-45.993		4.657e-03		19.627
4		0.00		-2.00		1.577e-02		-47.392		3.937e-03		12.998
4		0.00		-2.40		1.280e-02		-50.426		2.740e-03		13.048
4		0.00		-2.80		1.144e-02		-49.243		2.258e-03		15.635
4		0.00		-3.20		8.753e-03		-49.658		2.040e-03		17.986
4		0.00		-3.60		6.172e-03		-46.547		2.164e-03		21.441
4		0.00		-4.00		4.055e-03		-37.606		2.222e-03		41.478
4		0.00		-4.40		3.030e-03		-0.344		1.536e-03		54.871
4		0.00		-4.80		2.992e-03		40.412		1.160e-03		62.339
4		0.00		-5.20		3.737e-03		77.459		1.561e-03		56.007
4		0.00		-5.60		4.627e-03		96.878		1.822e-03		44.319
4		0.00		-6.00		6.178e-03		114.834		2.567e-03		38.010
4		0.00		-6.40		8.154e-03		116.394		3.110e-03		29.846
4		0.00		-6.80		9.990e-03		118.604		3.433e-03		34.248
4		0.00		-7.20		1.269e-02		118.634		3.803e-03		13.502
4		0.00		-7.60		1.443e-02		126.136		4.121e-03		11.742
4		0.00		-8.00		1.638e-02		124.128		4.531e-03		12.394
4		0.00		-8.40		1.621e-02		124.259		4.504e-03		16.851
4		0.00		-8.80		1.838e-02		121.998		5.322e-03		24.819
4		0.00		-9.20		1.984e-02		125.962		5.746e-03		14.933
4		0.00		-9.60		2.052e-02		124.913		6.079e-03		13.086
4		0.00		-10.00		2.263e-02		124.612		5.460e-03		8.650
4		0.00		-9.60		2.118e-02		122.857		5.063e-03		11.720
4		0.00		-9.20		2.062e-02		126.461		4.789e-03		13.149
4		0.00		-8.80		2.011e-02		126.703		4.738e-03		11.005
4		0.00		-8.40		1.925e-02		125.730		4.862e-03		18.109
4		0.00		-8.00		1.836e-02		123.509		4.917e-03		23.713
4		0.00		-7.60		1.834e-02		125.158		5.337e-03		15.540
4		0.00		-7.20		1.871e-02		124.856		4.996e-03		11.636
4		0.00		-6.80		1.706e-02		126.325		4.125e-03		11.334
4		0.00		-6.40		1.596e-02		123.938		3.977e-03		12.423
4		0.00		-6.00		1.526e-02		124.665		3.818e-03		11.540
4		0.00		-5.60		1.415e-02		126.082		3.917e-03		15.540
4		0.00		-5.20		1.305e-02		118.925		3.888e-03		24.206
4		0.00		-4.80		1.286e-02		119.111		4.015e-03		29.437
4		0.00		-4.40		1.172e-02		124.951		3.953e-03		16.915
4		0.00		-4.00		1.128e-02		120.206		3.279e-03		13.907
4		0.00		-3.60		1.074e-02		119.069		3.243e-03		23.149
4		0.00		-3.20		9.731e-03		124.262		2.769e-03		12.591
4		0.00		-2.80		9.302e-03		123.695		2.458e-03		13.868
4		0.00		-2.40		8.844e-03		120.187		2.326e-03		19.897
4		0.00		-2.00		8.041e-03		117.347		2.393e-03		26.834
4		0.00		-1.60		7.615e-03		118.160		2.346e-03		27.822
4		0.00		-1.20		7.009e-03		120.803		2.233e-03		27.147
4		0.00		-0.80		6.595e-03		113.955		2.026e-03		30.582
4		0.00		-0.40		5.971e-03		113.958		1.824e-03		19.192
5		0.00		0.00		5.533e-03		115.285		1.685e-03		25.590
5		0.00		0.40		4.759e-03		112.339		1.457e-03		25.681
5		0.00		0.80		3.888e-03		102.714		1.465e-03		30.548
5		0.00		1.20		3.528e-03		102.846		1.265e-03		38.365
5		0.00		1.60		3.020e-03		91.427		1.169e-03		46.166
5		0.00		2.00		2.365e-03		63.332		9.575e-04		57.497
5		0.00		2.40		1.914e-03		24.124		7.924e-04		74.538
5		0.00		2.80		1.964e-03		-16.267		8.753e-04		65.125
5		0.00		3.20		2.488e-03		-46.077		9.818e-04		47.599
5		0.00		3.60		3.129e-03		-33.904		1.187e-03		37.267
5		0.00		4.00		4.098e-03		-54.747		1.353e-03		23.442
5		0.00		4.40		4.920e-03		-40.831		1.668e-03		23.298
5		0.00		4.80		6.467e-03		-38.911		2.187e-03		23.693
5		0.00		5.20		7.873e-03		-48.992		2.251e-03		16.043
5		0.00		5.60		1.101e-02		-48.381		2.864e-03		11.938
5		0.00		6.00		1.347e-02		-46.166		2.816e-03		10.759
5		0.00		6.40		1.749e-02		-50.821		3.352e-03		10.774
5		0.00		6.80		1.928e-02		-51.903		4.113e-03		13.343
5		0.00		7.20		2.124e-02		-47.697		4.338e-03		12.854
5		0.00		7.60		2.506e-02		-50.305		5.776e-03		13.354
5		0.00		8.00		2.811e-02		-49.317		7.137e-03		14.422
5		0.00		8.40		2.884e-02		-51.114		7.676e-03		12.442
5		0.00		8.80		3.516e-02		-51.059		9.020e-03		9.465
5		0.00		9.20		3.513e-02		-50.758		7.384e-03		8.809
5		0.00		9.60		3.576e-02		-51.124		7.408e-03		11.591
5		0.00		10.00		3.562e-02		-49.769		7.612e-03		14.057
5		0.00		9.60		3.396e-02		-52.460		8.242e-03		14.830
5		0.00		9.20		3.223e-02		-51.987		8.783e-03		17.392
5		0.00		8.80		3.040e-02		-49.717		8.569e-03		16.911
5		0.00		8.40		2.999e-02		-50.516		8.971e-03		15.620
5		0.00		8.00		2.976e-02		-49.068		8.026e-03		10.356
5		0.00		7.60		2.918e-02		-52.235		6.427e-03		10.324
5		0.00		7.20		2.933e-02		-52.705		6.201e-03		12.128
5		0.00		6.80		2.753e-02		-51.838		6.001e-03		14.591
5		0.00		6.40		2.739e-02		-50.345		6.116e-03		14.714
5		0.00		6.00		2.616e-02		-50.569		6.551e-03		17.472
5		0.00		5.60		2.595e-02		-50.131		6.481e-03		16.750
5		0.00		5.20		2.514e-02		-48.957		6.608e-03		13.007
5		0.00		4.80		2.520e-02		-52.159		5.577e-03		10.747
5		0.00		4.40		2.611e-02		-52.192		4.676e-03		10.293
5		0.00		4.00		2.568e-02		-52.085		4.450e-03		12.293
5		0.00		3.60		2.528e-02		-50.057		4.997e-03		12.499
5		0.00		3.20		2.441e-02		-49.210		4.868e-03		13.329
5		0.00		2.80		2.444e-02		-50.876		5.557e-03		14.966
5		0.00		2.40		2.425e-02		-46.843		6.249e-03		14.121
5		0.00		2.00		2.426e-02		-51.347		6.279e-03		12.142
5		0.00		1.60		2.449e-02		-50.890		5.868e-03		9.023
5		0.00		1.20		2.462e-02		-50.968		4.786e-03		9.890
5		0.00		0.80		2.503e-02		-51.009		4.317e-03		11.354
5		0.00		0.40		2.399e-02		-49.699		4.531e-03		11.475
5		0.00		0.00		2.309e-02		-50.488		4.603e-03		11.524
5		0.00		-0.40		2.190e-02		-49.251		4.992e-03		13.263
5		0.00		-0.80		2.047e-02		-49.266		5.303e-03		20.045
5		0.00		-1.20		1.978e-02		-51.028		5.334e-03		13.321
5		0.00		-1.60		1.774e-02		-49.080		4.293e-03		11.819
5		0.00		-2.00		1.649e-02		-48.354		3.280e-03		10.405
5		0.00		-2.40		1.337e-02		-53.033		2.209e-03		13.329
5		0.00		-2.80		9.758e-03		-49.135		2.035e-03		14.931
5		0.00		-3.20		8.075e-03		-53.240		2.146e-03		19.691
5		0.00		-3.60		4.863e-03		-48.684		1.944e-03		27.399
5		0.00		-4.00		3.514e-03		-27.444		1.805e-03		40.128
5		0.00		-4.40		2.825e-03		11.018		1.499e-03		65.647
5		0.00		-4.80		3.089e-03		63.916		1.141e-03		57.373
5		0.00		-5.20		4.800e-03		103.164		1.922e-03		38.960
5		0.00		-5.60		7.299e-03		111.941		2.562e-03		29.492
5		0.00		-6.00		9.156e-03		113.928		3.017e-03		30.788
5		0.00		-6.40		1.019e-02		119.313		3.163e-03		23.909
5		0.00		-6.80		1.118e-02		123.879		3.543e-03		20.205
5		0.00		-7.20		1.400e-02		119.685		4.194e-03		27.326
5		0.00		-7.60		1.539e-02		121.628		5.264e-03		26.357
5		0.00		-8.00		1.661e-02		124.543		5.643e-03		14.930
5		0.00		-8.40		1.846e-02		126.309		5.876e-03		10.983
5		0.00		-8.80		1.962e-02		124.826		5.423e-03		10.287
5		0.00		-9.20		2.007e-02		124.009		5.245e-03		10.864
5		0.00		-9.60		2.124e-02		123.707		5.203e-03		11.794
5		0.00		-10.00		2.119e-02		127.078		5.307e-03		12.547
5		0.00		-9.60		2.161e-02		124.093		5.806e-03		15.352
5		0.00		-9.20		2.175e-02		124.074		5.781e-03		19.135
5		0.00		-8.80		2.074e-02		122.993		5.503e-03		20.841
5		0.00		-8.40		2.154e-02		127.585		6.075e-03		13.133
5		0.00		-8.00		1.968e-02		127.100		5.392e-03		9.757
5		0.00		-7.60		2.019e-02		124.826		4.941e-03		10.572
5		0.00		-7.20		1.895e-02		125.306		4.471e-03		10.613
5		0.00		-6.80		1.783e-02		123.719		4.183e-03		10.980
5		0.00		-6.40		1.752e-02		125.866		4.324e-03		11.545
5		0.00		-6.00		1.663e-02		127.610		4.018e-03		13.761
5		0.00		-5.60		1.632e-02		123.073		4.095e-03		17.190
5		0.00		-5.20		1.486e-02		122.908		4.019e-03		25.213
5		0.00		-4.80		1.407e-02		122.412		4.063e-03		24.681
5		0.00		-4.40		1.329e-02		121.915		4.265e-03		15.531
5		0.00		-4.00		1.268e-02		122.724		3.434e-03		11.567
5		0.00		-3.60		1.225e-02		125.866		3.240e-03		15.068
5		0.00		-3.20		1.131e-02		124.526		3.076e-03		13.698
5		0.00		-2.80		1.064e-02		121.277		2.631e-03		12.768
5		0.00		-2.40		9.962e-03		120.422		2.827e-03		16.369
5		0.00		-2.00		8.915e-03		120.493		2.524e-03		18.101
5		0.00		-1.60		8.393e-03		117.211		2.513e-03		24.440
5		0.00		-1.20		7.645e-03		114.633		2.462e-03		31.607
5		0.00		-0.80		6.966e-03		116.799		2.353e-03		36.872
5		0.00		-0.40		6.201e-03		116.082		1.933e-03		24.130
6		0.00		0.00		6.046e-03		121.168		2.081e-03		31.248
6		0.00		0.40		5.348e-03		111.547		1.821e-03		25.660
6		0.00		0.80		4.906e-03		106.268		1.649e-03		33.130
6		0.00		1.20		3.971e-03		105.496		1.439e-03		28.760
6		0.00		1.60		3.474e-03		100.785		1.315e-03		36.535
6		0.00		2.00		2.833e-03		81.138		1.240e-03		53.706
6		0.00		2.40		2.523e-03		68.184		1.025e-03		53.347
6		0.00		2.80		2.144e-03		33.846		8.985e-04		64.008
6		0.00		3.20		2.075e-03		12.754		8.851e-04		68.319
6		0.00		3.60		2.310e-03		-12.136		9.986e-04		57.337
6		0.00		4.00		3.046e-03		-31.796		1.252e-03		39.673
6		0.00		4.40		4.116e-03		-49.495		1.235e-03		21.760
6		0.00		4.80		5.338e-03		-48.210		1.383e-03		21.041
6		0.00		5.20		6.694e-03		-43.553		1.774e-03		19.309
6		0.00		5.60		1.071e-02		-48.650		2.629e-03		16.002
6		0.00		6.00		1.197e-02		-51.354		3.260e-03		15.076
6		0.00		6.40		1.696e-02		-50.860		4.914e-03		15.976
6		0.00		6.80		2.127e-02		-50.060		6.090e-03		14.428
6		0.00		7.20		2.556e-02		-50.821		6.424e-03		10.999
6		0.00		7.60		2.848e-02		-51.832		6.144e-03		10.523
6		0.00		8.00		2.835e-02		-50.075		5.717e-03		11.610
6		0.00		8.40		3.041e-02		-52.872		6.397e-03		12.563
6		0.00		8.80		3.267e-02		-51.430		6.911e-03		12.291
6		0.00		9.20		3.431e-02		-50.091		8.129e-03		13.955
6		0.00		9.60		3.323e-02		-49.736		8.156e-03		16.048
6		0.00		10.00		3.310e-02		-49.112		8.542e-03		19.698
6		0.00		9.60		3.366e-02		-49.374		9.112e-03		13.100
6		0.00		9.20		3.297e-02		-50.674		7.770e-03		10.467
6		0.00		8.80		3.406e-02		-49.790		7.525e-03		10.560
6		0.00		8.40		3.069e-02		-51.054		6.284e-03		11.898
6		0.00		8.00		2.958e-02		-51.958		6.054e-03		13.364
6		0.00		7.60		2.869e-02		-49.963		5.924e-03		13.119
6		0.00		7.20		2.766e-02		-49.915		6.534e-03		13.932
6		0.00		6.80		2.788e-02		-50.931		7.080e-03		17.042
6		0.00		6.40		2.684e-02		-49.898		7.330e-03		15.492
6		0.00		6.00		2.611e-02		-46.299		7.600e-03		16.371
6		0.00		5.60		2.554e-02		-49.181		6.905e-03		10.785
6		0.00		5.20		2.614e-02		-50.496		6.053e-03		9.973
6		0.00		4.80		2.636e-02		-52.331		5.248e-03		10.613
6		0.00		4.40		2.703e-02		-51.540		4.936e-03		12.173
6		0.00		4.00		2.614e-02		-50.202		5.192e-03		13.341
6		0.00		3.60		2.576e-02		-49.647		5.429e-03		13.373
6		0.00		3.20		2.429e-02		-50.122		5.587e-03		15.074
6		0.00		2.80		2.423e-02		-49.476		6.133e-03		15.350
6		0.00		2.40		2.377e-02		-47.044		6.265e-03		12.005
6		0.00		2.00		2.444e-02		-48.294		6.414e-03		10.712
6		0.00		1.60		2.473e-02		-51.685		5.737e-03		9.569
6		0.00		1.20		2.438e-02		-50.594		4.711e-03		10.412
6		0.00		0.80		2.512e-02		-51.431		4.464e-03		10.784
6		0.00		0.40		2.387e-02		-52.146		4.636e-03		12.450
6		0.00		0.00		2.276e-02		-48.045		5.122e-03		14.003
6		0.00		-0.40		2.162e-02		-51.757		5.486e-03		15.921
6		0.00		-0.80		2.041e-02		-49.959		5.473e-03		19.933
6		0.00		-1.20		1.854e-02		-48.981		5.344e-03		22.548
6		0.00		-1.60		1.627e-02		-48.559		4.639e-03		14.117
6		0.00		-2.00		1.460e-02		-50.746		3.653e-03		11.340
6		0.00		-2.40		1.268e-02		-48.180		2.745e-03		13.384
6		0.00		-2.80		1.061e-02		-50.339		2.262e-03		15.647
6		0.00		-3.20		6.627e-03		-46.659		2.027e-03		19.715
6		0.00		-3.60		4.522e-03		-47.226		1.971e-03		31.172
6		0.00		-4.00		2.861e-03		-10.766		1.694e-03		57.298
6		0.00		-4.40		2.788e-03		34.665		1.320e-03		73.241
6		0.00		-4.80		4.304e-03		84.566		1.762e-03		55.560
6		0.00		-5.20		5.248e-03		100.296		2.172e-03		41.073
6		0.00		-5.60		7.298e-03		116.236		2.461e-03		35.656
6		0.00		-6.00		8.626e-03		116.658		3.068e-03		33.487
6		0.00		-6.40		1.047e-02		119.892		3.314e-03		25.348
6		0.00		-6.80		1.316e-02		126.315		4.080e-03		14.248
6		0.00		-7.20		1.565e-02		124.511		4.580e-03		15.686
6		0.00		-7.60		1.609e-02		123.748		4.658e-03		22.470
6		0.00		-8.00		1.686e-02		120.761		5.377e-03		24.179
6		0.00		-8.40		1.791e-02		124.279		5.956e-03		22.009
6		0.00		-8.80		1.874e-02		126.274		5.851e-03		13.334
6		0.00		-9.20		2.055e-02		124.659		5.583e-03		11.891
6		0.00		-9.60		2.185e-02		125.861		5.593e-03		11.276
6		0.00		-10.00		2.181e-02		125.229		5.628e-03		12.089
6		0.00		-9.60		2.163e-02		127.042		5.589e-03		10.365
6		0.00		-9.20		2.275e-02		122.845		6.314e-03		15.708
6		0.00		-8.80		2.131e-02		123.991		6.078e-03		22.050
6		0.00		-8.40		2.126e-02		123.493		6.150e-03		24.611
6		0.00		-8.00		2.145e-02		128.513		6.376e-03		9.162
6		0.00		-7.60		2.055e-02		125.551		5.350e-03		10.848
6		0.00		-7.20		2.013e-02		127.962		4.845e-03		10.180
6		0.00		-6.80		1.804e-02		126.220		4.350e-03		12.647
6		0.00		-6.40		1.709e-02		125.168		4.086e-03		10.988
6		0.00		-6.00		1.583e-02		126.308		3.976e-03		14.935
6		0.00		-5.60		1.530e-02		123.617		4.168e-03		19.332
6		0.00		-5.20		1.405e-02		123.073		3.920e-03		24.417
6		0.00		-4.80		1.335e-02		123.447		3.876e-03		22.705
6		0.00		-4.40		1.284e-02		122.620		3.970e-03		16.094
6		0.00		-4.00		1.253e-02		121.016		3.522e-03		15.895
6		0.00		-3.60		1.145e-02		124.903		2.918e-03		18.804
6		0.00		-3.20		1.036e-02		128.410		3.040e-03		13.154
6		0.00		-2.80		9.510e-03		120.078		2.947e-03		17.603
6		0.00		-2.40		8.528e-03		119.182		2.972e-03		25.347
6		0.00		-2.00		8.184e-03		114.087		2.680e-03		29.213
6		0.00		-1.60		7.487e-03		114.068		2.770e-03		31.216
6		0.00		-1.20		7.029e-03		118.248		2.516e-03		33.252
6		0.00		-0.80		6.508e-03		118.912		2.256e-03		31.073
6		0.00		-0.40		6.142e-03		115.786		2.034e-03		26.374
7		0.00		0.00		5.683e-03		116.747		1.882e-03		23.724
7		0.00		0.40		5.146e-03		111.647		1.729e-03		34.267
7		0.00		0.80		4.439e-03		114.210		1.730e-03		36.383
7		0.00		1.20		3.910e-03		105.436		1.322e-03		36.269
7		0.00		1.60		3.317e-03		93.182		1.313e-03		42.283
7		0.00		2.00		2.857e-03		89.163		1.014e-03		48.242
7		0.00		2.40		2.585e-03		76.673		1.023e-03		58.736
7		0.00		2.80		2.032e-03		25.322		7.899e-04		58.366
7		0.00		3.20		2.117e-03		-12.334		8.594e-04		62.639
7		0.00		3.60		2.391e-03		-38.953		9.233e-04		49.536
7		0.00		4.00		3.016e-03		-40.426		1.146e-03		35.681
7		0.00		4.40		3.634e-03		-26.513		1.392e-03		33.002
7		0.00		4.80		4.734e-03		-40.336		1.497e-03		30.029
7		0.00		5.20		6.101e-03		-44.940		2.007e-03		20.259
7		0.00		5.60		7.792e-03		-54.431		2.411e-03		16.023
7		0.00		6.00		1.052e-02		-50.350		2.884e-03		14.136
7		0.00		6.40		1.321e-02		-50.028		2.740e-03		13.504
7		0.00		6.80		2.048e-02		-51.623		4.467e-03		13.373
7		0.00		7.20		2.171e-02		-51.832		4.901e-03		13.123
7		0.00		7.60		2.363e-02		-51.211		5.868e-03		14.056
7		0.00		8.00		2.909e-02		-53.508		7.815e-03		20.019
7		0.00		8.40		2.919e-02		-49.069		8.152e-03		16.605
7		0.00		8.80		3.086e-02		-50.097		8.532e-03		10.017
7		0.00		9.20		3.432e-02		-50.198		8.650e-03		10.762
7		0.00		9.60		3.733e-02		-51.694		8.490e-03		10.238
7		0.00		10.00		3.679e-02		-51.888		8.280e-03		12.745
7		0.00		9.60		3.333e-02		-51.308		7.284e-03		13.439
7		0.00		9.20		3.151e-02		-49.020		7.003e-03		12.167
7		0.00		8.80		3.032e-02		-50.780		7.399e-03		13.655
7		0.00		8.40		2.875e-02		-51.430		7.548e-03		19.123
7		0.00		8.00		2.668e-02		-47.597		7.310e-03		12.585
7		0.00		7.60		2.789e-02		-50.234		7.160e-03		9.793
7		0.00		7.20		2.851e-02		-50.638		6.231e-03		8.698
7		0.00		6.80		2.798e-02		-50.837		5.628e-03		10.825
7		0.00		6.40		2.719e-02		-52.287		5.759e-03		12.983
7		0.00		6.00		2.618e-02		-50.699		5.813e-03		13.454
7		0.00		5.60		2.586e-02		-49.762		6.066e-03		12.684
7		0.00		5.20		2.546e-02		-51.194		6.899e-03		15.015
7		0.00		4.80		2.545e-02		-49.671		6.834e-03		17.789
7		0.00		4.40		2.474e-02		-46.498		7.245e-03		18.471
7		0.00		4.00		2.500e-02		-50.828		7.211e-03		11.358
7		0.00		3.60		2.494e-02		-51.710		6.315e-03		11.018
7		0.00		3.20		2.438e-02		-51.635		4.904e-03		9.643
7		0.00		2.80		2.417e-02		-52.230		4.571e-03		11.661
7		0.00		2.40		2.370e-02		-50.765		4.527e-03		12.944
7		0.00		2.00		2.286e-02		-49.274		4.977e-03		14.305
7		0.00		1.60		2.271e-02		-50.860		5.430e-03		15.922
7		0.00		1.20		2.256e-02		-50.362		5.838e-03		22.079
7		0.00		0.80		2.284e-02		-48.388		6.057e-03		22.839
7		0.00		0.40		2.298e-02		-49.969		5.905e-03		11.247
7		0.00		0.00		2.326e-02		-52.102		5.198e-03		10.656
7		0.00		-0.40		2.207e-02		-50.584		4.130e-03		11.229
7		0.00		-0.80		2.136e-02		-50.242		3.764e-03		12.715
7		0.00		-1.20		1.935e-02		-50.350		3.817e-03		14.724
7		0.00		-1.60		1.714e-02		-50.648		3.377e-03		13.644
7		0.00		-2.00		1.530e-02		-49.671		3.463e-03		15.685
7		0.00		-2.40		1.330e-02		-51.558		3.655e-03		16.703
7		0.00		-2.80		1.131e-02		-46.275		3.193e-03		12.522
7		0.00		-3.20		8.169e-03		-50.647		2.773e-03		20.300
7		0.00		-3.60		6.432e-03		-50.254		2.197e-03		18.037
7		0.00		-4.00		3.539e-03		-30.141		1.808e-03		35.904
7		0.00		-4.40		2.637e-03		37.321		1.242e-03		67.425
7		0.00		-4.80		3.430e-03		75.875		1.604e-03		56.116
7		0.00		-5.20		4.906e-03		100.779		1.947e-03		40.268
7		0.00		-5.60		7.585e-03		114.113		2.654e-03		29.878
7		0.00		-6.00		9.089e-03		114.341		2.948e-03		30.922
7		0.00		-6.40		1.145e-02		118.483		3.544e-03		29.055
7		0.00		-6.80		1.343e-02		122.705		4.158e-03		17.734
7		0.00		-7.20		1.544e-02		122.313		4.326e-03		12.464
7		0.00		-7.60		1.673e-02		124.680		4.129e-03		10.055
7		0.00		-8.00		1.883e-02		124.504		4.529e-03		11.165
7		0.00		-8.40		1.995e-02		126.097		4.733e-03		11.211
7		0.00		-8.80		2.199e-02		127.677		5.404e-03		10.843
7		0.00		-9.20		2.104e-02		124.216		5.551e-03		15.698
7		0.00		-9.60		2.145e-02		123.160		6.170e-03		27.460
7		0.00		-10.00		2.231e-02		121.860		7.106e-03		27.164
7		0.00		-9.60		2.214e-02		125.863		6.724e-03		13.007
7		0.00		-9.20		2.245e-02		124.914		6.091e-03		10.173
7		0.00		-8.80		2.250e-02		126.293		5.557e-03		9.502
7		0.00		-8.40		2.154e-02		124.806		4.975e-03		9.550
7		0.00		-8.00		2.162e-02		126.855		5.219e-03		11.328
7		0.00		-7.60		2.083e-02		124.777		5.044e-03		11.947
7		0.00		-7.20		1.978e-02		125.781		5.527e-03		15.894
7		0.00		-6.80		1.903e-02		124.468		5.441e-03		19.518
7		0.00		-6.40		1.734e-02		121.435		4.726e-03		24.737
7		0.00		-6.00		1.731e-02		126.161		5.132e-03		14.012
7		0.00		-5.60		1.579e-02		127.492		4.377e-03		12.497
7		0.00		-5.20		1.503e-02		127.084		3.903e-03		10.761
7		0.00		-4.80		1.402e-02		123.758		3.529e-03		12.078
7		0.00		-4.40		1.271e-02		124.209		3.120e-03		11.568
7		0.00		-4.00		1.192e-02		125.129		2.937e-03		13.705
7		0.00		-3.60		1.134e-02		123.439		3.153e-03		18.020
7		0.00		-3.20		1.062e-02		120.059		3.061e-03		23.825
7		0.00		-2.80		9.900e-03		118.005		2.824e-03		26.785
7		0.00		-2.40		9.237e-03		117.693		2.900e-03		19.629
7		0.00		-2.00		8.538e-03		120.969		2.871e-03		15.536
7		0.00		-1.60		7.503e-03		118.511		2.263e-03		24.120
7		0.00		-1.20		6.885e-03		118.424		2.167e-03		19.677
7		0.00		-0.80		6.250e-03		120.457		1.997e-03		21.571
7		0.00		-0.40		5.856e-03		117.604		1.763e-03		19.078
8		0.00		0.00		5.097e-03		117.662		1.771e-03		26.108
8		0.00		0.40		4.592e-03		114.917		1.599e-03		28.243
8		0.00		0.80		4.112e-03		99.080		1.475e-03		42.569
8		0.00		1.20		3.420e-03		95.829		1.210e-03		51.261
8		0.00		1.60		2.801e-03		74.875		1.029e-03		61.199
8		0.00		2.00		2.630e-03		74.672		1.023e-03		54.106
8		0.00		2.40		2.347e-03		54.213		9.304e-04		60.834
8		0.00		2.80		2.030e-03		7.387		8.646e-04		68.666
8		0.00		3.20		1.981e-03		-9.959		8.491e-04		65.845
8		0.00		3.60		2.390e-03		-33.677		9.434e-04		61.449
8		0.00		4.00		2.871e-03		-41.193		1.249e-03		39.521
8		0.00		4.40		3.800e-03		-48.582		1.460e-03		24.695
8		0.00		4.80		4.829e-03		-41.130		1.686e-03		28.105
8		0.00		5.20		7.117e-03		-44.941		2.012e-03		16.884
8		0.00		5.60		9.156e-03		-53.731		2.259e-03		13.966
8		0.00		6.00		1.369e-02		-51.295		2.977e-03		11.855
8		0.00		6.40		1.677e-02		-51.110		3.615e-03		12.783
8		0.00		6.80		2.220e-02		-51.904		4.908e-03		13.101
8		0.00		7.20		2.528e-02		-50.899		6.405e-03		14.030
8		0.00		7.60		2.744e-02		-53.028		7.800e-03		15.993
8		0.00		8.00		2.932e-02		-51.628		8.691e-03		18.644
8		0.00		8.40		3.302e-02		-48.791		1.025e-02		20.498
8		0.00		8.80		3.294e-02		-50.129		1.003e-02		9.880
8		0.00		9.20		3.559e-02		-52.627		9.472e-03		10.175
8		0.00		9.60		3.657e-02		-52.604		8.140e-03		10.344
8		0.00		10.00		3.686e-02		-52.660		7.661e-03		12.206
8		0.00		9.60		3.466e-02		-51.260		7.288e-03		13.313
8		0.00		9.20		3.211e-02		-49.806		7.525e-03		13.097
8		0.00		8.80		3.266e-02		-51.337		8.241e-03		16.127
8		0.00		8.40		3.268e-02		-47.717		8.746e-03		14.107
8		0.00		8.00		3.131e-02		-50.542		8.330e-03		12.254
8		0.00		7.60		3.018e-02		-51.056		7.210e-03		9.013
8		0.00		7.20		3.007e-02		-51.415		6.094e-03		9.518
8		0.00		6.80		2.961e-02		-50.899		5.712e-03		11.263
8		0.00		6.40		2.794e-02		-49.358		5.660e-03		12.931
8		0.00		6.00		2.728e-02		-48.527		5.917e-03		12.698
8		0.00		5.60		2.667e-02		-51.808		6.547e-03		14.889
8		0.00		5.20		2.656e-02		-50.565		7.089e-03		18.789
8		0.00		4.80		2.664e-02		-50.969		7.338e-03		12.432
8		0.00		4.40		2.643e-02		-49.695		6.760e-03		10.862
8		0.00		4.00		2.679e-02		-49.686		5.702e-03		9.556
8		0.00		3.60		2.637e-02		-52.494		5.093e-03		10.516
8		0.00		3.20		2.532e-02		-51.588		4.979e-03		12.529
8		0.00		2.80		2.573e-02		-49.362		5.392e-03		12.210
8		0.00		2.40		2.497e-02		-49.994		6.054e-03		14.274
8		0.00		2.00		2.511e-02		-52.345		6.339e-03		16.560
8		0.00		1.60		2.558e-02		-48.998		6.547e-03		16.104
8		0.00		1.20		2.598e-02		-50.838		6.199e-03		9.574
8		0.00		0.80		2.631e-02		-51.583		4.989e-03		9.965
8		0.00		0.40		2.631e-02		-51.144		4.632e-03		10.500
8		0.00		0.00		2.531e-02		-50.444		4.702e-03		11.438
8		0.00		-0.40		2.410e-02		-49.205		4.949e-03		11.419
8		0.00		-0.80		2.271e-02		-49.294		5.008e-03		13.062
8		0.00		-1.20		2.199e-02		-50.262		5.373e-03		13.646
8		0.00		-1.60		2.064e-02		-49.843		5.415e-03		13.206
8		0.00		-2.00		1.858e-02		-51.622		4.427e-03		9.622
8		0.00		-2.40		1.522e-02		-50.386		3.267e-03		10.147
8		0.00		-2.80		1.291e-02		-49.197		2.444e-03		12.216
8		0.00		-3.20		1.017e-02		-49.899		2.276e-03		15.576
8		0.00		-3.60		6.842e-03		-49.939		1.961e-03		21.838
8		0.00		-4.00		4.549e-03		-53.272		2.097e-03		29.249
8		0.00		-4.40		2.808e-03		-4.432		1.686e-03		59.126
8		0.00		-4.80		2.905e-03		43.714		1.183e-03		61.791
8		0.00		-5.20		4.343e-03		83.256		1.848e-03		51.311
8		0.00		-5.60		6.359e-03		114.611		2.285e-03		35.294
8		0.00		-6.00		8.697e-03		117.964		2.942e-03		32.840
8		0.00		-6.40		1.115e-02		118.707		3.752e-03		24.173
8		0.00		-6.80		1.278e-02		118.636		3.886e-03		20.488
8		0.00		-7.20		1.376e-02		124.662		3.922e-03		15.842
8		0.00		-7.60		1.524e-02		122.417		4.587e-03		22.035
8		0.00		-8.00		1.666e-02		121.944		4.855e-03		26.706
8		0.00		-8.40		1.916e-02		124.515		5.798e-03		22.234
8		0.00		-8.80		1.942e-02		126.622		5.588e-03		14.053
8		0.00		-9.20		2.149e-02		126.368		5.287e-03		9.138
8		0.00		-9.60		2.297e-02		126.570		5.448e-03		10.975
8		0.00		-10.00		2.427e-02		126.276		5.567e-03		11.491
8		0.00		-9.60		2.354e-02		126.430		5.722e-03		11.790
8		0.00		-9.20		2.226e-02		126.150		5.982e-03		14.390
8		0.00		-8.80		2.243e-02		124.932		6.017e-03		18.911
8		0.00		-8.40		2.106e-02		123.279		6.292e-03		23.228
8		0.00		-8.00		2.168e-02		124.122		6.648e-03		16.961
8		0.00		-7.60		2.114e-02		127.430		6.144e-03		11.107
8		0.00		-7.20		2.022e-02		127.526		4.682e-03		10.022
8		0.00		-6.80		1.970e-02		125.823		4.622e-03		10.220
8		0.00		-6.40		1.854e-02		125.330		4.287e-03		11.738
8		0.00		-6.00		1.669e-02		127.087		4.019e-03		10.187
8		0.00		-5.60		1.596e-02		125.799		3.931e-03		11.391
8		0.00		-5.20		1.515e-02		123.283		3.957e-03		20.530
8		0.00		-4.80		1.462e-02		123.039		3.909e-03		22.075
8		0.00		-4.40		1.352e-02		124.127		4.169e-03		21.559
8		0.00		-4.00		1.265e-02		124.779		3.515e-03		20.293
8		0.00		-3.60		1.231e-02		123.654		3.130e-03		15.129
8		0.00		-3.20		1.144e-02		124.496		3.006e-03		16.827
8		0.00		-2.80		1.050e-02		123.896		2.722e-03		11.812
8		0.00		-2.40		1.047e-02		127.725		2.401e-03		11.887
8		0.00		-2.00		8.926e-03		125.092		2.619e-03		17.067
8		0.00		-1.60		8.816e-03		122.736		2.514e-03		21.945
8		0.00		-1.20		8.028e-03		116.543		2.450e-03		30.067
8		0.00		-0.80		7.153e-03		116.800		2.276e-03		33.302
8		0.00		-0.40		6.563e-03		120.667		2.189e-03		20.800
