# Date of analysis: 2023-11-20 16;19
# 
# Loop index	Read Volt (V)	Write Volt (V)	Amplitude (a.u)	Phase (deg)	Sigma Amp (a.u)	Sigma Pha (deg)	
1		0.00		0.00		2.781e-02		-50.203		6.395e-03		11.847
1		0.00		0.40		2.730e-02		-50.111		6.764e-03		11.837
1		0.00		0.80		2.722e-02		-49.255		6.422e-03		11.291
1		0.00		1.20		2.651e-02		-50.713		7.343e-03		13.390
1		0.00		1.60		2.623e-02		-52.170		7.618e-03		13.539
1		0.00		2.00		2.624e-02		-51.988		7.716e-03		11.757
1		0.00		2.40		2.642e-02		-51.931		7.942e-03		13.621
1		0.00		2.80		2.653e-02		-50.154		7.823e-03		12.068
1		0.00		3.20		2.690e-02		-50.379		8.282e-03		9.551
1		0.00		3.60		2.682e-02		-49.047		7.766e-03		12.410
1		0.00		4.00		2.716e-02		-50.198		8.198e-03		11.802
1		0.00		4.40		2.746e-02		-51.718		8.143e-03		12.638
1		0.00		4.80		2.753e-02		-50.612		8.080e-03		12.035
1		0.00		5.20		2.819e-02		-51.736		7.664e-03		11.676
1		0.00		5.60		2.863e-02		-50.547		7.649e-03		11.171
1		0.00		6.00		2.931e-02		-50.158		7.578e-03		11.134
1		0.00		6.40		2.999e-02		-50.015		7.511e-03		11.267
1		0.00		6.80		3.064e-02		-50.926		8.291e-03		9.545
1		0.00		7.20		3.190e-02		-50.017		8.671e-03		9.831
1		0.00		7.60		3.401e-02		-51.292		9.032e-03		10.344
1		0.00		8.00		3.701e-02		-51.492		1.037e-02		11.654
1		0.00		8.40		3.983e-02		-51.205		1.092e-02		10.162
1		0.00		8.80		4.212e-02		-52.194		1.176e-02		11.969
1		0.00		9.20		4.453e-02		-51.607		1.330e-02		11.298
1		0.00		9.60		4.603e-02		-52.843		1.344e-02		12.289
1		0.00		10.00		4.778e-02		-52.017		1.398e-02		12.533
1		0.00		9.60		4.813e-02		-51.973		1.423e-02		10.958
1		0.00		9.20		4.802e-02		-50.703		1.393e-02		11.648
1		0.00		8.80		4.689e-02		-51.209		1.412e-02		11.652
1		0.00		8.40		4.585e-02		-51.348		1.337e-02		11.962
1		0.00		8.00		4.578e-02		-50.688		1.286e-02		11.704
1		0.00		7.60		4.443e-02		-52.472		1.307e-02		16.486
1		0.00		7.20		4.427e-02		-51.551		1.235e-02		14.873
1		0.00		6.80		4.418e-02		-50.363		1.176e-02		14.284
1		0.00		6.40		4.284e-02		-51.265		1.139e-02		15.834
1		0.00		6.00		4.359e-02		-51.337		1.137e-02		15.003
1		0.00		5.60		4.281e-02		-51.344		1.105e-02		15.310
1		0.00		5.20		4.228e-02		-51.093		1.090e-02		14.041
1		0.00		4.80		4.269e-02		-49.846		1.053e-02		12.714
1		0.00		4.40		4.213e-02		-51.008		1.025e-02		12.035
1		0.00		4.00		4.203e-02		-51.015		1.001e-02		11.361
1		0.00		3.60		3.951e-02		-51.351		1.043e-02		14.210
1		0.00		3.20		3.964e-02		-50.903		1.126e-02		11.775
1		0.00		2.80		3.938e-02		-51.368		1.117e-02		12.193
1		0.00		2.40		3.859e-02		-52.663		1.111e-02		13.435
1		0.00		2.00		3.855e-02		-51.883		1.087e-02		11.589
1		0.00		1.60		3.710e-02		-52.731		1.093e-02		12.561
1		0.00		1.20		3.745e-02		-51.615		1.079e-02		11.663
1		0.00		0.80		3.714e-02		-51.526		1.073e-02		12.623
1		0.00		0.40		3.661e-02		-51.553		1.066e-02		12.621
1		0.00		0.00		3.639e-02		-51.426		1.065e-02		12.391
1		0.00		-0.40		3.655e-02		-52.426		1.015e-02		12.363
1		0.00		-0.80		3.583e-02		-50.412		9.528e-03		10.447
1		0.00		-1.20		3.491e-02		-51.131		9.161e-03		12.904
1		0.00		-1.60		3.303e-02		-49.738		8.618e-03		12.699
1		0.00		-2.00		3.062e-02		-48.943		7.971e-03		13.445
1		0.00		-2.40		2.748e-02		-50.873		7.266e-03		13.385
1		0.00		-2.80		2.417e-02		-49.640		6.386e-03		14.503
1		0.00		-3.20		2.153e-02		-47.715		5.867e-03		13.454
1		0.00		-3.60		1.815e-02		-49.998		4.995e-03		12.887
1		0.00		-4.00		1.376e-02		-48.627		3.683e-03		14.517
1		0.00		-4.40		9.429e-03		-41.488		2.979e-03		13.721
1		0.00		-4.80		5.835e-03		-35.734		2.250e-03		24.766
1		0.00		-5.20		2.438e-03		3.077		9.396e-04		62.452
1		0.00		-5.60		3.336e-03		77.010		1.676e-03		57.888
1		0.00		-6.00		6.449e-03		109.488		2.589e-03		29.995
1		0.00		-6.40		9.871e-03		115.853		3.449e-03		25.838
1		0.00		-6.80		1.276e-02		122.515		4.073e-03		12.913
1		0.00		-7.20		1.476e-02		124.763		4.579e-03		10.580
1		0.00		-7.60		1.690e-02		123.535		4.876e-03		8.662
1		0.00		-8.00		1.858e-02		122.698		4.967e-03		9.316
1		0.00		-8.40		1.981e-02		125.416		5.162e-03		9.864
1		0.00		-8.80		2.113e-02		126.745		5.233e-03		9.325
1		0.00		-9.20		2.286e-02		126.701		5.228e-03		8.309
1		0.00		-9.60		2.366e-02		123.700		5.291e-03		8.314
1		0.00		-10.00		2.539e-02		126.956		5.583e-03		8.663
1		0.00		-9.60		2.403e-02		125.539		5.600e-03		9.837
1		0.00		-9.20		2.394e-02		125.937		5.461e-03		8.894
1		0.00		-8.80		2.407e-02		126.446		5.223e-03		9.695
1		0.00		-8.40		2.391e-02		126.328		5.459e-03		9.281
1		0.00		-8.00		2.305e-02		127.311		5.516e-03		9.976
1		0.00		-7.60		2.198e-02		126.435		5.789e-03		12.484
1		0.00		-7.20		2.158e-02		125.606		5.844e-03		15.425
1		0.00		-6.80		2.064e-02		124.493		5.824e-03		16.860
1		0.00		-6.40		1.941e-02		125.480		5.563e-03		18.266
1		0.00		-6.00		1.906e-02		123.200		5.667e-03		19.535
1		0.00		-5.60		1.846e-02		126.182		5.680e-03		18.556
1		0.00		-5.20		1.782e-02		127.645		5.569e-03		16.461
1		0.00		-4.80		1.736e-02		125.697		5.438e-03		12.753
1		0.00		-4.40		1.667e-02		124.025		5.204e-03		11.622
1		0.00		-4.00		1.626e-02		126.961		4.906e-03		11.595
1		0.00		-3.60		1.661e-02		125.071		4.433e-03		8.116
1		0.00		-3.20		1.608e-02		125.329		4.109e-03		9.197
1		0.00		-2.80		1.523e-02		127.653		3.728e-03		9.225
1		0.00		-2.40		1.525e-02		128.418		3.671e-03		11.826
1		0.00		-2.00		1.447e-02		128.038		3.342e-03		11.937
1		0.00		-1.60		1.401e-02		126.229		3.174e-03		9.596
1		0.00		-1.20		1.369e-02		128.921		3.012e-03		10.694
1		0.00		-0.80		1.318e-02		124.694		3.036e-03		8.885
1		0.00		-0.40		1.321e-02		129.256		3.038e-03		10.276
2		0.00		0.00		1.276e-02		124.985		3.070e-03		9.999
2		0.00		0.40		1.221e-02		126.350		3.225e-03		10.232
2		0.00		0.80		1.081e-02		125.311		3.385e-03		13.726
2		0.00		1.20		1.054e-02		123.975		3.049e-03		16.406
2		0.00		1.60		1.007e-02		123.531		3.094e-03		20.640
2		0.00		2.00		9.393e-03		122.820		2.886e-03		21.339
2		0.00		2.40		8.600e-03		124.402		2.650e-03		20.181
2		0.00		2.80		7.804e-03		127.270		2.455e-03		18.194
2		0.00		3.20		6.898e-03		122.600		2.074e-03		22.167
2		0.00		3.60		5.718e-03		116.226		2.018e-03		22.870
2		0.00		4.00		4.987e-03		127.591		1.568e-03		21.483
2		0.00		4.40		3.537e-03		104.040		1.375e-03		51.545
2		0.00		4.80		2.506e-03		63.073		1.018e-03		88.790
2		0.00		5.20		1.855e-03		1.353		7.911e-04		76.096
2		0.00		5.60		2.991e-03		-58.356		1.274e-03		33.176
2		0.00		6.00		4.744e-03		-64.082		1.463e-03		21.002
2		0.00		6.40		6.459e-03		-54.215		1.934e-03		22.627
2		0.00		6.80		9.421e-03		-47.671		2.331e-03		16.999
2		0.00		7.20		1.231e-02		-50.108		3.060e-03		13.180
2		0.00		7.60		1.571e-02		-47.665		4.370e-03		11.883
2		0.00		8.00		1.880e-02		-52.518		5.604e-03		15.128
2		0.00		8.40		2.251e-02		-48.312		7.102e-03		16.842
2		0.00		8.80		2.731e-02		-51.275		8.621e-03		11.788
2		0.00		9.20		3.206e-02		-51.612		9.949e-03		8.824
2		0.00		9.60		3.699e-02		-52.648		1.041e-02		6.545
2		0.00		10.00		3.990e-02		-52.450		1.046e-02		6.750
2		0.00		9.60		4.094e-02		-52.461		1.029e-02		7.275
2		0.00		9.20		4.056e-02		-52.504		9.817e-03		8.628
2		0.00		8.80		4.008e-02		-52.248		1.029e-02		9.350
2		0.00		8.40		3.918e-02		-52.514		1.114e-02		10.550
2		0.00		8.00		3.829e-02		-51.983		1.097e-02		14.441
2		0.00		7.60		3.862e-02		-51.281		1.085e-02		14.939
2		0.00		7.20		3.818e-02		-51.737		1.098e-02		12.985
2		0.00		6.80		3.829e-02		-50.928		1.072e-02		8.399
2		0.00		6.40		3.834e-02		-52.511		9.866e-03		6.570
2		0.00		6.00		3.812e-02		-50.808		8.613e-03		7.362
2		0.00		5.60		3.753e-02		-51.425		7.956e-03		8.073
2		0.00		5.20		3.780e-02		-51.038		7.984e-03		9.036
2		0.00		4.80		3.695e-02		-51.940		8.193e-03		8.963
2		0.00		4.40		3.687e-02		-49.579		8.859e-03		11.938
2		0.00		4.00		3.557e-02		-51.514		9.538e-03		17.277
2		0.00		3.60		3.623e-02		-51.485		1.002e-02		14.068
2		0.00		3.20		3.529e-02		-51.188		1.043e-02		10.756
2		0.00		2.80		3.577e-02		-52.578		9.711e-03		7.988
2		0.00		2.40		3.613e-02		-50.214		8.643e-03		6.840
2		0.00		2.00		3.619e-02		-50.783		7.909e-03		6.795
2		0.00		1.60		3.587e-02		-51.076		7.739e-03		8.714
2		0.00		1.20		3.481e-02		-50.679		8.119e-03		9.847
2		0.00		0.80		3.458e-02		-50.417		8.875e-03		11.825
2		0.00		0.40		3.426e-02		-49.412		9.350e-03		13.580
2		0.00		0.00		3.404e-02		-52.158		9.944e-03		15.974
2		0.00		-0.40		3.431e-02		-50.677		9.380e-03		8.412
2		0.00		-0.80		3.448e-02		-51.498		8.346e-03		7.482
2		0.00		-1.20		3.457e-02		-51.146		7.627e-03		7.914
2		0.00		-1.60		3.384e-02		-50.512		6.933e-03		7.284
2		0.00		-2.00		3.241e-02		-50.454		6.433e-03		8.934
2		0.00		-2.40		3.112e-02		-51.319		6.755e-03		9.848
2		0.00		-2.80		2.837e-02		-48.328		6.528e-03		10.574
2		0.00		-3.20		2.489e-02		-49.409		5.839e-03		10.034
2		0.00		-3.60		2.161e-02		-48.558		5.681e-03		14.268
2		0.00		-4.00		1.789e-02		-50.539		4.821e-03		14.542
2		0.00		-4.40		1.375e-02		-50.032		3.872e-03		11.125
2		0.00		-4.80		9.839e-03		-46.521		2.887e-03		12.105
2		0.00		-5.20		6.041e-03		-54.513		2.002e-03		16.343
2		0.00		-5.60		3.347e-03		-35.574		1.408e-03		36.606
2		0.00		-6.00		2.670e-03		43.121		1.212e-03		74.569
2		0.00		-6.40		5.836e-03		112.023		2.248e-03		27.937
2		0.00		-6.80		8.803e-03		123.216		2.753e-03		14.953
2		0.00		-7.20		1.201e-02		123.775		3.572e-03		12.643
2		0.00		-7.60		1.393e-02		121.144		4.182e-03		17.045
2		0.00		-8.00		1.507e-02		123.543		4.549e-03		21.201
2		0.00		-8.40		1.747e-02		122.113		5.399e-03		19.867
2		0.00		-8.80		1.887e-02		125.100		5.395e-03		14.337
2		0.00		-9.20		1.980e-02		125.221		5.517e-03		9.520
2		0.00		-9.60		2.205e-02		125.792		5.450e-03		8.785
2		0.00		-10.00		2.271e-02		126.525		5.170e-03		7.543
2		0.00		-9.60		2.320e-02		125.962		5.236e-03		8.997
2		0.00		-9.20		2.209e-02		125.943		4.960e-03		9.629
2		0.00		-8.80		2.234e-02		126.265		4.923e-03		9.539
2		0.00		-8.40		2.179e-02		126.901		4.921e-03		9.250
2		0.00		-8.00		2.150e-02		126.296		5.106e-03		12.322
2		0.00		-7.60		2.105e-02		127.126		5.230e-03		11.211
2		0.00		-7.20		2.057e-02		125.084		5.460e-03		18.217
2		0.00		-6.80		1.957e-02		124.053		5.682e-03		19.580
2		0.00		-6.40		1.923e-02		123.248		5.740e-03		21.270
2		0.00		-6.00		1.863e-02		124.430		5.534e-03		13.573
2		0.00		-5.60		1.835e-02		128.731		4.976e-03		8.916
2		0.00		-5.20		1.787e-02		127.385		4.804e-03		7.900
2		0.00		-4.80		1.753e-02		126.290		4.015e-03		8.602
2		0.00		-4.40		1.711e-02		123.744		4.039e-03		9.164
2		0.00		-4.00		1.632e-02		125.901		3.961e-03		9.353
2		0.00		-3.60		1.592e-02		125.437		3.805e-03		9.810
2		0.00		-3.20		1.515e-02		126.394		3.804e-03		10.984
2		0.00		-2.80		1.439e-02		127.877		3.762e-03		13.392
2		0.00		-2.40		1.404e-02		124.890		3.799e-03		20.659
2		0.00		-2.00		1.367e-02		127.506		3.747e-03		21.675
2		0.00		-1.60		1.342e-02		124.675		3.786e-03		14.682
2		0.00		-1.20		1.272e-02		128.047		3.458e-03		10.391
2		0.00		-0.80		1.300e-02		124.238		3.310e-03		11.046
2		0.00		-0.40		1.238e-02		125.509		2.817e-03		10.151
3		0.00		0.00		1.228e-02		123.717		2.929e-03		9.845
3		0.00		0.40		1.170e-02		124.746		2.898e-03		11.210
3		0.00		0.80		1.077e-02		127.042		2.613e-03		12.012
3		0.00		1.20		1.068e-02		125.500		3.049e-03		16.537
3		0.00		1.60		9.709e-03		124.045		3.071e-03		21.237
3		0.00		2.00		9.117e-03		123.853		3.063e-03		24.604
3		0.00		2.40		8.549e-03		123.975		2.778e-03		28.647
3		0.00		2.80		8.000e-03		125.865		2.499e-03		24.636
3		0.00		3.20		7.150e-03		126.330		2.176e-03		15.140
3		0.00		3.60		6.118e-03		121.505		1.823e-03		18.789
3		0.00		4.00		5.148e-03		125.860		1.694e-03		22.445
3		0.00		4.40		4.074e-03		114.242		1.412e-03		34.427
3		0.00		4.80		2.959e-03		88.969		1.171e-03		72.331
3		0.00		5.20		2.084e-03		65.441		9.317e-04		65.791
3		0.00		5.60		1.830e-03		-22.767		7.112e-04		70.917
3		0.00		6.00		2.876e-03		-56.600		1.083e-03		40.320
3		0.00		6.40		5.048e-03		-45.629		1.782e-03		23.354
3		0.00		6.80		7.588e-03		-49.485		2.363e-03		18.366
3		0.00		7.20		9.502e-03		-54.148		2.773e-03		14.973
3		0.00		7.60		1.256e-02		-50.715		3.114e-03		11.070
3		0.00		8.00		1.627e-02		-52.698		3.573e-03		12.166
3		0.00		8.40		2.036e-02		-51.863		4.421e-03		10.049
3		0.00		8.80		2.386e-02		-51.859		4.908e-03		10.286
3		0.00		9.20		2.759e-02		-50.208		6.331e-03		10.527
3		0.00		9.60		3.155e-02		-50.141		8.023e-03		9.614
3		0.00		10.00		3.492e-02		-51.193		9.566e-03		12.820
3		0.00		9.60		3.643e-02		-52.017		1.065e-02		15.000
3		0.00		9.20		3.762e-02		-51.933		1.113e-02		11.985
3		0.00		8.80		3.858e-02		-51.391		1.107e-02		7.110
3		0.00		8.40		3.915e-02		-51.366		1.021e-02		6.091
3		0.00		8.00		3.889e-02		-51.651		9.214e-03		6.651
3		0.00		7.60		3.946e-02		-51.624		8.311e-03		6.454
3		0.00		7.20		3.867e-02		-50.729		7.941e-03		8.173
3		0.00		6.80		3.834e-02		-50.763		7.644e-03		8.314
3		0.00		6.40		3.801e-02		-50.909		7.741e-03		9.958
3		0.00		6.00		3.760e-02		-49.388		8.284e-03		9.486
3		0.00		5.60		3.647e-02		-49.500		8.365e-03		11.899
3		0.00		5.20		3.602e-02		-49.499		8.624e-03		14.058
3		0.00		4.80		3.524e-02		-51.103		9.229e-03		10.691
3		0.00		4.40		3.559e-02		-50.088		8.874e-03		8.459
3		0.00		4.00		3.547e-02		-50.938		8.590e-03		7.513
3		0.00		3.60		3.539e-02		-50.333		7.632e-03		6.809
3		0.00		3.20		3.523e-02		-50.434		7.245e-03		6.368
3		0.00		2.80		3.476e-02		-49.783		7.307e-03		8.019
3		0.00		2.40		3.448e-02		-50.783		7.169e-03		8.289
3		0.00		2.00		3.441e-02		-50.633		7.341e-03		8.447
3		0.00		1.60		3.423e-02		-51.351		7.719e-03		8.990
3		0.00		1.20		3.348e-02		-50.820		8.302e-03		10.950
3		0.00		0.80		3.209e-02		-51.211		8.833e-03		14.699
3		0.00		0.40		3.261e-02		-50.555		8.951e-03		15.115
3		0.00		0.00		3.223e-02		-49.867		8.864e-03		14.218
3		0.00		-0.40		3.176e-02		-50.664		9.041e-03		14.709
3		0.00		-0.80		3.178e-02		-49.973		9.069e-03		9.823
3		0.00		-1.20		3.171e-02		-50.668		8.176e-03		8.294
3		0.00		-1.60		3.192e-02		-50.185		7.221e-03		7.866
3		0.00		-2.00		3.097e-02		-49.968		6.590e-03		7.121
3		0.00		-2.40		2.967e-02		-51.197		5.406e-03		6.977
3		0.00		-2.80		2.766e-02		-48.616		5.180e-03		9.280
3		0.00		-3.20		2.538e-02		-49.650		4.813e-03		8.795
3		0.00		-3.60		2.247e-02		-48.499		4.273e-03		10.467
3		0.00		-4.00		1.898e-02		-49.188		3.927e-03		10.587
3		0.00		-4.40		1.522e-02		-49.494		3.880e-03		12.998
3		0.00		-4.80		1.117e-02		-47.214		2.825e-03		12.526
3		0.00		-5.20		7.132e-03		-41.366		2.362e-03		16.646
3		0.00		-5.60		3.556e-03		-43.209		1.731e-03		30.953
3		0.00		-6.00		2.210e-03		9.854		9.310e-04		75.063
3		0.00		-6.40		4.156e-03		102.128		1.777e-03		44.256
3		0.00		-6.80		7.302e-03		121.615		2.587e-03		14.277
3		0.00		-7.20		1.040e-02		121.269		2.859e-03		9.794
3		0.00		-7.60		1.377e-02		125.658		3.398e-03		9.621
3		0.00		-8.00		1.577e-02		126.537		3.375e-03		10.006
3		0.00		-8.40		1.682e-02		125.399		3.936e-03		8.510
3		0.00		-8.80		1.760e-02		125.996		4.281e-03		10.567
3		0.00		-9.20		1.978e-02		127.482		4.845e-03		11.675
3		0.00		-9.60		2.080e-02		126.991		5.067e-03		13.936
3		0.00		-10.00		2.108e-02		125.068		5.403e-03		17.757
3		0.00		-9.60		2.149e-02		122.955		5.745e-03		15.476
3		0.00		-9.20		2.154e-02		127.186		5.691e-03		11.971
3		0.00		-8.80		2.180e-02		127.182		5.197e-03		9.532
3		0.00		-8.40		2.170e-02		127.964		4.675e-03		7.884
3		0.00		-8.00		2.149e-02		126.586		4.340e-03		8.610
3		0.00		-7.60		2.096e-02		126.686		4.015e-03		9.765
3		0.00		-7.20		1.996e-02		127.275		4.196e-03		8.815
3		0.00		-6.80		1.894e-02		127.416		4.251e-03		8.392
3		0.00		-6.40		1.770e-02		126.230		4.892e-03		14.698
3		0.00		-6.00		1.737e-02		123.663		5.196e-03		18.376
3		0.00		-5.60		1.681e-02		123.834		5.181e-03		18.394
3		0.00		-5.20		1.604e-02		125.667		5.010e-03		9.172
3		0.00		-4.80		1.613e-02		126.329		4.576e-03		7.586
3		0.00		-4.40		1.578e-02		125.896		4.098e-03		9.108
3		0.00		-4.00		1.497e-02		128.587		3.603e-03		9.286
3		0.00		-3.60		1.475e-02		128.730		3.581e-03		10.110
3		0.00		-3.20		1.377e-02		128.959		3.598e-03		11.569
3		0.00		-2.80		1.345e-02		124.995		3.720e-03		16.774
3		0.00		-2.40		1.315e-02		127.331		3.823e-03		19.374
3		0.00		-2.00		1.304e-02		123.651		3.592e-03		18.101
3		0.00		-1.60		1.276e-02		126.327		3.292e-03		12.033
3		0.00		-1.20		1.280e-02		126.370		3.388e-03		9.978
3		0.00		-0.80		1.235e-02		127.631		2.906e-03		11.068
3		0.00		-0.40		1.204e-02		128.246		2.783e-03		9.270
4		0.00		0.00		1.189e-02		127.618		2.498e-03		10.365
4		0.00		0.40		1.165e-02		127.133		2.634e-03		10.236
4		0.00		0.80		1.101e-02		127.764		2.792e-03		11.775
4		0.00		1.20		1.039e-02		125.182		2.638e-03		17.572
4		0.00		1.60		1.001e-02		126.161		2.846e-03		23.492
4		0.00		2.00		9.535e-03		119.791		2.742e-03		22.370
4		0.00		2.40		8.688e-03		126.960		2.555e-03		17.403
4		0.00		2.80		8.048e-03		124.604		2.239e-03		15.519
4		0.00		3.20		7.209e-03		124.435		1.875e-03		13.119
4		0.00		3.60		6.754e-03		130.686		1.609e-03		11.526
4		0.00		4.00		5.264e-03		127.860		1.571e-03		19.337
4		0.00		4.40		4.435e-03		124.601		1.498e-03		31.919
4		0.00		4.80		3.218e-03		110.836		1.201e-03		36.307
4		0.00		5.20		2.203e-03		52.830		9.559e-04		81.900
4		0.00		5.60		1.764e-03		4.885		6.836e-04		74.773
4		0.00		6.00		2.356e-03		-50.231		8.832e-04		56.789
4		0.00		6.40		3.997e-03		-43.439		1.393e-03		24.881
4		0.00		6.80		6.471e-03		-48.462		1.782e-03		18.147
4		0.00		7.20		8.871e-03		-51.651		1.950e-03		13.795
4		0.00		7.60		1.116e-02		-50.654		2.286e-03		13.469
4		0.00		8.00		1.357e-02		-48.870		2.642e-03		11.848
4		0.00		8.40		1.652e-02		-51.507		3.366e-03		10.877
4		0.00		8.80		2.000e-02		-50.769		4.537e-03		10.545
4		0.00		9.20		2.404e-02		-50.347		5.586e-03		10.913
4		0.00		9.60		2.746e-02		-51.978		7.382e-03		13.210
4		0.00		10.00		3.161e-02		-52.568		9.359e-03		14.523
4		0.00		9.60		3.393e-02		-50.524		1.020e-02		7.098
4		0.00		9.20		3.457e-02		-50.877		9.790e-03		7.698
4		0.00		8.80		3.590e-02		-50.554		9.160e-03		6.411
4		0.00		8.40		3.555e-02		-50.847		8.170e-03		7.941
4		0.00		8.00		3.491e-02		-51.908		8.396e-03		9.408
4		0.00		7.60		3.435e-02		-50.261		8.317e-03		9.636
4		0.00		7.20		3.385e-02		-49.576		8.679e-03		9.252
4		0.00		6.80		3.328e-02		-51.083		8.975e-03		10.767
4		0.00		6.40		3.240e-02		-52.381		9.187e-03		14.676
4		0.00		6.00		3.282e-02		-49.535		8.872e-03		12.250
4		0.00		5.60		3.294e-02		-50.560		8.571e-03		9.208
4		0.00		5.20		3.258e-02		-49.382		8.355e-03		7.633
4		0.00		4.80		3.211e-02		-49.378		7.222e-03		6.902
4		0.00		4.40		3.277e-02		-50.328		6.592e-03		8.067
4		0.00		4.00		3.230e-02		-49.957		6.357e-03		8.723
4		0.00		3.60		3.163e-02		-48.967		6.821e-03		9.394
4		0.00		3.20		3.061e-02		-48.908		7.462e-03		11.062
4		0.00		2.80		3.099e-02		-47.450		7.549e-03		11.477
4		0.00		2.40		3.091e-02		-50.328		7.952e-03		14.775
4		0.00		2.00		3.084e-02		-50.498		8.315e-03		9.701
4		0.00		1.60		3.099e-02		-50.625		7.822e-03		7.963
4		0.00		1.20		3.115e-02		-50.856		6.928e-03		7.775
4		0.00		0.80		3.100e-02		-50.093		6.492e-03		8.984
4		0.00		0.40		3.072e-02		-49.586		6.642e-03		8.605
4		0.00		0.00		3.048e-02		-49.028		7.114e-03		9.732
4		0.00		-0.40		2.971e-02		-49.588		8.129e-03		13.000
4		0.00		-0.80		2.910e-02		-51.455		8.395e-03		16.311
4		0.00		-1.20		2.904e-02		-50.419		8.443e-03		9.835
4		0.00		-1.60		2.947e-02		-50.162		7.350e-03		7.077
4		0.00		-2.00		2.874e-02		-48.595		5.932e-03		8.047
4		0.00		-2.40		2.813e-02		-50.498		5.691e-03		8.699
4		0.00		-2.80		2.601e-02		-50.197		5.397e-03		9.532
4		0.00		-3.20		2.423e-02		-49.058		5.791e-03		10.080
4		0.00		-3.60		2.232e-02		-48.605		5.619e-03		14.469
4		0.00		-4.00		1.985e-02		-50.051		5.483e-03		11.253
4		0.00		-4.40		1.683e-02		-50.450		4.072e-03		8.728
4		0.00		-4.80		1.264e-02		-51.346		2.735e-03		12.244
4		0.00		-5.20		8.950e-03		-44.751		1.657e-03		12.387
4		0.00		-5.60		4.378e-03		-37.783		1.362e-03		20.681
4		0.00		-6.00		2.129e-03		46.133		8.444e-04		64.072
4		0.00		-6.40		3.922e-03		103.841		1.543e-03		36.047
4		0.00		-6.80		6.876e-03		116.385		2.434e-03		27.055
4		0.00		-7.20		9.333e-03		123.329		2.897e-03		11.903
4		0.00		-7.60		1.204e-02		121.765		3.151e-03		10.500
4		0.00		-8.00		1.444e-02		125.788		3.618e-03		9.239
4		0.00		-8.40		1.662e-02		125.147		4.093e-03		10.290
4		0.00		-8.80		1.671e-02		123.473		4.373e-03		11.593
4		0.00		-9.20		1.815e-02		123.397		5.129e-03		17.568
4		0.00		-9.60		1.933e-02		122.535		5.947e-03		20.666
4		0.00		-10.00		2.052e-02		126.801		5.820e-03		9.735
4		0.00		-9.60		2.156e-02		126.613		4.901e-03		7.667
4		0.00		-9.20		2.138e-02		126.436		4.542e-03		8.307
4		0.00		-8.80		2.175e-02		127.649		4.285e-03		8.429
4		0.00		-8.40		2.052e-02		128.730		4.374e-03		8.711
4		0.00		-8.00		2.015e-02		128.352		4.784e-03		12.648
4		0.00		-7.60		1.979e-02		124.882		5.137e-03		18.159
4		0.00		-7.20		1.921e-02		123.611		5.033e-03		12.145
4		0.00		-6.80		1.872e-02		126.531		4.599e-03		9.175
4		0.00		-6.40		1.865e-02		126.726		4.171e-03		9.242
4		0.00		-6.00		1.808e-02		124.557		3.778e-03		7.922
4		0.00		-5.60		1.755e-02		125.450		3.824e-03		8.919
4		0.00		-5.20		1.670e-02		126.771		4.159e-03		11.954
4		0.00		-4.80		1.565e-02		124.699		4.124e-03		17.514
4		0.00		-4.40		1.511e-02		125.554		4.300e-03		21.249
4		0.00		-4.00		1.521e-02		124.570		4.167e-03		9.152
4		0.00		-3.60		1.486e-02		128.701		3.536e-03		8.711
4		0.00		-3.20		1.464e-02		125.250		3.152e-03		9.596
4		0.00		-2.80		1.442e-02		125.629		3.107e-03		10.348
4		0.00		-2.40		1.390e-02		125.470		2.933e-03		10.415
4		0.00		-2.00		1.361e-02		126.306		3.447e-03		14.152
4		0.00		-1.60		1.314e-02		123.204		3.614e-03		19.197
4		0.00		-1.20		1.281e-02		126.868		3.354e-03		15.287
4		0.00		-0.80		1.257e-02		127.287		3.128e-03		11.039
4		0.00		-0.40		1.232e-02		127.095		2.580e-03		9.817
5		0.00		0.00		1.223e-02		126.789		2.615e-03		8.512
5		0.00		0.40		1.191e-02		126.983		2.465e-03		9.674
5		0.00		0.80		1.146e-02		124.825		2.320e-03		10.005
5		0.00		1.20		1.070e-02		125.907		2.486e-03		13.035
5		0.00		1.60		1.022e-02		126.148		2.846e-03		16.845
5		0.00		2.00		9.630e-03		122.530		2.466e-03		19.741
5		0.00		2.40		8.956e-03		124.146		2.592e-03		15.279
5		0.00		2.80		8.216e-03		128.477		2.426e-03		12.274
5		0.00		3.20		7.169e-03		129.662		2.132e-03		15.688
5		0.00		3.60		6.416e-03		130.486		1.762e-03		15.910
5		0.00		4.00		5.279e-03		122.711		1.584e-03		16.726
5		0.00		4.40		4.242e-03		120.875		1.392e-03		21.301
5		0.00		4.80		3.204e-03		93.205		1.139e-03		51.964
5		0.00		5.20		2.206e-03		57.432		9.056e-04		78.359
5		0.00		5.60		1.758e-03		27.505		7.382e-04		75.263
5		0.00		6.00		2.155e-03		-41.739		8.445e-04		57.078
5		0.00		6.40		3.816e-03		-59.356		1.427e-03		28.872
5		0.00		6.80		6.055e-03		-53.868		1.653e-03		16.974
5		0.00		7.20		8.123e-03		-50.274		1.967e-03		14.136
5		0.00		7.60		1.082e-02		-52.809		2.424e-03		13.631
5		0.00		8.00		1.268e-02		-49.003		2.793e-03		14.033
5		0.00		8.40		1.527e-02		-48.144		3.705e-03		14.364
5		0.00		8.80		1.842e-02		-52.012		4.783e-03		15.695
5		0.00		9.20		2.195e-02		-50.689		5.622e-03		11.038
5		0.00		9.60		2.599e-02		-50.754		6.191e-03		8.694
5		0.00		10.00		2.965e-02		-48.159		6.163e-03		8.235
5		0.00		9.60		3.118e-02		-50.907		6.230e-03		9.243
5		0.00		9.20		3.279e-02		-49.556		6.711e-03		8.888
5		0.00		8.80		3.296e-02		-49.554		6.770e-03		8.370
5		0.00		8.40		3.289e-02		-48.048		7.806e-03		9.289
5		0.00		8.00		3.262e-02		-49.595		8.816e-03		11.753
5		0.00		7.60		3.248e-02		-51.041		9.026e-03		12.876
5		0.00		7.20		3.237e-02		-49.847		9.010e-03		9.080
5		0.00		6.80		3.227e-02		-49.099		8.094e-03		6.792
5		0.00		6.40		3.284e-02		-49.844		7.259e-03		6.103
5		0.00		6.00		3.229e-02		-51.401		6.392e-03		7.406
5		0.00		5.60		3.191e-02		-50.466		6.817e-03		8.736
5		0.00		5.20		3.198e-02		-49.013		6.909e-03		8.402
5		0.00		4.80		3.107e-02		-49.974		7.415e-03		9.092
5		0.00		4.40		3.005e-02		-49.761		7.247e-03		12.959
5		0.00		4.00		3.015e-02		-48.798		7.454e-03		12.243
5		0.00		3.60		2.951e-02		-49.448		7.601e-03		12.829
5		0.00		3.20		3.037e-02		-50.028		7.347e-03		6.838
5		0.00		2.80		3.057e-02		-49.705		6.832e-03		7.308
5		0.00		2.40		3.080e-02		-49.847		6.185e-03		7.204
5		0.00		2.00		3.069e-02		-51.071		5.693e-03		7.495
5		0.00		1.60		2.999e-02		-49.814		5.633e-03		7.655
5		0.00		1.20		3.061e-02		-50.011		5.921e-03		8.244
5		0.00		0.80		2.988e-02		-48.487		6.374e-03		8.841
5		0.00		0.40		2.964e-02		-49.472		7.104e-03		10.760
5		0.00		0.00		2.942e-02		-48.929		7.601e-03		13.134
5		0.00		-0.40		2.900e-02		-52.043		8.064e-03		14.955
5		0.00		-0.80		2.877e-02		-50.788		8.263e-03		13.179
5		0.00		-1.20		2.855e-02		-50.175		8.093e-03		8.791
5		0.00		-1.60		2.879e-02		-50.134		7.037e-03		6.937
5		0.00		-2.00		2.867e-02		-50.538		6.139e-03		7.381
5		0.00		-2.40		2.769e-02		-50.985		5.810e-03		7.081
5		0.00		-2.80		2.652e-02		-49.333		5.442e-03		8.025
5		0.00		-3.20		2.514e-02		-50.285		4.975e-03		8.623
5		0.00		-3.60		2.277e-02		-49.337		4.894e-03		9.375
5		0.00		-4.00		2.050e-02		-48.648		4.399e-03		10.585
5		0.00		-4.40		1.771e-02		-47.351		3.943e-03		12.302
5		0.00		-4.80		1.510e-02		-46.708		3.669e-03		14.402
5		0.00		-5.20		1.066e-02		-44.991		2.729e-03		15.732
5		0.00		-5.60		6.696e-03		-46.629		1.839e-03		16.221
5		0.00		-6.00		2.422e-03		-34.624		1.062e-03		40.742
5		0.00		-6.40		3.037e-03		87.196		1.346e-03		44.131
5		0.00		-6.80		6.894e-03		123.344		2.095e-03		14.415
5		0.00		-7.20		9.112e-03		124.372		2.236e-03		11.280
5		0.00		-7.60		1.183e-02		126.845		2.840e-03		10.929
5		0.00		-8.00		1.431e-02		124.771		3.225e-03		9.950
5		0.00		-8.40		1.607e-02		127.046		3.191e-03		8.455
5		0.00		-8.80		1.758e-02		127.918		3.987e-03		8.233
5		0.00		-9.20		1.918e-02		127.373		4.742e-03		12.300
5		0.00		-9.60		2.012e-02		125.199		5.427e-03		15.649
5		0.00		-10.00		2.137e-02		125.826		6.008e-03		16.868
5		0.00		-9.60		2.139e-02		126.780		6.253e-03		12.104
5		0.00		-9.20		2.075e-02		125.999		5.523e-03		9.836
5		0.00		-8.80		2.153e-02		126.894		5.337e-03		6.815
5		0.00		-8.40		2.107e-02		127.242		4.353e-03		7.775
5		0.00		-8.00		2.034e-02		127.206		3.828e-03		9.172
5		0.00		-7.60		2.012e-02		126.843		4.053e-03		8.146
5		0.00		-7.20		1.958e-02		129.462		3.805e-03		8.340
5		0.00		-6.80		1.881e-02		127.046		4.056e-03		9.791
5		0.00		-6.40		1.850e-02		128.071		4.424e-03		15.765
5		0.00		-6.00		1.750e-02		124.526		4.637e-03		15.221
5		0.00		-5.60		1.676e-02		125.688		4.308e-03		12.588
5		0.00		-5.20		1.682e-02		126.602		4.460e-03		10.138
5		0.00		-4.80		1.645e-02		126.106		3.560e-03		7.284
5		0.00		-4.40		1.623e-02		126.467		3.532e-03		8.615
5		0.00		-4.00		1.568e-02		127.497		3.451e-03		8.181
5		0.00		-3.60		1.511e-02		127.134		3.312e-03		9.048
5		0.00		-3.20		1.480e-02		125.091		3.309e-03		10.504
5		0.00		-2.80		1.419e-02		124.989		3.647e-03		11.513
5		0.00		-2.40		1.320e-02		124.309		3.664e-03		18.219
5		0.00		-2.00		1.301e-02		125.171		3.643e-03		17.304
5		0.00		-1.60		1.269e-02		123.320		3.699e-03		11.150
5		0.00		-1.20		1.255e-02		128.234		3.380e-03		10.326
5		0.00		-0.80		1.239e-02		127.755		2.996e-03		9.979
5		0.00		-0.40		1.214e-02		126.236		2.748e-03		9.901
6		0.00		0.00		1.189e-02		124.472		2.443e-03		9.548
6		0.00		0.40		1.168e-02		125.806		2.460e-03		9.679
6		0.00		0.80		1.099e-02		127.819		2.530e-03		14.193
6		0.00		1.20		1.057e-02		126.890		2.896e-03		19.470
6		0.00		1.60		9.751e-03		122.282		2.714e-03		20.390
6		0.00		2.00		9.494e-03		121.965		2.619e-03		16.902
6		0.00		2.40		9.089e-03		128.716		2.313e-03		14.613
6		0.00		2.80		8.224e-03		126.005		1.890e-03		14.036
6		0.00		3.20		7.442e-03		126.796		1.716e-03		12.421
6		0.00		3.60		6.716e-03		128.071		1.462e-03		12.690
6		0.00		4.00		5.956e-03		125.396		1.740e-03		15.905
6		0.00		4.40		4.677e-03		123.585		1.398e-03		24.277
6		0.00		4.80		3.643e-03		116.904		1.350e-03		36.412
6		0.00		5.20		2.881e-03		100.324		1.241e-03		43.771
6		0.00		5.60		1.873e-03		57.189		7.989e-04		65.963
6		0.00		6.00		1.834e-03		-40.386		7.894e-04		57.879
6		0.00		6.40		2.655e-03		-51.642		9.473e-04		40.488
6		0.00		6.80		4.338e-03		-47.122		1.320e-03		25.494
6		0.00		7.20		6.303e-03		-52.457		1.672e-03		18.622
6		0.00		7.60		9.106e-03		-48.303		2.187e-03		14.632
6		0.00		8.00		1.169e-02		-48.756		2.807e-03		12.669
6		0.00		8.40		1.399e-02		-48.828		3.387e-03		14.487
6		0.00		8.80		1.756e-02		-49.273		4.294e-03		12.611
6		0.00		9.20		2.102e-02		-49.262		5.402e-03		11.425
6		0.00		9.60		2.482e-02		-48.693		6.247e-03		8.274
6		0.00		10.00		2.814e-02		-51.872		6.300e-03		6.866
6		0.00		9.60		3.045e-02		-50.896		6.385e-03		7.557
6		0.00		9.20		3.167e-02		-49.624		5.949e-03		7.294
6		0.00		8.80		3.190e-02		-50.191		6.025e-03		8.518
6		0.00		8.40		3.178e-02		-48.475		6.512e-03		8.812
6		0.00		8.00		3.091e-02		-48.897		7.183e-03		9.485
6		0.00		7.60		3.097e-02		-49.470		7.989e-03		12.034
6		0.00		7.20		2.983e-02		-50.089		8.430e-03		14.016
6		0.00		6.80		2.970e-02		-51.197		8.723e-03		11.301
6		0.00		6.40		2.999e-02		-50.165		8.234e-03		8.142
6		0.00		6.00		3.018e-02		-49.671		7.236e-03		7.200
6		0.00		5.60		3.017e-02		-49.137		6.843e-03		7.424
6		0.00		5.20		3.000e-02		-49.586		6.149e-03		7.983
6		0.00		4.80		2.971e-02		-50.842		6.469e-03		8.870
6		0.00		4.40		2.973e-02		-50.221		6.565e-03		9.877
6		0.00		4.00		2.859e-02		-49.245		7.135e-03		11.359
6		0.00		3.60		2.873e-02		-49.727		7.238e-03		13.430
6		0.00		3.20		2.859e-02		-50.749		7.332e-03		14.930
6		0.00		2.80		2.864e-02		-50.200		7.136e-03		10.325
6		0.00		2.40		2.919e-02		-49.302		6.413e-03		7.207
6		0.00		2.00		2.953e-02		-48.480		5.402e-03		6.779
6		0.00		1.60		2.957e-02		-50.693		5.178e-03		8.345
6		0.00		1.20		2.896e-02		-50.557		5.593e-03		8.920
6		0.00		0.80		2.930e-02		-47.180		5.646e-03		7.480
6		0.00		0.40		2.878e-02		-48.393		6.054e-03		8.749
6		0.00		0.00		2.888e-02		-49.288		7.094e-03		13.067
6		0.00		-0.40		2.881e-02		-50.315		7.649e-03		11.972
6		0.00		-0.80		2.831e-02		-49.622		7.625e-03		6.926
6		0.00		-1.20		2.873e-02		-48.703		6.520e-03		6.563
6		0.00		-1.60		2.839e-02		-49.616		5.333e-03		7.085
6		0.00		-2.00		2.770e-02		-47.677		5.047e-03		7.650
6		0.00		-2.40		2.695e-02		-49.195		5.827e-03		8.333
6		0.00		-2.80		2.520e-02		-48.818		6.012e-03		9.036
6		0.00		-3.20		2.337e-02		-50.490		6.174e-03		13.436
6		0.00		-3.60		2.160e-02		-48.175		5.956e-03		10.910
6		0.00		-4.00		1.991e-02		-48.528		4.979e-03		8.309
6		0.00		-4.40		1.764e-02		-48.001		3.445e-03		9.369
6		0.00		-4.80		1.363e-02		-48.598		2.540e-03		10.456
6		0.00		-5.20		1.014e-02		-46.557		2.113e-03		10.610
6		0.00		-5.60		6.226e-03		-45.497		1.612e-03		14.841
6		0.00		-6.00		2.525e-03		-35.705		9.945e-04		50.380
6		0.00		-6.40		3.920e-03		110.319		1.631e-03		34.447
6		0.00		-6.80		8.079e-03		121.064		2.656e-03		15.665
6		0.00		-7.20		1.032e-02		124.145		2.629e-03		10.839
6		0.00		-7.60		1.231e-02		125.569		2.609e-03		9.806
6		0.00		-8.00		1.407e-02		127.115		2.946e-03		8.514
6		0.00		-8.40		1.554e-02		129.799		3.335e-03		10.245
6		0.00		-8.80		1.736e-02		125.305		4.495e-03		13.111
6		0.00		-9.20		1.874e-02		126.563		5.240e-03		18.255
6		0.00		-9.60		1.929e-02		125.159		5.641e-03		10.265
6		0.00		-10.00		2.066e-02		126.919		5.263e-03		9.450
6		0.00		-9.60		2.100e-02		127.271		4.421e-03		6.724
6		0.00		-9.20		2.132e-02		126.660		4.523e-03		7.885
6		0.00		-8.80		2.117e-02		127.075		4.496e-03		8.072
6		0.00		-8.40		2.079e-02		126.937		5.420e-03		12.638
6		0.00		-8.00		2.007e-02		125.128		5.677e-03		18.055
6		0.00		-7.60		1.917e-02		123.308		5.455e-03		16.072
6		0.00		-7.20		1.907e-02		125.660		4.906e-03		8.195
6		0.00		-6.80		1.894e-02		125.285		4.426e-03		8.714
6		0.00		-6.40		1.825e-02		129.160		3.572e-03		9.560
6		0.00		-6.00		1.810e-02		126.785		3.598e-03		9.555
6		0.00		-5.60		1.770e-02		126.429		3.600e-03		9.507
6		0.00		-5.20		1.717e-02		128.910		4.047e-03		12.733
6		0.00		-4.80		1.623e-02		127.088		3.933e-03		17.574
6		0.00		-4.40		1.608e-02		124.476		4.022e-03		13.396
6		0.00		-4.00		1.544e-02		128.294		3.459e-03		9.399
6		0.00		-3.60		1.492e-02		125.718		3.086e-03		9.680
6		0.00		-3.20		1.516e-02		125.846		2.934e-03		9.548
6		0.00		-2.80		1.436e-02		127.463		2.949e-03		7.928
6		0.00		-2.40		1.373e-02		127.486		2.813e-03		9.468
6		0.00		-2.00		1.313e-02		125.507		3.149e-03		13.077
6		0.00		-1.60		1.297e-02		128.161		3.476e-03		16.124
6		0.00		-1.20		1.251e-02		123.567		3.626e-03		14.664
6		0.00		-0.80		1.218e-02		125.922		3.210e-03		9.271
6		0.00		-0.40		1.216e-02		129.798		2.623e-03		8.039
7		0.00		0.00		1.212e-02		125.447		2.386e-03		10.422
7		0.00		0.40		1.182e-02		127.893		2.452e-03		9.341
7		0.00		0.80		1.114e-02		128.599		2.407e-03		10.273
7		0.00		1.20		1.054e-02		129.760		2.639e-03		14.371
7		0.00		1.60		1.031e-02		124.231		2.600e-03		18.729
7		0.00		2.00		9.574e-03		126.169		2.656e-03		18.277
7		0.00		2.40		8.725e-03		125.468		2.207e-03		11.563
7		0.00		2.80		8.218e-03		126.924		1.853e-03		12.210
7		0.00		3.20		7.684e-03		124.280		1.975e-03		12.048
7		0.00		3.60		6.606e-03		126.320		1.595e-03		15.571
7		0.00		4.00		5.795e-03		127.332		1.641e-03		18.288
7		0.00		4.40		4.657e-03		120.505		1.388e-03		22.943
7		0.00		4.80		3.205e-03		104.934		1.235e-03		49.241
7		0.00		5.20		2.705e-03		92.046		1.089e-03		55.163
7		0.00		5.60		1.669e-03		11.380		8.081e-04		85.484
7		0.00		6.00		1.922e-03		-35.120		8.184e-04		62.365
7		0.00		6.40		3.289e-03		-60.793		1.144e-03		28.999
7		0.00		6.80		4.619e-03		-56.522		1.416e-03		20.380
7		0.00		7.20		7.474e-03		-49.473		2.160e-03		16.795
7		0.00		7.60		8.744e-03		-49.695		2.310e-03		12.385
7		0.00		8.00		1.174e-02		-47.589		3.099e-03		15.105
7		0.00		8.40		1.467e-02		-51.418		4.343e-03		14.643
7		0.00		8.80		1.809e-02		-51.849		5.534e-03		11.614
7		0.00		9.20		2.132e-02		-50.496		5.991e-03		8.070
7		0.00		9.60		2.516e-02		-49.958		5.829e-03		7.870
7		0.00		10.00		2.880e-02		-50.594		5.720e-03		9.151
7		0.00		9.60		3.001e-02		-50.476		5.894e-03		8.795
7		0.00		9.20		3.068e-02		-49.380		6.294e-03		10.174
7		0.00		8.80		3.042e-02		-49.098		6.876e-03		9.462
7		0.00		8.40		3.079e-02		-50.050		7.351e-03		12.288
7		0.00		8.00		3.067e-02		-51.583		7.857e-03		12.275
7		0.00		7.60		3.109e-02		-49.861		8.278e-03		8.204
7		0.00		7.20		3.127e-02		-49.323		7.282e-03		7.290
7		0.00		6.80		3.150e-02		-51.028		6.591e-03		6.974
7		0.00		6.40		3.111e-02		-49.296		5.861e-03		8.039
7		0.00		6.00		3.098e-02		-50.065		5.608e-03		7.677
7		0.00		5.60		3.072e-02		-48.145		6.145e-03		7.834
7		0.00		5.20		2.993e-02		-48.456		6.948e-03		9.272
7		0.00		4.80		2.952e-02		-49.723		7.390e-03		12.674
7		0.00		4.40		2.901e-02		-51.555		7.828e-03		11.370
7		0.00		4.00		2.933e-02		-50.142		7.593e-03		8.285
7		0.00		3.60		2.959e-02		-48.648		6.576e-03		6.745
7		0.00		3.20		3.003e-02		-49.725		5.607e-03		6.936
7		0.00		2.80		3.088e-02		-50.323		5.406e-03		6.495
7		0.00		2.40		3.034e-02		-49.840		5.385e-03		7.472
7		0.00		2.00		3.000e-02		-51.145		5.633e-03		8.077
7		0.00		1.60		2.952e-02		-48.867		6.009e-03		9.268
7		0.00		1.20		2.925e-02		-48.212		6.942e-03		13.198
7		0.00		0.80		2.917e-02		-49.746		6.987e-03		8.690
7		0.00		0.40		2.963e-02		-49.343		6.691e-03		7.205
7		0.00		0.00		3.013e-02		-49.807		5.808e-03		7.091
7		0.00		-0.40		3.001e-02		-49.492		5.061e-03		7.060
7		0.00		-0.80		2.983e-02		-50.158		4.951e-03		7.262
7		0.00		-1.20		2.899e-02		-48.201		5.455e-03		9.134
7		0.00		-1.60		2.836e-02		-49.464		5.971e-03		9.612
7		0.00		-2.00		2.752e-02		-49.750		6.904e-03		9.487
7		0.00		-2.40		2.654e-02		-50.303		7.337e-03		13.451
7		0.00		-2.80		2.595e-02		-49.123		7.139e-03		9.261
7		0.00		-3.20		2.470e-02		-50.402		6.020e-03		6.956
7		0.00		-3.60		2.223e-02		-48.648		4.850e-03		6.999
7		0.00		-4.00		1.957e-02		-49.206		3.973e-03		9.003
7		0.00		-4.40		1.649e-02		-48.777		3.402e-03		9.002
7		0.00		-4.80		1.226e-02		-48.245		2.651e-03		11.908
7		0.00		-5.20		8.525e-03		-46.979		2.264e-03		13.093
7		0.00		-5.60		4.826e-03		-43.646		1.549e-03		20.243
7		0.00		-6.00		1.930e-03		10.477		8.209e-04		72.069
7		0.00		-6.40		4.085e-03		108.063		1.500e-03		43.993
7		0.00		-6.80		7.373e-03		119.079		2.200e-03		15.875
7		0.00		-7.20		1.093e-02		127.821		2.949e-03		11.069
7		0.00		-7.60		1.371e-02		123.767		3.311e-03		11.149
7		0.00		-8.00		1.578e-02		125.215		3.315e-03		9.518
7		0.00		-8.40		1.646e-02		126.633		3.412e-03		7.851
7		0.00		-8.80		1.866e-02		126.697		3.699e-03		9.147
7		0.00		-9.20		1.860e-02		125.361		4.356e-03		11.501
7		0.00		-9.60		1.945e-02		125.584		4.922e-03		16.582
7		0.00		-10.00		2.113e-02		125.184		5.295e-03		17.454
7		0.00		-9.60		2.132e-02		127.523		5.326e-03		8.270
7		0.00		-9.20		2.114e-02		126.910		4.850e-03		7.485
7		0.00		-8.80		2.101e-02		125.786		4.188e-03		6.549
7		0.00		-8.40		2.138e-02		127.661		3.922e-03		6.880
7		0.00		-8.00		2.055e-02		126.751		3.874e-03		8.076
7		0.00		-7.60		2.063e-02		127.619		3.859e-03		8.003
7		0.00		-7.20		1.917e-02		128.623		4.186e-03		9.276
7		0.00		-6.80		1.829e-02		126.921		4.438e-03		13.118
7		0.00		-6.40		1.806e-02		125.280		4.431e-03		16.569
7		0.00		-6.00		1.729e-02		124.858		4.728e-03		16.658
7		0.00		-5.60		1.694e-02		125.297		4.192e-03		9.503
7		0.00		-5.20		1.688e-02		127.080		3.537e-03		8.360
7		0.00		-4.80		1.607e-02		126.873		2.946e-03		8.424
7		0.00		-4.40		1.620e-02		125.820		2.863e-03		7.594
7		0.00		-4.00		1.544e-02		127.737		2.944e-03		8.769
7		0.00		-3.60		1.485e-02		125.853		3.240e-03		10.378
7		0.00		-3.20		1.427e-02		126.311		3.237e-03		14.472
7		0.00		-2.80		1.366e-02		122.496		3.610e-03		16.497
7		0.00		-2.40		1.333e-02		126.851		3.451e-03		12.181
7		0.00		-2.00		1.315e-02		127.307		3.127e-03		8.443
7		0.00		-1.60		1.289e-02		126.667		2.807e-03		8.567
7		0.00		-1.20		1.247e-02		125.925		2.772e-03		8.811
7		0.00		-0.80		1.219e-02		126.878		2.549e-03		9.008
7		0.00		-0.40		1.189e-02		127.436		2.767e-03		11.539
8		0.00		0.00		1.114e-02		126.632		2.938e-03		16.700
8		0.00		0.40		1.092e-02		122.100		2.845e-03		21.016
8		0.00		0.80		1.073e-02		121.275		2.989e-03		16.153
8		0.00		1.20		1.041e-02		122.353		2.902e-03		11.774
8		0.00		1.60		1.002e-02		125.823		2.413e-03		10.046
8		0.00		2.00		8.930e-03		127.096		2.218e-03		12.057
8		0.00		2.40		8.434e-03		125.824		1.866e-03		9.630
8		0.00		2.80		8.094e-03		129.711		2.179e-03		11.305
8		0.00		3.20		7.011e-03		124.038		1.944e-03		15.812
8		0.00		3.60		6.657e-03		118.615		1.858e-03		24.763
8		0.00		4.00		5.321e-03		119.560		1.594e-03		25.578
8		0.00		4.40		4.037e-03		119.351		1.363e-03		29.288
8		0.00		4.80		3.182e-03		107.846		1.353e-03		47.659
8		0.00		5.20		2.404e-03		70.604		1.063e-03		61.182
8		0.00		5.60		1.852e-03		26.280		6.469e-04		72.947
8		0.00		6.00		1.791e-03		-29.243		6.492e-04		69.247
8		0.00		6.40		2.896e-03		-40.942		1.191e-03		35.631
8		0.00		6.80		4.804e-03		-47.109		1.684e-03		27.909
8		0.00		7.20		6.402e-03		-45.319		1.966e-03		14.679
8		0.00		7.60		9.260e-03		-54.268		2.317e-03		13.487
8		0.00		8.00		1.183e-02		-50.455		2.625e-03		9.546
8		0.00		8.40		1.497e-02		-50.018		2.817e-03		9.848
8		0.00		8.80		1.728e-02		-47.534		3.474e-03		9.616
8		0.00		9.20		2.033e-02		-48.747		4.480e-03		10.010
8		0.00		9.60		2.276e-02		-51.305		5.720e-03		13.706
8		0.00		10.00		2.691e-02		-50.617		6.994e-03		14.333
8		0.00		9.60		2.853e-02		-51.194		7.771e-03		10.814
8		0.00		9.20		3.007e-02		-49.817		7.252e-03		6.990
8		0.00		8.80		3.157e-02		-50.607		6.247e-03		6.277
8		0.00		8.40		3.203e-02		-50.170		5.568e-03		7.145
8		0.00		8.00		3.127e-02		-49.826		5.663e-03		7.476
8		0.00		7.60		3.089e-02		-48.952		5.874e-03		8.561
8		0.00		7.20		3.009e-02		-49.027		7.005e-03		11.461
8		0.00		6.80		2.964e-02		-49.352		7.211e-03		9.758
8		0.00		6.40		3.011e-02		-49.403		7.443e-03		9.152
8		0.00		6.00		2.982e-02		-49.296		6.792e-03		7.369
8		0.00		5.60		3.005e-02		-50.080		5.934e-03		7.624
8		0.00		5.20		3.010e-02		-49.040		5.120e-03		6.585
8		0.00		4.80		2.986e-02		-49.851		5.528e-03		7.404
8		0.00		4.40		2.849e-02		-48.660		6.510e-03		8.833
8		0.00		4.00		2.847e-02		-48.555		6.752e-03		8.452
8		0.00		3.60		2.804e-02		-48.831		7.751e-03		12.610
8		0.00		3.20		2.834e-02		-49.502		7.429e-03		8.353
8		0.00		2.80		2.844e-02		-50.813		6.727e-03		7.195
8		0.00		2.40		2.941e-02		-50.092		5.702e-03		7.388
8		0.00		2.00		2.893e-02		-49.648		5.114e-03		7.725
8		0.00		1.60		2.904e-02		-49.688		5.389e-03		7.195
8		0.00		1.20		2.874e-02		-47.928		6.345e-03		8.286
8		0.00		0.80		2.888e-02		-48.918		6.471e-03		10.457
8		0.00		0.40		2.823e-02		-49.241		6.727e-03		11.422
8		0.00		0.00		2.873e-02		-50.310		6.570e-03		7.779
8		0.00		-0.40		2.916e-02		-49.378		5.869e-03		6.869
8		0.00		-0.80		2.938e-02		-49.154		4.782e-03		6.915
8		0.00		-1.20		2.963e-02		-48.973		4.496e-03		7.381
8		0.00		-1.60		2.898e-02		-48.683		4.837e-03		8.098
8		0.00		-2.00		2.841e-02		-47.112		5.233e-03		8.526
8		0.00		-2.40		2.761e-02		-47.821		5.286e-03		9.365
8		0.00		-2.80		2.642e-02		-47.774		5.667e-03		8.506
8		0.00		-3.20		2.519e-02		-49.219		5.748e-03		10.740
8		0.00		-3.60		2.326e-02		-49.499		5.502e-03		8.397
8		0.00		-4.00		1.964e-02		-47.058		3.749e-03		7.651
8		0.00		-4.40		1.751e-02		-48.424		3.261e-03		7.957
8		0.00		-4.80		1.386e-02		-47.374		2.201e-03		9.100
8		0.00		-5.20		1.094e-02		-47.002		1.831e-03		12.058
8		0.00		-5.60		6.788e-03		-40.139		1.425e-03		14.221
8		0.00		-6.00		3.192e-03		-51.526		1.317e-03		28.719
8		0.00		-6.40		2.278e-03		67.900		1.169e-03		61.890
8		0.00		-6.80		4.728e-03		109.093		1.870e-03		33.490
8		0.00		-7.20		8.715e-03		122.929		2.536e-03		13.744
8		0.00		-7.60		1.231e-02		126.072		3.225e-03		9.669
8		0.00		-8.00		1.401e-02		126.633		3.203e-03		8.433
8		0.00		-8.40		1.678e-02		125.745		3.252e-03		8.382
8		0.00		-8.80		1.831e-02		128.221		3.126e-03		7.583
8		0.00		-9.20		1.979e-02		126.650		3.833e-03		8.419
8		0.00		-9.60		2.138e-02		128.898		4.180e-03		6.847
8		0.00		-10.00		2.145e-02		127.734		4.817e-03		13.078
8		0.00		-9.60		2.150e-02		128.167		4.899e-03		13.059
8		0.00		-9.20		2.201e-02		126.216		5.403e-03		12.672
8		0.00		-8.80		2.143e-02		127.716		5.046e-03		9.894
8		0.00		-8.40		2.102e-02		129.067		4.732e-03		7.826
8		0.00		-8.00		2.143e-02		126.823		4.348e-03		6.675
8		0.00		-7.60		2.119e-02		127.952		4.040e-03		7.419
8		0.00		-7.20		2.070e-02		124.779		3.919e-03		7.755
8		0.00		-6.80		1.951e-02		128.154		4.048e-03		8.294
8		0.00		-6.40		1.895e-02		127.963		3.717e-03		8.210
8		0.00		-6.00		1.825e-02		127.780		3.958e-03		9.286
8		0.00		-5.60		1.783e-02		126.138		4.286e-03		12.974
8		0.00		-5.20		1.701e-02		125.471		4.178e-03		17.484
8		0.00		-4.80		1.641e-02		123.635		4.392e-03		18.355
8		0.00		-4.40		1.604e-02		124.888		4.166e-03		14.049
8		0.00		-4.00		1.578e-02		126.567		3.682e-03		9.261
8		0.00		-3.60		1.541e-02		126.554		3.268e-03		9.465
8		0.00		-3.20		1.505e-02		128.696		2.799e-03		7.770
8		0.00		-2.80		1.494e-02		126.131		2.718e-03		7.750
8		0.00		-2.40		1.444e-02		128.761		2.565e-03		8.753
8		0.00		-2.00		1.406e-02		128.775		2.686e-03		9.676
8		0.00		-1.60		1.352e-02		127.559		2.739e-03		10.600
8		0.00		-1.20		1.315e-02		126.569		3.009e-03		13.600
8		0.00		-0.80		1.278e-02		128.254		3.020e-03		15.651
8		0.00		-0.40		1.262e-02		124.145		3.164e-03		13.685
