# Date of analysis: 2023-11-20 16;19
# 
# Loop index	Read Volt (V)	Write Volt (V)	Amplitude (a.u)	Phase (deg)	Sigma Amp (a.u)	Sigma Pha (deg)	
1		0.00		0.00		2.708e-02		-49.697		5.064e-03		8.607
1		0.00		0.40		2.704e-02		-51.169		5.627e-03		10.454
1		0.00		0.80		2.685e-02		-49.733		5.199e-03		9.570
1		0.00		1.20		2.704e-02		-52.035		5.565e-03		10.950
1		0.00		1.60		2.684e-02		-50.838		5.569e-03		10.059
1		0.00		2.00		2.706e-02		-51.230		6.027e-03		11.375
1		0.00		2.40		2.646e-02		-50.422		6.047e-03		12.731
1		0.00		2.80		2.688e-02		-51.542		6.037e-03		12.954
1		0.00		3.20		2.672e-02		-50.373		6.077e-03		11.461
1		0.00		3.60		2.806e-02		-51.608		6.235e-03		11.727
1		0.00		4.00		2.780e-02		-49.667		6.268e-03		10.651
1		0.00		4.40		2.749e-02		-52.166		6.543e-03		13.611
1		0.00		4.80		2.795e-02		-52.103		7.147e-03		14.324
1		0.00		5.20		2.830e-02		-52.419		7.275e-03		14.444
1		0.00		5.60		2.862e-02		-53.284		7.540e-03		12.862
1		0.00		6.00		2.939e-02		-51.733		7.833e-03		13.180
1		0.00		6.40		2.960e-02		-53.083		7.974e-03		12.341
1		0.00		6.80		3.043e-02		-52.232		8.230e-03		11.854
1		0.00		7.20		3.125e-02		-53.109		8.887e-03		13.381
1		0.00		7.60		3.175e-02		-52.519		8.952e-03		12.842
1		0.00		8.00		3.315e-02		-52.728		9.436e-03		12.446
1		0.00		8.40		3.533e-02		-51.436		9.422e-03		13.083
1		0.00		8.80		3.784e-02		-53.064		1.001e-02		10.952
1		0.00		9.20		4.013e-02		-53.106		1.031e-02		12.741
1		0.00		9.60		4.327e-02		-52.068		1.084e-02		11.962
1		0.00		10.00		4.558e-02		-53.570		1.163e-02		12.647
1		0.00		9.60		4.740e-02		-53.588		1.210e-02		11.762
1		0.00		9.20		4.788e-02		-52.224		1.221e-02		13.062
1		0.00		8.80		4.752e-02		-51.408		1.160e-02		12.597
1		0.00		8.40		4.801e-02		-52.466		1.182e-02		11.427
1		0.00		8.00		4.718e-02		-52.558		1.178e-02		13.672
1		0.00		7.60		4.702e-02		-51.723		1.186e-02		12.359
1		0.00		7.20		4.568e-02		-51.575		1.166e-02		12.294
1		0.00		6.80		4.547e-02		-52.765		1.215e-02		13.026
1		0.00		6.40		4.472e-02		-52.648		1.188e-02		12.338
1		0.00		6.00		4.400e-02		-50.825		1.162e-02		9.755
1		0.00		5.60		4.431e-02		-51.541		1.199e-02		10.447
1		0.00		5.20		4.328e-02		-52.502		1.152e-02		13.064
1		0.00		4.80		4.316e-02		-52.466		1.135e-02		10.365
1		0.00		4.40		4.265e-02		-50.924		1.112e-02		11.923
1		0.00		4.00		4.246e-02		-50.742		1.119e-02		10.802
1		0.00		3.60		4.323e-02		-50.169		1.047e-02		8.830
1		0.00		3.20		4.303e-02		-50.311		1.025e-02		9.201
1		0.00		2.80		4.274e-02		-50.375		1.033e-02		8.682
1		0.00		2.40		4.295e-02		-51.797		1.032e-02		10.564
1		0.00		2.00		4.303e-02		-51.710		1.010e-02		7.326
1		0.00		1.60		4.307e-02		-50.101		9.842e-03		8.047
1		0.00		1.20		4.230e-02		-52.274		1.049e-02		11.253
1		0.00		0.80		4.256e-02		-51.340		1.005e-02		10.345
1		0.00		0.40		4.189e-02		-51.733		9.988e-03		10.899
1		0.00		0.00		4.130e-02		-51.194		1.063e-02		12.756
1		0.00		-0.40		4.099e-02		-51.824		1.115e-02		13.334
1		0.00		-0.80		4.000e-02		-51.397		1.119e-02		12.092
1		0.00		-1.20		4.000e-02		-52.038		1.065e-02		14.001
1		0.00		-1.60		3.851e-02		-51.513		1.059e-02		12.813
1		0.00		-2.00		3.776e-02		-53.283		1.021e-02		13.173
1		0.00		-2.40		3.629e-02		-51.614		9.758e-03		12.997
1		0.00		-2.80		3.399e-02		-52.262		9.054e-03		12.116
1		0.00		-3.20		3.161e-02		-50.908		8.281e-03		11.392
1		0.00		-3.60		2.968e-02		-50.118		7.569e-03		11.151
1		0.00		-4.00		2.636e-02		-49.545		6.276e-03		11.112
1		0.00		-4.40		2.026e-02		-49.758		4.783e-03		11.307
1		0.00		-4.80		1.463e-02		-50.612		3.519e-03		12.657
1		0.00		-5.20		1.055e-02		-52.011		2.723e-03		13.716
1		0.00		-5.60		6.565e-03		-48.638		2.095e-03		24.708
1		0.00		-6.00		3.115e-03		-43.273		1.305e-03		37.111
1		0.00		-6.40		2.829e-03		83.629		1.266e-03		61.434
1		0.00		-6.80		5.551e-03		117.548		2.029e-03		34.348
1		0.00		-7.20		9.114e-03		125.570		2.514e-03		15.054
1		0.00		-7.60		1.249e-02		125.172		3.156e-03		12.406
1		0.00		-8.00		1.473e-02		126.376		3.722e-03		11.972
1		0.00		-8.40		1.603e-02		128.641		3.727e-03		11.354
1		0.00		-8.80		1.785e-02		128.180		4.163e-03		9.929
1		0.00		-9.20		1.918e-02		128.345		4.792e-03		10.839
1		0.00		-9.60		2.076e-02		127.251		4.717e-03		9.736
1		0.00		-10.00		2.135e-02		127.087		4.731e-03		8.809
1		0.00		-9.60		2.133e-02		128.060		4.905e-03		9.936
1		0.00		-9.20		2.071e-02		127.238		4.585e-03		9.648
1		0.00		-8.80		2.148e-02		128.338		4.966e-03		9.227
1		0.00		-8.40		2.029e-02		127.414		4.565e-03		11.054
1		0.00		-8.00		2.071e-02		128.226		4.369e-03		9.270
1		0.00		-7.60		2.071e-02		128.891		4.140e-03		9.192
1		0.00		-7.20		1.976e-02		130.575		4.073e-03		9.676
1		0.00		-6.80		1.896e-02		127.465		3.903e-03		8.441
1		0.00		-6.40		1.849e-02		129.881		3.950e-03		9.370
1		0.00		-6.00		1.800e-02		129.998		3.643e-03		9.847
1		0.00		-5.60		1.727e-02		130.215		3.365e-03		10.182
1		0.00		-5.20		1.648e-02		127.391		3.378e-03		10.194
1		0.00		-4.80		1.539e-02		128.550		3.231e-03		8.784
1		0.00		-4.40		1.509e-02		128.684		3.264e-03		9.514
1		0.00		-4.00		1.461e-02		128.111		3.513e-03		9.339
1		0.00		-3.60		1.430e-02		129.769		3.279e-03		8.944
1		0.00		-3.20		1.370e-02		126.124		3.330e-03		11.090
1		0.00		-2.80		1.298e-02		127.171		3.001e-03		10.473
1		0.00		-2.40		1.257e-02		127.717		2.868e-03		10.828
1		0.00		-2.00		1.252e-02		124.982		2.910e-03		10.724
1		0.00		-1.60		1.260e-02		126.991		3.038e-03		11.043
1		0.00		-1.20		1.187e-02		128.987		3.003e-03		11.295
1		0.00		-0.80		1.145e-02		128.283		2.509e-03		13.038
1		0.00		-0.40		1.084e-02		130.202		2.417e-03		10.544
2		0.00		0.00		1.087e-02		129.229		2.508e-03		12.984
2		0.00		0.40		1.051e-02		128.236		2.388e-03		9.894
2		0.00		0.80		1.033e-02		131.693		2.625e-03		11.907
2		0.00		1.20		9.678e-03		130.996		2.243e-03		13.152
2		0.00		1.60		9.306e-03		132.033		2.328e-03		12.543
2		0.00		2.00		8.081e-03		132.226		2.041e-03		13.493
2		0.00		2.40		7.401e-03		131.487		1.810e-03		14.880
2		0.00		2.80		6.690e-03		130.540		1.622e-03		17.734
2		0.00		3.20		5.757e-03		130.307		1.545e-03		23.158
2		0.00		3.60		5.347e-03		124.826		1.705e-03		29.590
2		0.00		4.00		3.726e-03		112.424		1.447e-03		38.466
2		0.00		4.40		2.951e-03		80.849		1.174e-03		72.356
2		0.00		4.80		1.892e-03		20.705		8.017e-04		83.309
2		0.00		5.20		1.765e-03		-8.937		7.556e-04		83.385
2		0.00		5.60		1.935e-03		-49.256		8.251e-04		50.914
2		0.00		6.00		2.554e-03		-62.865		1.005e-03		39.772
2		0.00		6.40		4.150e-03		-53.407		1.520e-03		28.931
2		0.00		6.80		6.135e-03		-53.188		1.652e-03		22.350
2		0.00		7.20		7.680e-03		-55.701		2.114e-03		20.769
2		0.00		7.60		9.725e-03		-57.111		2.473e-03		12.850
2		0.00		8.00		1.268e-02		-51.345		3.264e-03		14.792
2		0.00		8.40		1.578e-02		-54.308		3.856e-03		12.465
2		0.00		8.80		2.045e-02		-52.923		4.854e-03		12.200
2		0.00		9.20		2.547e-02		-51.650		6.126e-03		9.851
2		0.00		9.60		3.103e-02		-53.398		7.277e-03		10.177
2		0.00		10.00		3.717e-02		-53.636		8.923e-03		9.360
2		0.00		9.60		3.798e-02		-51.268		8.862e-03		8.565
2		0.00		9.20		3.853e-02		-53.353		9.417e-03		8.919
2		0.00		8.80		3.822e-02		-54.565		9.790e-03		8.466
2		0.00		8.40		3.838e-02		-53.664		9.753e-03		7.671
2		0.00		8.00		3.806e-02		-54.368		9.381e-03		7.489
2		0.00		7.60		3.775e-02		-53.090		8.983e-03		6.603
2		0.00		7.20		3.803e-02		-54.160		8.875e-03		7.187
2		0.00		6.80		3.718e-02		-53.893		8.337e-03		6.923
2		0.00		6.40		3.677e-02		-52.483		8.106e-03		5.553
2		0.00		6.00		3.629e-02		-52.488		7.764e-03		5.433
2		0.00		5.60		3.612e-02		-52.353		7.204e-03		6.663
2		0.00		5.20		3.599e-02		-52.082		6.757e-03		5.875
2		0.00		4.80		3.594e-02		-51.874		6.026e-03		6.366
2		0.00		4.40		3.551e-02		-51.974		5.953e-03		6.448
2		0.00		4.00		3.485e-02		-52.693		5.749e-03		6.950
2		0.00		3.60		3.439e-02		-52.048		5.951e-03		7.062
2		0.00		3.20		3.409e-02		-52.587		6.227e-03		8.040
2		0.00		2.80		3.474e-02		-50.838		6.215e-03		7.415
2		0.00		2.40		3.476e-02		-51.460		6.371e-03		6.504
2		0.00		2.00		3.376e-02		-51.059		6.464e-03		8.828
2		0.00		1.60		3.329e-02		-49.180		6.444e-03		6.778
2		0.00		1.20		3.321e-02		-51.096		6.742e-03		8.989
2		0.00		0.80		3.303e-02		-51.579		7.646e-03		8.615
2		0.00		0.40		3.229e-02		-51.188		8.014e-03		9.051
2		0.00		0.00		3.273e-02		-52.620		8.294e-03		10.290
2		0.00		-0.40		3.212e-02		-52.458		8.272e-03		10.335
2		0.00		-0.80		3.202e-02		-52.604		8.653e-03		11.316
2		0.00		-1.20		3.115e-02		-52.196		8.580e-03		9.722
2		0.00		-1.60		3.064e-02		-52.945		8.149e-03		9.182
2		0.00		-2.00		2.999e-02		-52.397		7.588e-03		7.923
2		0.00		-2.40		2.874e-02		-52.212		6.484e-03		8.218
2		0.00		-2.80		2.895e-02		-53.495		5.943e-03		6.691
2		0.00		-3.20		2.770e-02		-51.223		5.030e-03		7.894
2		0.00		-3.60		2.567e-02		-53.026		4.398e-03		8.083
2		0.00		-4.00		2.274e-02		-51.900		4.052e-03		7.999
2		0.00		-4.40		1.930e-02		-51.617		3.198e-03		8.571
2		0.00		-4.80		1.586e-02		-51.316		2.868e-03		10.093
2		0.00		-5.20		1.127e-02		-53.694		2.374e-03		12.085
2		0.00		-5.60		7.728e-03		-51.768		1.708e-03		17.154
2		0.00		-6.00		4.877e-03		-55.381		1.468e-03		21.647
2		0.00		-6.40		2.027e-03		-52.736		8.742e-04		53.996
2		0.00		-6.80		2.963e-03		88.645		1.303e-03		63.332
2		0.00		-7.20		5.919e-03		123.865		2.053e-03		24.660
2		0.00		-7.60		7.874e-03		125.793		2.486e-03		20.124
2		0.00		-8.00		1.118e-02		124.753		3.419e-03		17.264
2		0.00		-8.40		1.274e-02		125.335		3.851e-03		19.506
2		0.00		-8.80		1.524e-02		125.190		4.571e-03		12.938
2		0.00		-9.20		1.593e-02		124.724		4.641e-03		12.750
2		0.00		-9.60		1.773e-02		127.311		5.075e-03		8.775
2		0.00		-10.00		1.909e-02		127.149		5.108e-03		9.521
2		0.00		-9.60		1.957e-02		126.016		4.615e-03		8.484
2		0.00		-9.20		1.985e-02		126.517		4.323e-03		8.814
2		0.00		-8.80		1.942e-02		126.205		3.840e-03		6.848
2		0.00		-8.40		1.906e-02		126.346		3.550e-03		7.860
2		0.00		-8.00		1.917e-02		126.035		3.484e-03		9.049
2		0.00		-7.60		1.865e-02		126.581		3.214e-03		8.072
2		0.00		-7.20		1.852e-02		128.540		3.641e-03		9.334
2		0.00		-6.80		1.758e-02		129.051		3.787e-03		9.159
2		0.00		-6.40		1.724e-02		128.121		3.636e-03		10.009
2		0.00		-6.00		1.622e-02		127.377		3.588e-03		12.038
2		0.00		-5.60		1.546e-02		128.067		4.095e-03		12.759
2		0.00		-5.20		1.476e-02		127.951		3.930e-03		14.138
2		0.00		-4.80		1.424e-02		123.230		4.200e-03		21.252
2		0.00		-4.40		1.332e-02		125.835		3.575e-03		12.469
2		0.00		-4.00		1.313e-02		125.656		3.626e-03		11.021
2		0.00		-3.60		1.259e-02		127.936		3.041e-03		7.946
2		0.00		-3.20		1.202e-02		127.210		2.652e-03		10.320
2		0.00		-2.80		1.171e-02		126.532		2.554e-03		9.233
2		0.00		-2.40		1.119e-02		127.079		2.550e-03		10.650
2		0.00		-2.00		1.118e-02		127.387		2.493e-03		12.184
2		0.00		-1.60		1.083e-02		128.761		2.227e-03		10.658
2		0.00		-1.20		1.045e-02		127.586		2.373e-03		13.113
2		0.00		-0.80		9.985e-03		131.852		2.576e-03		15.576
2		0.00		-0.40		1.009e-02		125.551		2.716e-03		17.516
3		0.00		0.00		9.809e-03		129.562		2.622e-03		13.827
3		0.00		0.40		9.465e-03		129.721		2.490e-03		12.887
3		0.00		0.80		8.729e-03		129.466		2.212e-03		11.987
3		0.00		1.20		8.484e-03		129.539		2.018e-03		11.103
3		0.00		1.60		7.533e-03		128.900		1.740e-03		11.900
3		0.00		2.00		7.084e-03		126.302		1.584e-03		14.048
3		0.00		2.40		6.136e-03		127.533		1.792e-03		28.112
3		0.00		2.80		5.450e-03		129.000		1.590e-03		18.624
3		0.00		3.20		4.809e-03		120.305		1.695e-03		35.795
3		0.00		3.60		3.955e-03		117.672		1.435e-03		42.359
3		0.00		4.00		3.036e-03		107.336		1.391e-03		62.952
3		0.00		4.40		2.124e-03		62.736		9.323e-04		73.102
3		0.00		4.80		1.816e-03		6.340		7.448e-04		86.211
3		0.00		5.20		1.901e-03		-46.465		7.635e-04		69.036
3		0.00		5.60		2.614e-03		-72.918		1.031e-03		33.476
3		0.00		6.00		3.523e-03		-67.959		1.202e-03		23.257
3		0.00		6.40		4.950e-03		-53.899		1.516e-03		26.390
3		0.00		6.80		5.879e-03		-54.820		1.600e-03		21.689
3		0.00		7.20		7.652e-03		-54.160		2.150e-03		16.046
3		0.00		7.60		9.440e-03		-56.848		2.292e-03		18.174
3		0.00		8.00		1.227e-02		-52.396		2.765e-03		10.463
3		0.00		8.40		1.488e-02		-54.987		2.750e-03		9.175
3		0.00		8.80		1.847e-02		-53.301		2.770e-03		9.499
3		0.00		9.20		2.113e-02		-52.078		3.599e-03		8.663
3		0.00		9.60		2.541e-02		-52.054		4.318e-03		9.477
3		0.00		10.00		3.166e-02		-52.208		6.153e-03		8.344
3		0.00		9.60		3.346e-02		-51.103		7.272e-03		10.322
3		0.00		9.20		3.446e-02		-52.484		8.149e-03		10.141
3		0.00		8.80		3.466e-02		-53.199		8.013e-03		7.573
3		0.00		8.40		3.447e-02		-54.142		7.179e-03		8.127
3		0.00		8.00		3.463e-02		-52.487		6.287e-03		6.331
3		0.00		7.60		3.459e-02		-53.126		5.794e-03		6.812
3		0.00		7.20		3.416e-02		-53.613		5.943e-03		7.551
3		0.00		6.80		3.341e-02		-51.183		5.672e-03		7.490
3		0.00		6.40		3.240e-02		-50.358		6.621e-03		7.585
3		0.00		6.00		3.138e-02		-52.533		7.427e-03		8.776
3		0.00		5.60		3.064e-02		-52.158		7.634e-03		9.367
3		0.00		5.20		3.060e-02		-53.315		7.907e-03		10.531
3		0.00		4.80		3.078e-02		-52.375		6.836e-03		8.579
3		0.00		4.40		3.080e-02		-52.302		5.910e-03		7.857
3		0.00		4.00		3.099e-02		-51.918		4.750e-03		6.217
3		0.00		3.60		3.032e-02		-51.381		4.900e-03		7.254
3		0.00		3.20		3.004e-02		-52.078		5.192e-03		7.457
3		0.00		2.80		2.992e-02		-51.486		5.609e-03		8.008
3		0.00		2.40		2.929e-02		-51.667		6.093e-03		8.321
3		0.00		2.00		2.889e-02		-50.520		6.472e-03		11.680
3		0.00		1.60		2.912e-02		-50.899		6.477e-03		9.315
3		0.00		1.20		2.896e-02		-51.810		6.475e-03		8.943
3		0.00		0.80		2.950e-02		-53.208		6.667e-03		8.022
3		0.00		0.40		2.914e-02		-52.903		5.797e-03		6.594
3		0.00		0.00		2.928e-02		-53.649		5.439e-03		7.065
3		0.00		-0.40		2.945e-02		-53.457		5.323e-03		6.851
3		0.00		-0.80		2.852e-02		-52.579		5.571e-03		7.092
3		0.00		-1.20		2.814e-02		-49.365		5.830e-03		8.762
3		0.00		-1.60		2.707e-02		-51.583		6.120e-03		10.920
3		0.00		-2.00		2.649e-02		-52.908		6.525e-03		13.181
3		0.00		-2.40		2.576e-02		-52.160		6.868e-03		10.547
3		0.00		-2.80		2.541e-02		-53.282		6.411e-03		8.515
3		0.00		-3.20		2.447e-02		-53.928		5.348e-03		8.679
3		0.00		-3.60		2.382e-02		-52.648		4.145e-03		7.368
3		0.00		-4.00		2.140e-02		-51.199		3.482e-03		8.054
3		0.00		-4.40		1.857e-02		-51.838		3.062e-03		9.259
3		0.00		-4.80		1.553e-02		-50.916		2.618e-03		9.403
3		0.00		-5.20		1.292e-02		-51.691		2.616e-03		14.581
3		0.00		-5.60		9.921e-03		-52.788		2.398e-03		15.712
3		0.00		-6.00		6.140e-03		-49.068		1.746e-03		15.715
3		0.00		-6.40		3.058e-03		-52.603		1.297e-03		40.907
3		0.00		-6.80		1.751e-03		13.241		7.617e-04		82.712
3		0.00		-7.20		4.647e-03		112.666		1.810e-03		23.450
3		0.00		-7.60		7.540e-03		124.119		2.069e-03		16.077
3		0.00		-8.00		1.101e-02		126.196		2.456e-03		10.297
3		0.00		-8.40		1.344e-02		125.025		2.528e-03		8.510
3		0.00		-8.80		1.489e-02		126.477		3.323e-03		10.128
3		0.00		-9.20		1.592e-02		126.771		3.808e-03		12.682
3		0.00		-9.60		1.712e-02		127.847		4.426e-03		12.314
3		0.00		-10.00		1.855e-02		125.038		5.120e-03		12.992
3		0.00		-9.60		1.923e-02		125.415		5.173e-03		11.666
3		0.00		-9.20		1.924e-02		125.760		4.770e-03		9.979
3		0.00		-8.80		1.939e-02		126.288		4.315e-03		8.008
3		0.00		-8.40		1.917e-02		126.666		3.588e-03		7.419
3		0.00		-8.00		1.844e-02		126.611		3.216e-03		7.140
3		0.00		-7.60		1.758e-02		127.776		3.257e-03		8.311
3		0.00		-7.20		1.709e-02		128.420		3.334e-03		9.890
3		0.00		-6.80		1.646e-02		127.111		3.840e-03		15.087
3		0.00		-6.40		1.542e-02		124.513		3.743e-03		15.774
3		0.00		-6.00		1.457e-02		126.132		3.568e-03		14.984
3		0.00		-5.60		1.457e-02		128.771		3.372e-03		8.974
3		0.00		-5.20		1.403e-02		126.997		3.242e-03		8.419
3		0.00		-4.80		1.328e-02		128.515		2.801e-03		8.256
3		0.00		-4.40		1.292e-02		127.658		2.744e-03		9.054
3		0.00		-4.00		1.233e-02		126.138		2.469e-03		11.984
3		0.00		-3.60		1.168e-02		128.591		2.661e-03		10.316
3		0.00		-3.20		1.107e-02		130.842		2.446e-03		11.359
3		0.00		-2.80		1.059e-02		131.629		2.925e-03		14.327
3		0.00		-2.40		1.030e-02		124.530		2.845e-03		17.767
3		0.00		-2.00		9.433e-03		127.084		2.688e-03		24.299
3		0.00		-1.60		9.093e-03		127.026		2.592e-03		16.653
3		0.00		-1.20		8.622e-03		125.233		2.352e-03		14.182
3		0.00		-0.80		9.027e-03		127.932		2.342e-03		13.157
3		0.00		-0.40		8.403e-03		132.619		1.980e-03		11.039
4		0.00		0.00		8.782e-03		128.249		2.111e-03		12.619
4		0.00		0.40		8.416e-03		127.861		1.946e-03		10.589
4		0.00		0.80		7.863e-03		129.150		1.763e-03		10.862
4		0.00		1.20		7.628e-03		130.784		1.496e-03		11.451
4		0.00		1.60		6.777e-03		129.357		1.586e-03		13.628
4		0.00		2.00		6.340e-03		129.322		1.718e-03		13.236
4		0.00		2.40		5.941e-03		131.468		1.358e-03		17.168
4		0.00		2.80		4.698e-03		122.735		1.443e-03		22.921
4		0.00		3.20		4.148e-03		114.749		1.369e-03		50.472
4		0.00		3.60		3.036e-03		102.196		1.069e-03		56.789
4		0.00		4.00		2.469e-03		80.515		1.074e-03		68.007
4		0.00		4.40		1.917e-03		25.288		8.368e-04		96.508
4		0.00		4.80		1.873e-03		-28.664		8.738e-04		66.868
4		0.00		5.20		2.094e-03		-55.335		8.591e-04		50.930
4		0.00		5.60		3.196e-03		-59.137		1.153e-03		31.653
4		0.00		6.00		4.435e-03		-49.940		1.228e-03		23.419
4		0.00		6.40		5.653e-03		-57.738		1.426e-03		15.107
4		0.00		6.80		7.918e-03		-58.981		1.546e-03		14.378
4		0.00		7.20		9.657e-03		-54.646		1.700e-03		11.777
4		0.00		7.60		1.147e-02		-52.184		2.012e-03		10.550
4		0.00		8.00		1.324e-02		-49.226		2.821e-03		10.628
4		0.00		8.40		1.578e-02		-53.432		3.137e-03		10.286
4		0.00		8.80		1.767e-02		-51.552		3.720e-03		10.976
4		0.00		9.20		2.112e-02		-52.459		4.518e-03		10.569
4		0.00		9.60		2.369e-02		-52.900		5.607e-03		11.319
4		0.00		10.00		2.725e-02		-54.209		6.334e-03		13.321
4		0.00		9.60		2.910e-02		-53.719		6.842e-03		11.443
4		0.00		9.20		3.083e-02		-53.307		7.087e-03		7.866
4		0.00		8.80		3.112e-02		-53.484		6.556e-03		6.803
4		0.00		8.40		3.132e-02		-52.042		6.171e-03		6.444
4		0.00		8.00		3.093e-02		-53.151		6.071e-03		7.360
4		0.00		7.60		3.059e-02		-52.371		5.957e-03		6.536
4		0.00		7.20		3.000e-02		-51.191		5.675e-03		6.899
4		0.00		6.80		2.975e-02		-52.104		6.054e-03		7.594
4		0.00		6.40		2.898e-02		-52.353		6.227e-03		7.766
4		0.00		6.00		2.786e-02		-52.997		6.674e-03		12.181
4		0.00		5.60		2.785e-02		-52.369		6.926e-03		11.381
4		0.00		5.20		2.720e-02		-51.984		7.427e-03		12.204
4		0.00		4.80		2.672e-02		-53.037		7.487e-03		12.969
4		0.00		4.40		2.735e-02		-52.741		6.703e-03		9.145
4		0.00		4.00		2.708e-02		-53.138		5.472e-03		8.360
4		0.00		3.60		2.723e-02		-52.561		5.170e-03		8.083
4		0.00		3.20		2.726e-02		-51.759		4.470e-03		7.811
4		0.00		2.80		2.656e-02		-52.363		4.387e-03		8.422
4		0.00		2.40		2.651e-02		-51.400		4.536e-03		7.774
4		0.00		2.00		2.664e-02		-50.709		4.760e-03		8.186
4		0.00		1.60		2.629e-02		-50.667		5.428e-03		9.943
4		0.00		1.20		2.648e-02		-51.458		5.743e-03		10.557
4		0.00		0.80		2.607e-02		-50.448		5.981e-03		11.273
4		0.00		0.40		2.632e-02		-50.827		6.619e-03		9.531
4		0.00		0.00		2.629e-02		-52.328		5.797e-03		8.209
4		0.00		-0.40		2.620e-02		-52.058		5.197e-03		7.295
4		0.00		-0.80		2.648e-02		-51.188		4.554e-03		6.588
4		0.00		-1.20		2.606e-02		-51.993		4.617e-03		6.924
4		0.00		-1.60		2.554e-02		-50.716		4.300e-03		8.199
4		0.00		-2.00		2.536e-02		-50.989		4.656e-03		8.247
4		0.00		-2.40		2.465e-02		-51.165		4.973e-03		9.489
4		0.00		-2.80		2.305e-02		-50.008		5.341e-03		11.032
4		0.00		-3.20		2.180e-02		-50.834		5.348e-03		11.428
4		0.00		-3.60		2.060e-02		-49.863		5.132e-03		10.384
4		0.00		-4.00		1.959e-02		-53.720		4.331e-03		8.724
4		0.00		-4.40		1.833e-02		-52.558		3.489e-03		8.292
4		0.00		-4.80		1.579e-02		-51.190		2.855e-03		8.653
4		0.00		-5.20		1.344e-02		-52.831		2.268e-03		10.373
4		0.00		-5.60		1.050e-02		-52.463		2.053e-03		13.892
4		0.00		-6.00		7.038e-03		-42.905		1.495e-03		16.132
4		0.00		-6.40		2.813e-03		-53.712		1.160e-03		39.441
4		0.00		-6.80		2.455e-03		70.990		1.043e-03		75.586
4		0.00		-7.20		5.127e-03		117.374		1.559e-03		28.207
4		0.00		-7.60		7.504e-03		121.339		2.127e-03		22.534
4		0.00		-8.00		9.070e-03		121.561		2.583e-03		19.043
4		0.00		-8.40		1.192e-02		125.809		3.367e-03		10.688
4		0.00		-8.80		1.319e-02		125.350		3.456e-03		10.723
4		0.00		-9.20		1.499e-02		126.334		3.737e-03		9.226
4		0.00		-9.60		1.647e-02		125.046		3.693e-03		8.747
4		0.00		-10.00		1.742e-02		125.355		3.500e-03		7.148
4		0.00		-9.60		1.808e-02		125.307		3.753e-03		8.235
4		0.00		-9.20		1.730e-02		126.499		3.528e-03		7.815
4		0.00		-8.80		1.705e-02		126.984		3.814e-03		9.104
4		0.00		-8.40		1.617e-02		127.407		3.880e-03		12.103
4		0.00		-8.00		1.633e-02		124.091		4.199e-03		14.413
4		0.00		-7.60		1.635e-02		125.397		4.053e-03		18.021
4		0.00		-7.20		1.540e-02		127.787		3.745e-03		16.116
4		0.00		-6.80		1.479e-02		128.597		3.544e-03		11.988
4		0.00		-6.40		1.456e-02		128.349		3.070e-03		8.662
4		0.00		-6.00		1.400e-02		128.989		3.075e-03		8.943
4		0.00		-5.60		1.337e-02		126.510		2.568e-03		8.133
4		0.00		-5.20		1.294e-02		128.273		2.307e-03		8.371
4		0.00		-4.80		1.218e-02		126.313		2.297e-03		10.773
4		0.00		-4.40		1.121e-02		127.720		2.226e-03		8.027
4		0.00		-4.00		1.129e-02		130.146		2.210e-03		9.098
4		0.00		-3.60		1.037e-02		126.779		2.365e-03		11.433
4		0.00		-3.20		9.335e-03		126.539		2.267e-03		16.362
4		0.00		-2.80		9.137e-03		125.737		2.435e-03		19.891
4		0.00		-2.40		8.842e-03		127.248		2.675e-03		16.681
4		0.00		-2.00		8.913e-03		125.856		2.579e-03		15.970
4		0.00		-1.60		8.397e-03		126.483		2.415e-03		15.608
4		0.00		-1.20		8.255e-03		127.980		2.253e-03		12.793
4		0.00		-0.80		7.662e-03		128.252		2.176e-03		11.498
4		0.00		-0.40		7.818e-03		125.964		1.670e-03		12.126
5		0.00		0.00		7.216e-03		124.716		1.714e-03		13.658
5		0.00		0.40		6.789e-03		123.482		1.657e-03		12.309
5		0.00		0.80		6.908e-03		126.111		1.607e-03		15.576
5		0.00		1.20		6.229e-03		132.403		1.733e-03		13.444
5		0.00		1.60		6.352e-03		127.592		1.781e-03		28.232
5		0.00		2.00		5.443e-03		131.035		1.860e-03		29.264
5		0.00		2.40		4.894e-03		121.012		1.639e-03		25.584
5		0.00		2.80		3.546e-03		117.334		1.293e-03		46.160
5		0.00		3.20		2.909e-03		96.953		1.122e-03		59.149
5		0.00		3.60		2.431e-03		70.546		1.111e-03		68.534
5		0.00		4.00		1.876e-03		19.096		8.504e-04		81.199
5		0.00		4.40		1.634e-03		-3.038		6.510e-04		87.719
5		0.00		4.80		2.144e-03		-64.303		8.804e-04		56.437
5		0.00		5.20		2.832e-03		-72.622		1.123e-03		29.568
5		0.00		5.60		3.733e-03		-61.625		1.238e-03		23.744
5		0.00		6.00		4.889e-03		-52.237		1.591e-03		24.405
5		0.00		6.40		5.811e-03		-50.448		1.688e-03		17.711
5		0.00		6.80		7.103e-03		-53.728		1.751e-03		15.834
5		0.00		7.20		9.394e-03		-55.512		2.132e-03		13.018
5		0.00		7.60		1.121e-02		-56.917		2.042e-03		11.955
5		0.00		8.00		1.402e-02		-53.561		2.805e-03		12.065
5		0.00		8.40		1.521e-02		-50.899		2.885e-03		10.693
5		0.00		8.80		1.787e-02		-50.506		3.565e-03		10.748
5		0.00		9.20		2.074e-02		-51.181		4.605e-03		10.152
5		0.00		9.60		2.387e-02		-50.067		5.197e-03		9.057
5		0.00		10.00		2.573e-02		-52.080		5.224e-03		8.322
5		0.00		9.60		2.842e-02		-52.458		4.865e-03		7.008
5		0.00		9.20		2.933e-02		-51.706		4.571e-03		7.273
5		0.00		8.80		2.937e-02		-51.373		4.401e-03		6.832
5		0.00		8.40		2.907e-02		-49.997		4.666e-03		7.593
5		0.00		8.00		2.899e-02		-49.921		5.276e-03		8.290
5		0.00		7.60		2.866e-02		-50.640		5.950e-03		10.763
5		0.00		7.20		2.813e-02		-51.262		6.615e-03		9.360
5		0.00		6.80		2.791e-02		-52.518		6.105e-03		9.884
5		0.00		6.40		2.787e-02		-52.164		5.455e-03		7.391
5		0.00		6.00		2.834e-02		-51.760		4.315e-03		6.466
5		0.00		5.60		2.793e-02		-52.296		4.184e-03		7.170
5		0.00		5.20		2.732e-02		-51.849		3.736e-03		8.022
5		0.00		4.80		2.646e-02		-49.836		4.127e-03		6.794
5		0.00		4.40		2.596e-02		-50.796		4.757e-03		8.680
5		0.00		4.00		2.538e-02		-50.308		5.408e-03		9.278
5		0.00		3.60		2.566e-02		-50.723		5.580e-03		10.059
5		0.00		3.20		2.504e-02		-51.829		5.386e-03		9.571
5		0.00		2.80		2.557e-02		-51.062		4.847e-03		8.011
5		0.00		2.40		2.577e-02		-50.964		4.141e-03		6.964
5		0.00		2.00		2.614e-02		-52.943		3.686e-03		6.731
5		0.00		1.60		2.621e-02		-50.543		3.549e-03		6.989
5		0.00		1.20		2.629e-02		-49.177		3.928e-03		7.646
5		0.00		0.80		2.533e-02		-49.655		3.974e-03		8.660
5		0.00		0.40		2.508e-02		-47.948		5.151e-03		9.355
5		0.00		0.00		2.493e-02		-48.377		5.080e-03		10.315
5		0.00		-0.40		2.467e-02		-51.608		5.244e-03		8.745
5		0.00		-0.80		2.435e-02		-50.930		5.481e-03		6.938
5		0.00		-1.20		2.409e-02		-52.087		4.612e-03		7.633
5		0.00		-1.60		2.427e-02		-50.985		4.088e-03		7.837
5		0.00		-2.00		2.387e-02		-51.023		4.226e-03		8.537
5		0.00		-2.40		2.305e-02		-51.445		3.939e-03		8.385
5		0.00		-2.80		2.242e-02		-49.762		4.337e-03		9.140
5		0.00		-3.20		2.053e-02		-51.621		4.796e-03		10.886
5		0.00		-3.60		1.938e-02		-52.075		4.803e-03		14.525
5		0.00		-4.00		1.858e-02		-50.453		4.617e-03		10.303
5		0.00		-4.40		1.724e-02		-49.313		3.804e-03		9.883
5		0.00		-4.80		1.462e-02		-52.095		2.804e-03		10.047
5		0.00		-5.20		1.222e-02		-52.188		1.928e-03		11.408
5		0.00		-5.60		8.769e-03		-50.171		1.714e-03		11.569
5		0.00		-6.00		5.678e-03		-57.234		1.540e-03		18.947
5		0.00		-6.40		2.676e-03		-68.857		9.999e-04		42.008
5		0.00		-6.80		1.810e-03		-0.918		7.884e-04		79.739
5		0.00		-7.20		5.141e-03		121.729		1.944e-03		27.814
5		0.00		-7.60		6.582e-03		123.469		2.068e-03		23.982
5		0.00		-8.00		8.683e-03		121.684		2.420e-03		11.850
5		0.00		-8.40		1.206e-02		125.536		2.633e-03		7.853
5		0.00		-8.80		1.379e-02		129.274		2.683e-03		8.510
5		0.00		-9.20		1.547e-02		125.963		2.856e-03		8.534
5		0.00		-9.60		1.695e-02		127.561		2.950e-03		8.099
5		0.00		-10.00		1.812e-02		129.012		3.642e-03		7.342
5		0.00		-9.60		1.772e-02		126.920		3.996e-03		9.944
5		0.00		-9.20		1.777e-02		125.789		4.624e-03		13.600
5		0.00		-8.80		1.747e-02		125.741		4.415e-03		11.380
5		0.00		-8.40		1.710e-02		125.886		3.792e-03		7.106
5		0.00		-8.00		1.728e-02		127.397		3.306e-03		8.233
5		0.00		-7.60		1.672e-02		126.128		2.947e-03		8.219
5		0.00		-7.20		1.636e-02		129.430		2.920e-03		7.754
5		0.00		-6.80		1.533e-02		127.949		3.220e-03		11.871
5		0.00		-6.40		1.476e-02		124.650		3.453e-03		15.684
5		0.00		-6.00		1.449e-02		128.603		3.374e-03		12.987
5		0.00		-5.60		1.383e-02		127.651		2.979e-03		9.914
5		0.00		-5.20		1.309e-02		128.289		2.545e-03		9.091
5		0.00		-4.80		1.235e-02		125.817		2.102e-03		9.398
5		0.00		-4.40		1.239e-02		127.249		2.234e-03		7.755
5		0.00		-4.00		1.121e-02		130.931		2.438e-03		10.042
5		0.00		-3.60		1.103e-02		129.812		2.753e-03		16.232
5		0.00		-3.20		1.051e-02		125.172		2.634e-03		11.888
5		0.00		-2.80		9.632e-03		130.259		2.435e-03		11.016
5		0.00		-2.40		9.674e-03		125.751		2.180e-03		9.698
5		0.00		-2.00		9.205e-03		126.071		1.994e-03		12.591
5		0.00		-1.60		8.500e-03		127.936		2.256e-03		11.054
5		0.00		-1.20		8.285e-03		127.156		2.270e-03		17.899
5		0.00		-0.80		8.041e-03		126.131		2.422e-03		20.478
5		0.00		-0.40		7.665e-03		124.545		2.167e-03		15.726
6		0.00		0.00		7.530e-03		125.424		2.018e-03		11.354
6		0.00		0.40		6.950e-03		126.413		1.637e-03		20.638
6		0.00		0.80		7.102e-03		125.485		1.776e-03		12.272
6		0.00		1.20		6.520e-03		128.928		1.944e-03		15.923
6		0.00		1.60		6.121e-03		124.326		1.643e-03		19.886
6		0.00		2.00		5.519e-03		127.357		1.561e-03		20.473
6		0.00		2.40		4.967e-03		127.343		1.343e-03		21.531
6		0.00		2.80		4.388e-03		123.200		1.364e-03		24.118
6		0.00		3.20		3.296e-03		112.656		1.146e-03		47.640
6		0.00		3.60		2.923e-03		92.555		1.146e-03		66.148
6		0.00		4.00		1.742e-03		23.015		6.720e-04		89.026
6		0.00		4.40		1.770e-03		-8.458		7.572e-04		79.180
6		0.00		4.80		1.957e-03		-44.319		7.880e-04		60.313
6		0.00		5.20		2.460e-03		-57.373		1.019e-03		38.001
6		0.00		5.60		3.426e-03		-60.141		1.282e-03		29.048
6		0.00		6.00		4.590e-03		-57.785		1.088e-03		20.758
6		0.00		6.40		6.347e-03		-59.407		1.407e-03		14.531
6		0.00		6.80		7.585e-03		-52.846		1.766e-03		16.214
6		0.00		7.20		9.396e-03		-51.562		2.197e-03		13.699
6		0.00		7.60		1.174e-02		-50.718		2.761e-03		11.496
6		0.00		8.00		1.270e-02		-50.294		2.819e-03		11.632
6		0.00		8.40		1.515e-02		-51.898		3.014e-03		9.176
6		0.00		8.80		1.712e-02		-52.111		3.157e-03		9.229
6		0.00		9.20		2.221e-02		-52.203		3.469e-03		7.445
6		0.00		9.60		2.390e-02		-51.943		4.305e-03		9.280
6		0.00		10.00		2.532e-02		-51.451		5.112e-03		9.405
6		0.00		9.60		2.672e-02		-49.472		5.958e-03		11.559
6		0.00		9.20		2.815e-02		-50.425		6.213e-03		9.308
6		0.00		8.80		2.864e-02		-52.479		5.472e-03		7.318
6		0.00		8.40		2.911e-02		-52.044		4.477e-03		6.712
6		0.00		8.00		2.900e-02		-50.968		4.218e-03		7.030
6		0.00		7.60		2.840e-02		-51.175		4.396e-03		6.879
6		0.00		7.20		2.718e-02		-50.430		5.478e-03		9.403
6		0.00		6.80		2.750e-02		-50.518		6.038e-03		10.453
6		0.00		6.40		2.703e-02		-50.653		6.155e-03		9.254
6		0.00		6.00		2.677e-02		-52.454		5.408e-03		6.482
6		0.00		5.60		2.720e-02		-52.439		4.732e-03		6.834
6		0.00		5.20		2.672e-02		-49.757		4.716e-03		6.967
6		0.00		4.80		2.572e-02		-51.543		5.023e-03		9.022
6		0.00		4.40		2.508e-02		-50.320		5.729e-03		11.855
6		0.00		4.00		2.498e-02		-50.293		6.222e-03		9.941
6		0.00		3.60		2.481e-02		-50.154		5.977e-03		8.007
6		0.00		3.20		2.478e-02		-52.157		4.872e-03		6.816
6		0.00		2.80		2.507e-02		-50.270		4.434e-03		6.788
6		0.00		2.40		2.416e-02		-51.245		4.382e-03		8.776
6		0.00		2.00		2.419e-02		-50.140		5.327e-03		9.486
6		0.00		1.60		2.419e-02		-50.543		5.768e-03		11.166
6		0.00		1.20		2.404e-02		-50.909		5.333e-03		9.883
6		0.00		0.80		2.446e-02		-50.368		4.846e-03		8.060
6		0.00		0.40		2.490e-02		-49.746		3.835e-03		8.019
6		0.00		0.00		2.507e-02		-51.582		3.740e-03		7.391
6		0.00		-0.40		2.461e-02		-49.154		4.065e-03		8.099
6		0.00		-0.80		2.413e-02		-51.345		4.676e-03		10.128
6		0.00		-1.20		2.351e-02		-51.001		5.143e-03		10.242
6		0.00		-1.60		2.348e-02		-51.352		5.209e-03		8.891
6		0.00		-2.00		2.358e-02		-51.466		4.350e-03		7.234
6		0.00		-2.40		2.311e-02		-52.249		3.932e-03		8.162
6		0.00		-2.80		2.208e-02		-50.281		3.522e-03		8.642
6		0.00		-3.20		2.070e-02		-49.398		3.822e-03		10.268
6		0.00		-3.60		1.918e-02		-48.778		4.139e-03		11.294
6		0.00		-4.00		1.657e-02		-53.817		3.962e-03		11.664
6		0.00		-4.40		1.482e-02		-51.518		3.432e-03		11.860
6		0.00		-4.80		1.277e-02		-52.823		2.326e-03		12.037
6		0.00		-5.20		1.000e-02		-50.989		1.913e-03		12.534
6		0.00		-5.60		7.691e-03		-52.773		1.538e-03		12.780
6		0.00		-6.00		4.756e-03		-47.698		1.431e-03		19.768
6		0.00		-6.40		2.153e-03		-39.584		9.010e-04		61.153
6		0.00		-6.80		2.109e-03		63.186		9.153e-04		69.042
6		0.00		-7.20		3.786e-03		110.072		1.543e-03		34.296
6		0.00		-7.60		7.444e-03		125.800		1.995e-03		14.392
6		0.00		-8.00		9.768e-03		123.336		2.091e-03		11.520
6		0.00		-8.40		1.164e-02		127.058		2.368e-03		11.053
6		0.00		-8.80		1.310e-02		126.543		2.974e-03		11.412
6		0.00		-9.20		1.495e-02		129.272		3.530e-03		13.719
6		0.00		-9.60		1.637e-02		125.926		3.891e-03		14.399
6		0.00		-10.00		1.710e-02		128.346		3.818e-03		8.533
6		0.00		-9.60		1.811e-02		126.749		3.320e-03		8.074
6		0.00		-9.20		1.836e-02		125.145		3.290e-03		8.007
6		0.00		-8.80		1.772e-02		129.165		3.185e-03		9.061
6		0.00		-8.40		1.710e-02		128.062		3.699e-03		8.386
6		0.00		-8.00		1.620e-02		124.816		3.970e-03		14.223
6		0.00		-7.60		1.586e-02		123.433		4.525e-03		17.379
6		0.00		-7.20		1.525e-02		126.192		4.190e-03		9.807
6		0.00		-6.80		1.455e-02		125.212		3.362e-03		9.837
6		0.00		-6.40		1.394e-02		125.185		2.953e-03		10.451
6		0.00		-6.00		1.364e-02		127.151		2.601e-03		9.084
6		0.00		-5.60		1.256e-02		126.753		2.808e-03		11.701
6		0.00		-5.20		1.190e-02		127.213		2.812e-03		12.279
6		0.00		-4.80		1.099e-02		126.390		3.138e-03		17.647
6		0.00		-4.40		1.066e-02		127.757		2.808e-03		15.091
6		0.00		-4.00		1.024e-02		123.289		2.367e-03		12.068
6		0.00		-3.60		1.016e-02		127.829		2.359e-03		9.277
6		0.00		-3.20		9.739e-03		125.626		2.020e-03		11.301
6		0.00		-2.80		9.444e-03		128.100		2.180e-03		12.677
6		0.00		-2.40		8.913e-03		127.858		2.081e-03		11.781
6		0.00		-2.00		8.273e-03		131.478		1.931e-03		16.710
6		0.00		-1.60		7.921e-03		124.986		2.169e-03		26.325
6		0.00		-1.20		7.672e-03		122.782		2.101e-03		20.412
6		0.00		-0.80		7.174e-03		126.052		1.775e-03		13.413
6		0.00		-0.40		7.293e-03		127.852		1.700e-03		12.606
7		0.00		0.00		6.747e-03		125.315		1.698e-03		11.779
7		0.00		0.40		6.894e-03		125.624		1.602e-03		13.412
7		0.00		0.80		6.319e-03		126.594		1.656e-03		14.243
7		0.00		1.20		6.069e-03		124.818		1.607e-03		21.052
7		0.00		1.60		5.727e-03		120.712		1.698e-03		21.731
7		0.00		2.00		4.764e-03		121.705		1.733e-03		32.919
7		0.00		2.40		4.707e-03		118.458		1.570e-03		24.409
7		0.00		2.80		3.807e-03		108.030		1.573e-03		42.820
7		0.00		3.20		3.332e-03		103.387		1.360e-03		54.342
7		0.00		3.60		2.258e-03		72.036		9.275e-04		74.830
7		0.00		4.00		1.913e-03		28.182		7.655e-04		86.570
7		0.00		4.40		1.688e-03		-29.308		6.459e-04		72.664
7		0.00		4.80		2.068e-03		-71.672		9.072e-04		48.853
7		0.00		5.20		2.601e-03		-67.370		8.187e-04		40.777
7		0.00		5.60		3.301e-03		-64.366		1.249e-03		34.229
7		0.00		6.00		4.304e-03		-52.492		1.452e-03		21.532
7		0.00		6.40		5.713e-03		-50.565		1.515e-03		16.928
7		0.00		6.80		7.410e-03		-53.708		1.530e-03		11.038
7		0.00		7.20		8.780e-03		-55.672		1.591e-03		13.741
7		0.00		7.60		1.029e-02		-54.363		1.812e-03		9.177
7		0.00		8.00		1.162e-02		-51.677		2.426e-03		12.250
7		0.00		8.40		1.346e-02		-50.866		3.688e-03		12.180
7		0.00		8.80		1.548e-02		-52.303		4.270e-03		11.586
7		0.00		9.20		1.831e-02		-54.097		4.924e-03		11.210
7		0.00		9.60		2.060e-02		-50.822		4.896e-03		8.636
7		0.00		10.00		2.410e-02		-52.456		4.952e-03		7.943
7		0.00		9.60		2.625e-02		-52.448		5.098e-03		7.171
7		0.00		9.20		2.650e-02		-52.333		5.275e-03		7.471
7		0.00		8.80		2.613e-02		-50.746		5.888e-03		9.746
7		0.00		8.40		2.585e-02		-49.798		6.109e-03		10.833
7		0.00		8.00		2.588e-02		-51.709		6.270e-03		10.678
7		0.00		7.60		2.632e-02		-51.908		5.873e-03		12.126
7		0.00		7.20		2.612e-02		-52.835		5.801e-03		8.290
7		0.00		6.80		2.660e-02		-50.248		4.808e-03		6.990
7		0.00		6.40		2.586e-02		-52.391		4.059e-03		7.312
7		0.00		6.00		2.598e-02		-49.702		4.050e-03		7.720
7		0.00		5.60		2.526e-02		-50.140		4.398e-03		8.805
7		0.00		5.20		2.486e-02		-50.527		4.789e-03		7.999
7		0.00		4.80		2.422e-02		-49.364		5.269e-03		10.502
7		0.00		4.40		2.371e-02		-51.516		5.549e-03		10.634
7		0.00		4.00		2.383e-02		-52.782		5.755e-03		8.565
7		0.00		3.60		2.384e-02		-50.933		5.008e-03		7.522
7		0.00		3.20		2.411e-02		-51.568		4.114e-03		7.315
7		0.00		2.80		2.418e-02		-50.553		4.008e-03		7.637
7		0.00		2.40		2.387e-02		-52.472		4.191e-03		8.018
7		0.00		2.00		2.341e-02		-50.816		4.493e-03		8.498
7		0.00		1.60		2.327e-02		-50.400		5.302e-03		9.572
7		0.00		1.20		2.284e-02		-50.792		5.702e-03		10.438
7		0.00		0.80		2.236e-02		-51.960		5.812e-03		11.849
7		0.00		0.40		2.283e-02		-52.336		5.571e-03		10.357
7		0.00		0.00		2.300e-02		-51.557		4.551e-03		6.742
7		0.00		-0.40		2.336e-02		-51.908		3.905e-03		7.636
7		0.00		-0.80		2.373e-02		-51.134		3.721e-03		6.973
7		0.00		-1.20		2.330e-02		-49.416		3.864e-03		8.851
7		0.00		-1.60		2.275e-02		-48.506		4.148e-03		9.942
7		0.00		-2.00		2.232e-02		-48.498		4.716e-03		8.668
7		0.00		-2.40		2.155e-02		-49.210		4.961e-03		10.656
7		0.00		-2.80		2.086e-02		-49.988		4.956e-03		10.563
7		0.00		-3.20		2.008e-02		-51.685		4.305e-03		8.230
7		0.00		-3.60		1.974e-02		-51.362		3.680e-03		7.004
7		0.00		-4.00		1.795e-02		-52.863		2.975e-03		8.310
7		0.00		-4.40		1.522e-02		-52.895		2.780e-03		8.891
7		0.00		-4.80		1.232e-02		-49.138		2.436e-03		10.769
7		0.00		-5.20		9.586e-03		-45.181		2.155e-03		14.911
7		0.00		-5.60		6.330e-03		-48.424		1.753e-03		16.583
7		0.00		-6.00		3.832e-03		-58.873		1.288e-03		26.504
7		0.00		-6.40		1.786e-03		-11.797		6.620e-04		76.047
7		0.00		-6.80		3.730e-03		100.048		1.555e-03		54.171
7		0.00		-7.20		5.673e-03		129.057		1.959e-03		15.844
7		0.00		-7.60		8.670e-03		125.901		2.228e-03		10.794
7		0.00		-8.00		1.092e-02		126.140		2.620e-03		9.575
7		0.00		-8.40		1.230e-02		128.095		2.598e-03		10.597
7		0.00		-8.80		1.452e-02		128.465		3.027e-03		8.804
7		0.00		-9.20		1.461e-02		125.300		3.179e-03		13.034
7		0.00		-9.60		1.665e-02		127.668		4.008e-03		10.980
7		0.00		-10.00		1.736e-02		124.960		4.355e-03		14.809
7		0.00		-9.60		1.827e-02		127.957		4.448e-03		8.818
7		0.00		-9.20		1.785e-02		125.603		3.765e-03		8.813
7		0.00		-8.80		1.772e-02		127.312		3.432e-03		8.065
7		0.00		-8.40		1.780e-02		128.581		3.090e-03		8.316
7		0.00		-8.00		1.722e-02		127.501		2.982e-03		7.977
7		0.00		-7.60		1.686e-02		128.611		3.163e-03		8.070
7		0.00		-7.20		1.550e-02		128.513		3.669e-03		11.330
7		0.00		-6.80		1.466e-02		123.967		3.624e-03		14.923
7		0.00		-6.40		1.420e-02		125.364		3.881e-03		14.225
7		0.00		-6.00		1.367e-02		125.071		3.350e-03		10.772
7		0.00		-5.60		1.343e-02		125.871		2.929e-03		8.679
7		0.00		-5.20		1.273e-02		129.890		2.409e-03		8.354
7		0.00		-4.80		1.202e-02		130.240		2.507e-03		10.001
7		0.00		-4.40		1.196e-02		128.990		2.609e-03		8.480
7		0.00		-4.00		1.103e-02		130.056		2.508e-03		12.082
7		0.00		-3.60		1.017e-02		123.448		2.705e-03		15.840
7		0.00		-3.20		9.598e-03		126.760		2.620e-03		19.412
7		0.00		-2.80		9.451e-03		128.394		2.405e-03		12.449
7		0.00		-2.40		9.344e-03		127.248		2.051e-03		11.192
7		0.00		-2.00		9.345e-03		128.497		1.821e-03		9.950
7		0.00		-1.60		9.257e-03		125.586		1.678e-03		9.916
7		0.00		-1.20		8.555e-03		126.415		1.754e-03		11.759
7		0.00		-0.80		8.275e-03		131.011		2.179e-03		13.293
7		0.00		-0.40		7.635e-03		125.670		1.965e-03		20.375
8		0.00		0.00		7.385e-03		123.902		1.954e-03		16.151
8		0.00		0.40		7.184e-03		122.496		1.896e-03		17.161
8		0.00		0.80		7.004e-03		124.840		1.759e-03		11.042
8		0.00		1.20		6.712e-03		129.147		1.548e-03		13.079
8		0.00		1.60		6.053e-03		128.660		1.580e-03		22.034
8		0.00		2.00		5.838e-03		127.312		1.733e-03		16.338
8		0.00		2.40		5.240e-03		121.812		1.833e-03		31.717
8		0.00		2.80		4.146e-03		118.971		1.488e-03		27.728
8		0.00		3.20		3.687e-03		114.603		1.317e-03		59.828
8		0.00		3.60		2.714e-03		99.562		1.116e-03		56.275
8		0.00		4.00		2.186e-03		63.533		9.421e-04		88.634
8		0.00		4.40		1.768e-03		36.266		7.377e-04		80.718
8		0.00		4.80		1.837e-03		-39.042		8.726e-04		69.223
8		0.00		5.20		2.013e-03		-46.355		7.908e-04		65.893
8		0.00		5.60		2.873e-03		-73.441		1.190e-03		39.936
8		0.00		6.00		4.212e-03		-57.250		1.305e-03		23.929
8		0.00		6.40		6.406e-03		-54.118		1.515e-03		17.856
8		0.00		6.80		8.701e-03		-53.844		1.707e-03		15.912
8		0.00		7.20		9.393e-03		-48.487		1.878e-03		13.528
8		0.00		7.60		1.004e-02		-52.471		2.063e-03		11.458
8		0.00		8.00		1.176e-02		-48.878		2.836e-03		11.424
8		0.00		8.40		1.396e-02		-52.207		3.071e-03		10.182
8		0.00		8.80		1.586e-02		-49.530		2.804e-03		7.869
8		0.00		9.20		1.906e-02		-51.675		3.021e-03		7.491
8		0.00		9.60		2.152e-02		-49.744		3.566e-03		8.749
8		0.00		10.00		2.255e-02		-46.952		4.228e-03		8.612
8		0.00		9.60		2.354e-02		-48.848		5.143e-03		10.332
8		0.00		9.20		2.483e-02		-53.288		5.874e-03		9.859
8		0.00		8.80		2.540e-02		-51.930		5.264e-03		8.182
8		0.00		8.40		2.525e-02		-51.780		4.369e-03		7.506
8		0.00		8.00		2.578e-02		-50.821		4.120e-03		7.863
8		0.00		7.60		2.524e-02		-51.331		4.290e-03		8.000
8		0.00		7.20		2.410e-02		-49.016		5.212e-03		8.745
8		0.00		6.80		2.377e-02		-50.520		6.131e-03		10.667
8		0.00		6.40		2.331e-02		-50.814		5.360e-03		8.666
8		0.00		6.00		2.416e-02		-53.064		4.540e-03		7.828
8		0.00		5.60		2.457e-02		-52.603		3.326e-03		7.927
8		0.00		5.20		2.411e-02		-50.578		3.710e-03		7.217
8		0.00		4.80		2.366e-02		-47.810		4.193e-03		8.813
8		0.00		4.40		2.305e-02		-49.069		4.708e-03		9.736
8		0.00		4.00		2.245e-02		-51.592		5.043e-03		7.975
8		0.00		3.60		2.280e-02		-51.199		5.089e-03		8.423
8		0.00		3.20		2.295e-02		-50.888		4.068e-03		6.974
8		0.00		2.80		2.247e-02		-52.194		3.363e-03		7.952
8		0.00		2.40		2.255e-02		-50.633		3.226e-03		6.943
8		0.00		2.00		2.220e-02		-48.300		4.190e-03		7.514
8		0.00		1.60		2.192e-02		-50.009		4.679e-03		8.472
8		0.00		1.20		2.151e-02		-49.004		5.192e-03		9.329
8		0.00		0.80		2.136e-02		-49.942		5.118e-03		10.451
8		0.00		0.40		2.208e-02		-52.853		4.420e-03		8.512
8		0.00		0.00		2.262e-02		-51.368		4.007e-03		6.850
8		0.00		-0.40		2.237e-02		-51.846		3.644e-03		7.905
8		0.00		-0.80		2.242e-02		-49.712		3.584e-03		7.058
8		0.00		-1.20		2.186e-02		-49.198		3.722e-03		8.859
8		0.00		-1.60		2.123e-02		-51.000		4.238e-03		11.009
8		0.00		-2.00		2.119e-02		-49.048		4.553e-03		11.493
8		0.00		-2.40		2.097e-02		-49.813		4.464e-03		10.220
8		0.00		-2.80		2.049e-02		-50.640		4.015e-03		8.687
8		0.00		-3.20		2.016e-02		-50.287		3.639e-03		8.820
8		0.00		-3.60		1.962e-02		-52.604		2.859e-03		7.734
8		0.00		-4.00		1.842e-02		-49.858		2.482e-03		9.206
8		0.00		-4.40		1.673e-02		-50.557		2.836e-03		9.577
8		0.00		-4.80		1.463e-02		-47.981		2.441e-03		11.085
8		0.00		-5.20		1.188e-02		-50.230		2.397e-03		12.466
8		0.00		-5.60		9.210e-03		-47.619		2.331e-03		13.076
8		0.00		-6.00		6.140e-03		-51.230		1.715e-03		17.393
8		0.00		-6.40		3.565e-03		-34.834		1.278e-03		30.189
8		0.00		-6.80		1.793e-03		10.653		8.167e-04		81.141
8		0.00		-7.20		3.317e-03		100.553		1.413e-03		41.668
8		0.00		-7.60		6.566e-03		126.216		1.426e-03		11.305
8		0.00		-8.00		9.221e-03		125.886		1.867e-03		11.735
8		0.00		-8.40		1.120e-02		127.169		2.183e-03		8.867
8		0.00		-8.80		1.279e-02		129.069		2.756e-03		9.383
8		0.00		-9.20		1.456e-02		129.300		3.143e-03		12.137
8		0.00		-9.60		1.573e-02		125.790		3.818e-03		13.847
8		0.00		-10.00		1.663e-02		124.627		4.117e-03		14.133
8		0.00		-9.60		1.659e-02		126.971		4.062e-03		11.086
8		0.00		-9.20		1.743e-02		126.570		3.675e-03		7.440
8		0.00		-8.80		1.771e-02		125.571		3.269e-03		6.901
8		0.00		-8.40		1.746e-02		127.116		2.929e-03		7.395
8		0.00		-8.00		1.783e-02		128.494		2.729e-03		7.035
8		0.00		-7.60		1.669e-02		127.441		2.819e-03		8.773
8		0.00		-7.20		1.576e-02		127.930		2.607e-03		8.877
8		0.00		-6.80		1.553e-02		129.707		2.904e-03		7.955
8		0.00		-6.40		1.404e-02		129.297		2.788e-03		9.001
8		0.00		-6.00		1.376e-02		127.990		3.198e-03		13.099
8		0.00		-5.60		1.314e-02		127.466		3.583e-03		16.856
8		0.00		-5.20		1.249e-02		124.565		3.349e-03		16.908
8		0.00		-4.80		1.213e-02		128.126		3.174e-03		11.666
8		0.00		-4.40		1.163e-02		126.272		2.783e-03		9.927
8		0.00		-4.00		1.104e-02		126.837		2.680e-03		8.811
8		0.00		-3.60		1.054e-02		123.842		2.303e-03		9.372
8		0.00		-3.20		1.025e-02		129.756		2.193e-03		9.997
8		0.00		-2.80		9.856e-03		128.369		1.941e-03		9.385
8		0.00		-2.40		9.535e-03		130.041		2.283e-03		12.487
8		0.00		-2.00		9.451e-03		129.508		2.184e-03		15.485
8		0.00		-1.60		9.052e-03		128.024		2.374e-03		16.101
8		0.00		-1.20		8.603e-03		124.659		2.216e-03		21.339
8		0.00		-0.80		8.267e-03		124.186		2.154e-03		18.832
8		0.00		-0.40		8.256e-03		126.661		2.298e-03		17.752
