# Date of analysis: 2024-03-08 10;59
# Segment other properties: height: -62.70817328925112, diff height: 526.2969392011361, deflection: 33.02402997494319, deflection error: 2.9053359419759355, adhesion: 36.2558264319752, phase offset: 0
# 
# Loop index	Read Volt (V)	Write Volt (V)	Amplitude (a.u)	Phase (deg)	Sigma Amp (a.u)	Sigma Pha (deg)	
1		0.00		0.00		1.743e-03		-43.983		7.177e-04		87.086
1		0.00		0.40		1.577e-03		-38.184		7.687e-04		86.068
1		0.00		0.80		1.655e-03		-50.629		8.088e-04		88.476
1		0.00		1.20		1.931e-03		-80.375		8.485e-04		65.242
1		0.00		1.60		5.304e-03		-49.603		1.389e-03		19.125
1		0.00		2.00		5.325e-03		-45.576		1.327e-03		20.495
1		0.00		2.40		5.021e-03		-47.681		1.522e-03		20.800
1		0.00		2.80		5.602e-03		-49.998		1.606e-03		18.812
1		0.00		3.20		5.534e-03		-52.470		1.541e-03		18.000
1		0.00		3.60		6.387e-03		-50.925		1.774e-03		16.085
1		0.00		4.00		6.577e-03		-49.176		1.874e-03		15.685
1		0.00		4.40		7.132e-03		-39.603		1.995e-03		16.075
1		0.00		4.80		8.055e-03		-43.467		2.023e-03		16.824
1		0.00		5.20		8.952e-03		-46.639		2.593e-03		14.905
1		0.00		5.60		9.648e-03		-53.507		2.534e-03		15.414
1		0.00		6.00		1.071e-02		-49.404		2.756e-03		13.458
1		0.00		6.40		1.126e-02		-49.495		3.056e-03		10.765
1		0.00		6.80		1.236e-02		-49.188		3.162e-03		12.943
1		0.00		7.20		1.279e-02		-49.647		2.922e-03		12.946
1		0.00		7.60		1.413e-02		-53.436		3.448e-03		11.658
1		0.00		8.00		1.491e-02		-53.001		3.264e-03		10.423
1		0.00		8.40		1.636e-02		-52.534		3.466e-03		9.891
1		0.00		8.80		1.742e-02		-52.945		3.761e-03		11.143
1		0.00		9.20		1.832e-02		-51.313		3.679e-03		12.050
1		0.00		9.60		1.997e-02		-51.656		3.912e-03		9.442
1		0.00		10.00		2.096e-02		-53.255		4.015e-03		10.124
1		0.00		9.60		2.218e-02		-51.969		4.552e-03		9.867
1		0.00		9.20		2.247e-02		-52.732		4.705e-03		10.250
1		0.00		8.80		2.215e-02		-51.722		4.505e-03		10.472
1		0.00		8.40		2.240e-02		-51.276		4.736e-03		9.236
1		0.00		8.00		2.233e-02		-50.924		5.145e-03		9.878
1		0.00		7.60		2.205e-02		-51.425		4.995e-03		11.129
1		0.00		7.20		2.212e-02		-51.393		5.054e-03		10.259
1		0.00		6.80		2.184e-02		-51.834		5.345e-03		12.040
1		0.00		6.40		2.157e-02		-52.401		5.453e-03		13.516
1		0.00		6.00		2.105e-02		-52.133		5.947e-03		15.609
1		0.00		5.60		2.117e-02		-53.515		5.741e-03		13.865
1		0.00		5.20		2.038e-02		-51.811		6.193e-03		14.717
1		0.00		4.80		1.987e-02		-51.857		6.022e-03		10.794
1		0.00		4.40		1.997e-02		-52.887		6.043e-03		11.396
1		0.00		4.00		1.994e-02		-50.195		6.096e-03		10.627
1		0.00		3.60		1.925e-02		-53.439		5.484e-03		10.276
1		0.00		3.20		1.944e-02		-52.385		5.366e-03		10.111
1		0.00		2.80		1.918e-02		-51.458		5.269e-03		12.534
1		0.00		2.40		1.930e-02		-52.350		4.489e-03		10.924
1		0.00		2.00		1.933e-02		-51.275		4.266e-03		11.606
1		0.00		1.60		1.934e-02		-51.329		4.029e-03		10.988
1		0.00		1.20		1.912e-02		-52.045		3.948e-03		10.867
1		0.00		0.80		1.875e-02		-52.676		3.846e-03		10.495
1		0.00		0.40		1.877e-02		-52.545		3.828e-03		11.558
1		0.00		0.00		1.882e-02		-50.128		3.922e-03		10.481
1		0.00		-0.40		1.844e-02		-51.349		3.902e-03		10.075
1		0.00		-0.80		1.867e-02		-49.192		3.817e-03		11.579
1		0.00		-1.20		1.847e-02		-51.996		4.121e-03		12.425
1		0.00		-1.60		1.797e-02		-51.141		4.215e-03		10.149
1		0.00		-2.00		1.781e-02		-50.665		4.384e-03		11.093
1		0.00		-2.40		1.720e-02		-49.772		4.265e-03		9.957
1		0.00		-2.80		1.700e-02		-50.754		4.649e-03		12.298
1		0.00		-3.20		1.623e-02		-51.456		4.421e-03		11.530
1		0.00		-3.60		1.637e-02		-51.758		4.590e-03		12.237
1		0.00		-4.00		1.575e-02		-51.101		4.252e-03		12.833
1		0.00		-4.40		1.518e-02		-51.735		4.373e-03		13.283
1		0.00		-4.80		1.450e-02		-51.243		4.189e-03		13.099
1		0.00		-5.20		1.344e-02		-54.656		3.631e-03		12.373
1		0.00		-5.60		1.265e-02		-54.199		3.042e-03		11.113
1		0.00		-6.00		1.134e-02		-48.508		2.791e-03		12.093
1		0.00		-6.40		1.047e-02		-52.215		2.485e-03		13.961
1		0.00		-6.80		9.168e-03		-52.463		1.991e-03		12.983
1		0.00		-7.20		7.626e-03		-48.651		1.829e-03		13.790
1		0.00		-7.60		6.162e-03		-50.326		1.668e-03		16.479
1		0.00		-8.00		3.589e-03		-44.836		1.330e-03		28.838
1		0.00		-8.40		1.810e-03		-6.577		8.339e-04		64.474
1		0.00		-8.80		2.864e-03		95.926		1.104e-03		60.445
1		0.00		-9.20		4.916e-03		119.191		1.535e-03		26.549
1		0.00		-9.60		7.052e-03		117.994		1.982e-03		17.827
1		0.00		-10.00		8.418e-03		120.821		2.443e-03		15.720
1		0.00		-9.60		9.095e-03		118.071		2.637e-03		14.425
1		0.00		-9.20		9.706e-03		118.987		2.762e-03		19.662
1		0.00		-8.80		1.020e-02		123.922		3.077e-03		18.536
1		0.00		-8.40		1.000e-02		119.169		3.079e-03		22.196
1		0.00		-8.00		9.893e-03		117.617		2.969e-03		23.316
1		0.00		-7.60		1.010e-02		117.751		3.305e-03		24.303
1		0.00		-7.20		9.837e-03		119.309		2.998e-03		21.132
1		0.00		-6.80		9.739e-03		120.324		2.802e-03		16.788
1		0.00		-6.40		9.806e-03		122.106		2.885e-03		17.953
1		0.00		-6.00		9.742e-03		120.800		2.612e-03		20.002
1		0.00		-5.60		9.462e-03		121.689		2.493e-03		18.531
1		0.00		-5.20		9.120e-03		123.873		2.402e-03		14.325
1		0.00		-4.80		8.846e-03		120.104		2.433e-03		13.889
1		0.00		-4.40		8.791e-03		121.344		2.509e-03		13.192
1		0.00		-4.00		8.642e-03		119.515		2.616e-03		14.538
1		0.00		-3.60		8.289e-03		121.521		2.402e-03		16.799
1		0.00		-3.20		8.156e-03		125.695		2.328e-03		13.723
1		0.00		-2.80		8.222e-03		120.849		2.174e-03		12.236
1		0.00		-2.40		8.185e-03		124.557		2.323e-03		11.280
1		0.00		-2.00		7.411e-03		123.889		2.035e-03		12.811
1		0.00		-1.60		7.700e-03		119.509		2.036e-03		13.484
1		0.00		-1.20		7.913e-03		121.636		2.042e-03		13.264
1		0.00		-0.80		7.704e-03		120.314		2.177e-03		13.318
1		0.00		-0.40		7.476e-03		122.397		2.033e-03		14.305
2		0.00		0.00		7.375e-03		120.825		1.992e-03		16.337
2		0.00		0.40		7.023e-03		121.398		1.991e-03		15.526
2		0.00		0.80		6.856e-03		123.300		2.173e-03		13.225
2		0.00		1.20		6.762e-03		117.293		2.182e-03		19.462
2		0.00		1.60		6.411e-03		121.422		1.912e-03		13.911
2		0.00		2.00		6.168e-03		126.124		1.848e-03		13.951
2		0.00		2.40		4.977e-03		121.039		1.180e-03		16.921
2		0.00		2.80		4.433e-03		122.947		1.319e-03		22.791
2		0.00		3.20		3.599e-03		108.257		1.407e-03		27.131
2		0.00		3.60		2.791e-03		98.778		1.101e-03		45.205
2		0.00		4.00		2.365e-03		76.326		9.014e-04		67.689
2		0.00		4.40		2.060e-03		33.588		8.692e-04		79.913
2		0.00		4.80		1.570e-03		0.525		6.742e-04		73.469
2		0.00		5.20		1.917e-03		-34.218		8.977e-04		61.956
2		0.00		5.60		2.447e-03		-55.541		9.310e-04		40.119
2		0.00		6.00		2.766e-03		-56.191		1.011e-03		43.351
2		0.00		6.40		3.998e-03		-48.700		1.467e-03		23.071
2		0.00		6.80		4.361e-03		-45.354		1.348e-03		23.417
2		0.00		7.20		4.857e-03		-50.435		1.516e-03		19.039
2		0.00		7.60		5.473e-03		-54.919		1.480e-03		22.693
2		0.00		8.00		7.000e-03		-52.523		1.727e-03		16.183
2		0.00		8.40		8.491e-03		-53.476		1.933e-03		17.265
2		0.00		8.80		1.024e-02		-52.729		2.187e-03		14.559
2		0.00		9.20		1.290e-02		-54.480		2.752e-03		11.442
2		0.00		9.60		1.490e-02		-51.557		3.183e-03		9.704
2		0.00		10.00		1.691e-02		-52.043		3.464e-03		11.105
2		0.00		9.60		1.788e-02		-51.388		3.979e-03		11.104
2		0.00		9.20		1.878e-02		-51.789		4.226e-03		10.512
2		0.00		8.80		1.910e-02		-52.037		4.254e-03		11.152
2		0.00		8.40		1.995e-02		-50.116		4.446e-03		10.290
2		0.00		8.00		1.902e-02		-51.704		4.425e-03		11.648
2		0.00		7.60		1.998e-02		-52.475		4.286e-03		10.768
2		0.00		7.20		1.921e-02		-52.778		4.621e-03		10.190
2		0.00		6.80		1.930e-02		-51.534		4.456e-03		10.026
2		0.00		6.40		1.889e-02		-51.248		4.471e-03		10.121
2		0.00		6.00		1.873e-02		-50.815		4.421e-03		11.402
2		0.00		5.60		1.869e-02		-53.022		4.482e-03		11.914
2		0.00		5.20		1.832e-02		-50.772		4.568e-03		12.988
2		0.00		4.80		1.852e-02		-51.807		4.252e-03		11.861
2		0.00		4.40		1.858e-02		-50.209		4.148e-03		10.548
2		0.00		4.00		1.840e-02		-50.483		4.412e-03		12.561
2		0.00		3.60		1.828e-02		-53.524		4.237e-03		11.970
2		0.00		3.20		1.812e-02		-50.025		4.122e-03		10.744
2		0.00		2.80		1.814e-02		-50.999		3.959e-03		12.005
2		0.00		2.40		1.775e-02		-47.120		4.110e-03		12.048
2		0.00		2.00		1.764e-02		-47.618		4.188e-03		10.873
2		0.00		1.60		1.724e-02		-49.356		4.154e-03		12.182
2		0.00		1.20		1.712e-02		-48.561		3.779e-03		10.052
2		0.00		0.80		1.702e-02		-51.556		3.952e-03		10.474
2		0.00		0.40		1.660e-02		-50.093		3.940e-03		12.542
2		0.00		0.00		1.709e-02		-50.008		4.101e-03		12.658
2		0.00		-0.40		1.674e-02		-53.712		4.325e-03		14.970
2		0.00		-0.80		1.611e-02		-47.245		4.318e-03		11.649
2		0.00		-1.20		1.591e-02		-48.372		4.389e-03		12.875
2		0.00		-1.60		1.589e-02		-53.675		4.384e-03		14.068
2		0.00		-2.00		1.547e-02		-50.306		4.330e-03		14.045
2		0.00		-2.40		1.499e-02		-53.524		4.126e-03		15.074
2		0.00		-2.80		1.470e-02		-52.008		4.028e-03		14.186
2		0.00		-3.20		1.427e-02		-50.649		4.049e-03		11.488
2		0.00		-3.60		1.416e-02		-49.007		3.707e-03		11.876
2		0.00		-4.00		1.351e-02		-54.191		3.497e-03		12.445
2		0.00		-4.40		1.350e-02		-46.806		3.188e-03		12.292
2		0.00		-4.80		1.260e-02		-48.929		2.756e-03		14.275
2		0.00		-5.20		1.200e-02		-51.145		2.588e-03		14.309
2		0.00		-5.60		1.113e-02		-46.768		2.699e-03		12.060
2		0.00		-6.00		9.480e-03		-53.003		2.194e-03		13.308
2		0.00		-6.40		8.384e-03		-50.076		2.135e-03		14.859
2		0.00		-6.80		6.574e-03		-49.956		1.647e-03		19.011
2		0.00		-7.20		5.380e-03		-51.329		1.686e-03		21.129
2		0.00		-7.60		3.714e-03		-47.595		1.404e-03		27.929
2		0.00		-8.00		2.144e-03		-36.542		8.553e-04		53.314
2		0.00		-8.40		2.199e-03		60.180		8.393e-04		78.245
2		0.00		-8.80		3.028e-03		94.280		1.326e-03		48.417
2		0.00		-9.20		4.838e-03		116.807		1.366e-03		19.650
2		0.00		-9.60		6.585e-03		119.440		1.801e-03		15.563
2		0.00		-10.00		8.597e-03		123.443		2.039e-03		13.353
2		0.00		-9.60		9.934e-03		118.300		2.092e-03		13.413
2		0.00		-9.20		1.077e-02		125.359		2.170e-03		9.631
2		0.00		-8.80		1.105e-02		121.709		2.457e-03		11.431
2		0.00		-8.40		1.137e-02		123.366		2.566e-03		11.477
2		0.00		-8.00		1.160e-02		124.296		2.458e-03		11.503
2		0.00		-7.60		1.128e-02		123.482		2.433e-03		9.812
2		0.00		-7.20		1.125e-02		121.523		2.759e-03		10.589
2		0.00		-6.80		1.079e-02		124.569		2.196e-03		10.826
2		0.00		-6.40		1.045e-02		121.676		2.738e-03		12.072
2		0.00		-6.00		1.000e-02		122.201		2.438e-03		12.910
2		0.00		-5.60		9.513e-03		125.459		2.336e-03		12.031
2		0.00		-5.20		9.659e-03		120.970		2.510e-03		14.360
2		0.00		-4.80		9.304e-03		121.588		2.321e-03		12.713
2		0.00		-4.40		8.758e-03		120.637		2.552e-03		12.382
2		0.00		-4.00		8.996e-03		125.262		2.550e-03		13.570
2		0.00		-3.60		8.596e-03		125.945		2.599e-03		10.972
2		0.00		-3.20		8.525e-03		120.144		2.521e-03		14.462
2		0.00		-2.80		8.319e-03		122.368		2.555e-03		12.534
2		0.00		-2.40		8.015e-03		122.017		2.433e-03		13.001
2		0.00		-2.00		7.766e-03		122.014		2.641e-03		15.589
2		0.00		-1.60		8.088e-03		125.559		2.673e-03		17.764
2		0.00		-1.20		7.848e-03		123.863		2.664e-03		18.093
2		0.00		-0.80		7.958e-03		118.554		2.487e-03		21.236
2		0.00		-0.40		7.475e-03		124.623		2.384e-03		22.100
3		0.00		0.00		7.728e-03		122.185		2.338e-03		19.911
3		0.00		0.40		7.226e-03		125.046		2.111e-03		19.758
3		0.00		0.80		7.250e-03		123.072		2.223e-03		19.085
3		0.00		1.20		6.721e-03		119.630		1.959e-03		25.222
3		0.00		1.60		6.743e-03		119.026		1.956e-03		25.064
3		0.00		2.00		6.132e-03		120.633		1.715e-03		18.682
3		0.00		2.40		5.638e-03		118.666		1.612e-03		23.539
3		0.00		2.80		4.982e-03		116.315		1.711e-03		30.868
3		0.00		3.20		3.953e-03		116.713		1.187e-03		41.602
3		0.00		3.60		3.195e-03		103.312		1.213e-03		37.131
3		0.00		4.00		2.551e-03		78.472		1.147e-03		69.507
3		0.00		4.40		2.179e-03		53.546		9.637e-04		70.086
3		0.00		4.80		1.824e-03		10.788		7.334e-04		74.600
3		0.00		5.20		1.962e-03		-19.456		8.402e-04		69.305
3		0.00		5.60		2.273e-03		-37.956		9.203e-04		41.275
3		0.00		6.00		3.265e-03		-62.678		1.101e-03		27.056
3		0.00		6.40		3.449e-03		-41.859		1.207e-03		26.576
3		0.00		6.80		4.795e-03		-49.254		1.279e-03		20.731
3		0.00		7.20		5.204e-03		-50.992		1.377e-03		21.415
3		0.00		7.60		6.526e-03		-50.465		1.456e-03		21.478
3		0.00		8.00		6.887e-03		-54.461		1.737e-03		13.838
3		0.00		8.40		7.627e-03		-52.259		1.539e-03		14.805
3		0.00		8.80		9.407e-03		-49.403		1.834e-03		14.056
3		0.00		9.20		1.207e-02		-50.408		2.460e-03		11.413
3		0.00		9.60		1.496e-02		-53.649		2.929e-03		11.743
3		0.00		10.00		1.770e-02		-51.516		3.608e-03		11.168
3		0.00		9.60		1.798e-02		-48.838		3.402e-03		9.637
3		0.00		9.20		1.893e-02		-50.791		3.795e-03		9.464
3		0.00		8.80		1.906e-02		-52.496		3.826e-03		10.345
3		0.00		8.40		1.905e-02		-50.903		4.259e-03		11.263
3		0.00		8.00		1.891e-02		-53.839		4.006e-03		11.829
3		0.00		7.60		1.915e-02		-54.015		4.145e-03		11.545
3		0.00		7.20		1.891e-02		-52.959		4.073e-03		13.106
3		0.00		6.80		1.890e-02		-52.272		3.902e-03		9.602
3		0.00		6.40		1.849e-02		-52.203		3.854e-03		9.983
3		0.00		6.00		1.865e-02		-50.831		3.730e-03		10.666
3		0.00		5.60		1.854e-02		-51.614		3.450e-03		9.208
3		0.00		5.20		1.873e-02		-53.111		3.335e-03		10.459
3		0.00		4.80		1.864e-02		-50.793		3.218e-03		10.524
3		0.00		4.40		1.859e-02		-52.719		3.543e-03		10.174
3		0.00		4.00		1.803e-02		-53.317		3.304e-03		9.735
3		0.00		3.60		1.810e-02		-50.103		3.339e-03		10.129
3		0.00		3.20		1.772e-02		-50.407		3.223e-03		10.379
3		0.00		2.80		1.752e-02		-49.755		3.229e-03		10.746
3		0.00		2.40		1.752e-02		-52.049		3.332e-03		10.295
3		0.00		2.00		1.714e-02		-51.153		3.098e-03		10.153
3		0.00		1.60		1.767e-02		-50.662		3.233e-03		10.611
3		0.00		1.20		1.750e-02		-54.222		3.436e-03		10.031
3		0.00		0.80		1.738e-02		-52.862		3.328e-03		9.583
3		0.00		0.40		1.678e-02		-50.990		3.279e-03		10.820
3		0.00		0.00		1.653e-02		-50.716		3.194e-03		9.190
3		0.00		-0.40		1.641e-02		-49.797		3.190e-03		10.830
3		0.00		-0.80		1.613e-02		-48.518		3.055e-03		8.716
3		0.00		-1.20		1.578e-02		-50.139		3.080e-03		11.684
3		0.00		-1.60		1.586e-02		-51.495		3.289e-03		10.808
3		0.00		-2.00		1.545e-02		-49.182		2.943e-03		9.594
3		0.00		-2.40		1.531e-02		-49.856		3.002e-03		11.856
3		0.00		-2.80		1.502e-02		-52.378		3.188e-03		9.632
3		0.00		-3.20		1.476e-02		-50.210		3.074e-03		12.960
3		0.00		-3.60		1.387e-02		-48.734		2.907e-03		10.512
3		0.00		-4.00		1.362e-02		-48.967		2.766e-03		11.661
3		0.00		-4.40		1.293e-02		-49.805		2.882e-03		12.749
3		0.00		-4.80		1.295e-02		-47.296		2.584e-03		10.066
3		0.00		-5.20		1.170e-02		-50.542		2.506e-03		14.160
3		0.00		-5.60		1.080e-02		-47.865		2.439e-03		15.420
3		0.00		-6.00		9.801e-03		-48.681		2.168e-03		14.844
3		0.00		-6.40		8.428e-03		-49.507		2.021e-03		13.675
3		0.00		-6.80		7.102e-03		-48.806		1.769e-03		16.790
3		0.00		-7.20		5.021e-03		-50.155		1.536e-03		19.160
3		0.00		-7.60		3.772e-03		-37.064		1.413e-03		25.941
3		0.00		-8.00		2.079e-03		-34.367		9.005e-04		60.849
3		0.00		-8.40		1.898e-03		23.732		7.251e-04		70.175
3		0.00		-8.80		2.951e-03		84.838		1.212e-03		59.761
3		0.00		-9.20		3.234e-03		94.337		1.209e-03		39.279
3		0.00		-9.60		4.755e-03		108.361		1.577e-03		24.047
3		0.00		-10.00		7.203e-03		114.541		2.037e-03		18.768
3		0.00		-9.60		8.504e-03		122.871		2.174e-03		15.622
3		0.00		-9.20		1.014e-02		123.144		2.464e-03		12.648
3		0.00		-8.80		1.076e-02		118.130		2.495e-03		11.584
3		0.00		-8.40		1.037e-02		122.388		2.423e-03		11.363
3		0.00		-8.00		1.006e-02		120.621		2.133e-03		11.099
3		0.00		-7.60		9.734e-03		121.456		2.168e-03		11.055
3		0.00		-7.20		9.751e-03		122.336		2.415e-03		13.512
3		0.00		-6.80		9.417e-03		122.576		2.171e-03		11.451
3		0.00		-6.40		9.442e-03		125.607		2.108e-03		11.209
3		0.00		-6.00		8.900e-03		119.404		2.161e-03		14.758
3		0.00		-5.60		8.667e-03		123.774		2.236e-03		16.362
3		0.00		-5.20		8.548e-03		121.209		2.203e-03		15.414
3		0.00		-4.80		8.150e-03		119.604		2.261e-03		17.552
3		0.00		-4.40		8.320e-03		119.391		2.206e-03		16.863
3		0.00		-4.00		8.049e-03		113.731		2.203e-03		18.114
3		0.00		-3.60		7.857e-03		116.687		2.214e-03		18.114
3		0.00		-3.20		7.945e-03		120.208		2.439e-03		15.856
3		0.00		-2.80		7.404e-03		122.523		2.371e-03		18.702
3		0.00		-2.40		7.591e-03		117.410		2.145e-03		13.348
3		0.00		-2.00		7.680e-03		121.055		2.052e-03		15.409
3		0.00		-1.60		7.745e-03		124.145		2.012e-03		12.684
3		0.00		-1.20		7.615e-03		119.853		2.071e-03		21.230
3		0.00		-0.80		7.769e-03		120.380		1.910e-03		13.228
3		0.00		-0.40		7.475e-03		123.733		2.008e-03		14.979
4		0.00		0.00		7.410e-03		121.687		1.819e-03		12.805
4		0.00		0.40		7.281e-03		118.191		1.694e-03		27.018
4		0.00		0.80		7.156e-03		120.165		1.789e-03		13.572
4		0.00		1.20		6.929e-03		123.820		1.679e-03		16.432
4		0.00		1.60		6.606e-03		123.655		1.774e-03		15.488
4		0.00		2.00		5.901e-03		121.074		1.650e-03		21.609
4		0.00		2.40		5.340e-03		119.287		1.636e-03		25.443
4		0.00		2.80		4.500e-03		111.127		1.533e-03		29.479
4		0.00		3.20		3.804e-03		104.226		1.368e-03		41.472
4		0.00		3.60		2.872e-03		96.975		1.142e-03		45.461
4		0.00		4.00		2.246e-03		67.253		9.354e-04		66.820
4		0.00		4.40		1.934e-03		39.759		9.776e-04		74.543
4		0.00		4.80		1.936e-03		19.035		7.483e-04		74.380
4		0.00		5.20		2.254e-03		-31.722		8.947e-04		46.731
4		0.00		5.60		2.379e-03		-45.644		1.003e-03		43.984
4		0.00		6.00		3.285e-03		-52.959		1.099e-03		31.008
4		0.00		6.40		4.061e-03		-42.433		1.255e-03		27.549
4		0.00		6.80		4.875e-03		-52.960		1.506e-03		24.866
4		0.00		7.20		5.390e-03		-56.182		1.474e-03		16.962
4		0.00		7.60		6.028e-03		-49.630		1.486e-03		17.735
4		0.00		8.00		7.144e-03		-49.787		1.748e-03		16.367
4		0.00		8.40		7.826e-03		-50.674		1.794e-03		16.023
4		0.00		8.80		9.110e-03		-53.547		2.091e-03		12.732
4		0.00		9.20		1.087e-02		-51.100		2.440e-03		12.121
4		0.00		9.60		1.372e-02		-51.889		3.321e-03		14.931
4		0.00		10.00		1.630e-02		-51.975		4.040e-03		13.493
4		0.00		9.60		1.751e-02		-51.249		4.661e-03		13.308
4		0.00		9.20		1.821e-02		-49.467		4.694e-03		9.908
4		0.00		8.80		1.812e-02		-52.626		4.901e-03		11.787
4		0.00		8.40		1.889e-02		-52.303		4.721e-03		10.651
4		0.00		8.00		1.886e-02		-52.404		4.474e-03		10.464
4		0.00		7.60		1.923e-02		-51.881		4.143e-03		9.225
4		0.00		7.20		1.925e-02		-53.424		3.686e-03		9.584
4		0.00		6.80		1.921e-02		-51.797		3.747e-03		9.966
4		0.00		6.40		1.905e-02		-51.882		3.325e-03		8.961
4		0.00		6.00		1.888e-02		-53.927		3.513e-03		9.821
4		0.00		5.60		1.839e-02		-52.839		3.400e-03		8.980
4		0.00		5.20		1.854e-02		-50.811		3.415e-03		10.801
4		0.00		4.80		1.815e-02		-52.923		3.400e-03		10.548
4		0.00		4.40		1.757e-02		-48.774		3.102e-03		10.742
4		0.00		4.00		1.731e-02		-51.253		3.382e-03		10.271
4		0.00		3.60		1.713e-02		-51.602		3.398e-03		9.947
4		0.00		3.20		1.743e-02		-48.672		3.725e-03		11.549
4		0.00		2.80		1.708e-02		-51.353		3.754e-03		11.870
4		0.00		2.40		1.735e-02		-50.197		3.580e-03		12.075
4		0.00		2.00		1.705e-02		-49.470		4.204e-03		11.907
4		0.00		1.60		1.675e-02		-51.193		4.271e-03		13.275
4		0.00		1.20		1.655e-02		-51.779		4.435e-03		14.031
4		0.00		0.80		1.599e-02		-50.620		4.541e-03		11.244
4		0.00		0.40		1.626e-02		-52.035		4.567e-03		11.524
4		0.00		0.00		1.611e-02		-50.874		4.352e-03		10.721
4		0.00		-0.40		1.579e-02		-49.315		4.282e-03		11.628
4		0.00		-0.80		1.557e-02		-52.155		4.040e-03		11.968
4		0.00		-1.20		1.527e-02		-52.694		3.939e-03		11.156
4		0.00		-1.60		1.539e-02		-51.663		3.284e-03		10.786
4		0.00		-2.00		1.476e-02		-50.912		2.915e-03		10.228
4		0.00		-2.40		1.490e-02		-49.843		2.780e-03		11.924
4		0.00		-2.80		1.452e-02		-51.037		2.715e-03		12.105
4		0.00		-3.20		1.430e-02		-48.791		2.750e-03		10.387
4		0.00		-3.60		1.392e-02		-52.252		2.606e-03		10.805
4		0.00		-4.00		1.329e-02		-51.019		2.345e-03		9.765
4		0.00		-4.40		1.251e-02		-53.542		2.441e-03		11.680
4		0.00		-4.80		1.166e-02		-49.855		2.266e-03		9.045
4		0.00		-5.20		1.126e-02		-51.667		2.121e-03		10.982
4		0.00		-5.60		1.007e-02		-48.913		2.225e-03		12.568
4		0.00		-6.00		8.884e-03		-44.447		2.011e-03		12.660
4		0.00		-6.40		7.743e-03		-48.246		1.938e-03		15.838
4		0.00		-6.80		6.669e-03		-51.064		1.871e-03		15.425
4		0.00		-7.20		5.508e-03		-48.190		1.565e-03		19.082
4		0.00		-7.60		3.602e-03		-40.340		1.139e-03		28.834
4		0.00		-8.00		2.137e-03		-21.395		9.371e-04		47.892
4		0.00		-8.40		2.004e-03		32.243		7.943e-04		65.500
4		0.00		-8.80		2.754e-03		90.042		1.111e-03		53.429
4		0.00		-9.20		4.326e-03		99.981		1.679e-03		36.164
4		0.00		-9.60		5.973e-03		119.420		2.041e-03		22.449
4		0.00		-10.00		8.172e-03		114.331		2.337e-03		18.417
4		0.00		-9.60		9.687e-03		125.574		2.661e-03		13.404
4		0.00		-9.20		9.743e-03		120.744		2.538e-03		12.790
4		0.00		-8.80		1.022e-02		122.555		2.663e-03		12.346
4		0.00		-8.40		1.057e-02		121.276		2.525e-03		10.783
4		0.00		-8.00		1.048e-02		125.545		2.298e-03		10.427
4		0.00		-7.60		1.075e-02		123.391		2.467e-03		11.463
4		0.00		-7.20		1.020e-02		123.790		2.543e-03		10.665
4		0.00		-6.80		9.736e-03		125.277		2.309e-03		11.643
4		0.00		-6.40		9.792e-03		123.340		2.342e-03		11.403
4		0.00		-6.00		9.941e-03		123.170		2.286e-03		11.840
4		0.00		-5.60		9.566e-03		123.027		2.522e-03		13.458
4		0.00		-5.20		9.128e-03		121.199		2.467e-03		14.558
4		0.00		-4.80		9.325e-03		121.520		2.636e-03		11.013
4		0.00		-4.40		8.718e-03		123.073		2.500e-03		15.339
4		0.00		-4.00		8.560e-03		120.222		2.397e-03		19.515
4		0.00		-3.60		8.476e-03		120.448		2.276e-03		18.798
4		0.00		-3.20		8.266e-03		123.439		2.403e-03		19.485
4		0.00		-2.80		8.263e-03		118.874		2.474e-03		24.192
4		0.00		-2.40		7.785e-03		120.022		2.337e-03		19.052
4		0.00		-2.00		8.158e-03		120.582		2.297e-03		12.924
4		0.00		-1.60		8.153e-03		120.804		2.159e-03		13.827
4		0.00		-1.20		7.997e-03		118.066		2.014e-03		15.102
4		0.00		-0.80		7.975e-03		123.170		2.097e-03		12.635
4		0.00		-0.40		7.695e-03		125.100		2.028e-03		12.809
5		0.00		0.00		7.401e-03		125.479		1.739e-03		14.636
5		0.00		0.40		7.697e-03		120.471		1.753e-03		11.098
5		0.00		0.80		7.277e-03		125.670		2.074e-03		14.484
5		0.00		1.20		6.978e-03		119.620		1.787e-03		15.850
5		0.00		1.60		6.865e-03		127.252		1.699e-03		13.329
5		0.00		2.00		6.105e-03		122.751		1.627e-03		14.522
5		0.00		2.40		5.684e-03		121.283		1.443e-03		15.926
5		0.00		2.80		4.835e-03		121.753		1.344e-03		18.375
5		0.00		3.20		3.901e-03		119.051		1.283e-03		27.890
5		0.00		3.60		3.587e-03		119.099		1.094e-03		30.190
5		0.00		4.00		2.455e-03		95.381		9.080e-04		57.354
5		0.00		4.40		2.203e-03		70.448		9.180e-04		67.715
5		0.00		4.80		1.777e-03		-0.107		7.560e-04		74.702
5		0.00		5.20		1.798e-03		-28.006		7.790e-04		71.375
5		0.00		5.60		2.419e-03		-45.907		1.084e-03		52.256
5		0.00		6.00		3.076e-03		-43.313		1.093e-03		29.238
5		0.00		6.40		3.649e-03		-54.819		1.445e-03		26.174
5		0.00		6.80		4.545e-03		-50.311		1.402e-03		21.865
5		0.00		7.20		5.669e-03		-50.896		1.460e-03		18.644
5		0.00		7.60		5.950e-03		-47.987		1.311e-03		15.282
5		0.00		8.00		7.094e-03		-52.777		1.852e-03		16.244
5		0.00		8.40		8.275e-03		-49.249		1.877e-03		16.531
5		0.00		8.80		9.545e-03		-52.546		2.127e-03		13.866
5		0.00		9.20		1.109e-02		-52.827		2.093e-03		9.851
5		0.00		9.60		1.273e-02		-48.373		2.709e-03		10.652
5		0.00		10.00		1.516e-02		-50.998		3.233e-03		11.125
5		0.00		9.60		1.553e-02		-50.748		3.567e-03		9.973
5		0.00		9.20		1.689e-02		-52.394		3.766e-03		10.977
5		0.00		8.80		1.743e-02		-51.674		3.850e-03		12.298
5		0.00		8.40		1.716e-02		-49.933		3.936e-03		11.436
5		0.00		8.00		1.721e-02		-52.333		3.651e-03		10.887
5		0.00		7.60		1.724e-02		-53.544		4.052e-03		10.278
5		0.00		7.20		1.733e-02		-51.717		3.734e-03		9.463
5		0.00		6.80		1.715e-02		-51.170		3.355e-03		11.468
5		0.00		6.40		1.694e-02		-49.026		3.384e-03		11.263
5		0.00		6.00		1.639e-02		-49.942		3.402e-03		10.313
5		0.00		5.60		1.619e-02		-50.415		3.440e-03		11.297
5		0.00		5.20		1.600e-02		-48.763		3.044e-03		10.108
5		0.00		4.80		1.585e-02		-51.087		3.485e-03		11.735
5		0.00		4.40		1.595e-02		-50.740		3.300e-03		10.541
5		0.00		4.00		1.607e-02		-51.085		3.440e-03		9.745
5		0.00		3.60		1.607e-02		-49.469		3.328e-03		9.184
5		0.00		3.20		1.520e-02		-50.275		2.955e-03		10.734
5		0.00		2.80		1.552e-02		-49.846		3.322e-03		11.715
5		0.00		2.40		1.526e-02		-53.037		3.239e-03		12.459
5		0.00		2.00		1.497e-02		-50.324		3.360e-03		11.576
5		0.00		1.60		1.509e-02		-53.231		3.438e-03		11.638
5		0.00		1.20		1.459e-02		-52.802		3.467e-03		10.383
5		0.00		0.80		1.438e-02		-50.405		3.405e-03		14.819
5		0.00		0.40		1.456e-02		-49.995		3.442e-03		10.301
5		0.00		0.00		1.438e-02		-51.664		3.514e-03		13.460
5		0.00		-0.40		1.468e-02		-52.196		3.487e-03		13.398
5		0.00		-0.80		1.457e-02		-51.263		3.584e-03		12.767
5		0.00		-1.20		1.402e-02		-47.794		3.085e-03		13.313
5		0.00		-1.60		1.358e-02		-50.413		3.092e-03		11.805
5		0.00		-2.00		1.329e-02		-50.705		3.250e-03		11.194
5		0.00		-2.40		1.314e-02		-50.560		2.927e-03		14.009
5		0.00		-2.80		1.307e-02		-52.061		2.880e-03		11.279
5		0.00		-3.20		1.203e-02		-48.639		3.000e-03		12.880
5		0.00		-3.60		1.134e-02		-48.302		2.897e-03		15.141
5		0.00		-4.00		1.172e-02		-48.083		2.945e-03		14.030
5		0.00		-4.40		1.093e-02		-52.728		2.660e-03		16.095
5		0.00		-4.80		9.903e-03		-43.988		2.681e-03		14.428
5		0.00		-5.20		9.547e-03		-48.807		2.620e-03		14.338
5		0.00		-5.60		8.561e-03		-49.915		2.478e-03		16.448
5		0.00		-6.00		7.725e-03		-45.832		2.243e-03		13.790
5		0.00		-6.40		7.158e-03		-52.004		2.200e-03		21.573
5		0.00		-6.80		5.362e-03		-57.722		1.678e-03		21.000
5		0.00		-7.20		3.938e-03		-40.084		1.454e-03		33.029
5		0.00		-7.60		2.839e-03		-49.509		1.153e-03		38.165
5		0.00		-8.00		1.902e-03		-15.099		8.428e-04		62.983
5		0.00		-8.40		1.948e-03		44.871		8.517e-04		68.242
5		0.00		-8.80		2.587e-03		80.396		1.183e-03		54.140
5		0.00		-9.20		4.261e-03		111.300		1.583e-03		37.784
5		0.00		-9.60		6.384e-03		115.879		1.766e-03		21.322
5		0.00		-10.00		8.345e-03		116.971		2.284e-03		25.084
5		0.00		-9.60		9.680e-03		115.130		2.622e-03		22.231
5		0.00		-9.20		1.022e-02		118.591		2.703e-03		16.573
5		0.00		-8.80		1.026e-02		119.385		2.958e-03		16.290
5		0.00		-8.40		1.036e-02		121.210		2.944e-03		18.358
5		0.00		-8.00		1.125e-02		123.910		2.971e-03		14.390
5		0.00		-7.60		1.052e-02		123.044		2.883e-03		17.346
5		0.00		-7.20		1.035e-02		121.532		2.751e-03		16.933
5		0.00		-6.80		1.016e-02		123.095		2.494e-03		14.231
5		0.00		-6.40		1.012e-02		123.621		2.543e-03		17.221
5		0.00		-6.00		9.428e-03		120.357		2.508e-03		14.612
5		0.00		-5.60		9.713e-03		123.743		2.511e-03		18.452
5		0.00		-5.20		9.142e-03		122.993		2.367e-03		16.644
5		0.00		-4.80		9.054e-03		121.842		2.059e-03		13.154
5		0.00		-4.40		9.419e-03		121.191		2.175e-03		13.258
5		0.00		-4.00		8.851e-03		123.798		2.278e-03		13.843
5		0.00		-3.60		9.141e-03		121.082		2.069e-03		12.602
5		0.00		-3.20		8.982e-03		125.436		2.130e-03		10.220
5		0.00		-2.80		8.763e-03		124.430		1.958e-03		12.407
5		0.00		-2.40		8.934e-03		123.251		1.891e-03		13.070
5		0.00		-2.00		8.802e-03		120.284		2.094e-03		12.030
5		0.00		-1.60		8.397e-03		121.097		2.018e-03		10.886
5		0.00		-1.20		8.736e-03		126.720		1.830e-03		11.268
5		0.00		-0.80		8.439e-03		124.281		1.776e-03		11.890
5		0.00		-0.40		8.159e-03		124.298		2.040e-03		12.375
6		0.00		0.00		7.770e-03		123.526		1.900e-03		14.703
6		0.00		0.40		7.396e-03		123.450		1.808e-03		11.993
6		0.00		0.80		7.651e-03		122.544		1.897e-03		11.846
6		0.00		1.20		6.948e-03		120.571		1.913e-03		13.717
6		0.00		1.60		6.821e-03		121.915		1.912e-03		17.330
6		0.00		2.00		5.861e-03		119.265		1.825e-03		21.756
6		0.00		2.40		5.822e-03		123.100		1.527e-03		17.408
6		0.00		2.80		4.730e-03		114.427		1.440e-03		20.101
6		0.00		3.20		4.652e-03		115.938		1.427e-03		22.894
6		0.00		3.60		3.562e-03		104.123		1.235e-03		29.417
6		0.00		4.00		3.125e-03		104.524		1.113e-03		46.092
6		0.00		4.40		2.258e-03		68.976		9.893e-04		64.539
6		0.00		4.80		1.946e-03		29.304		8.524e-04		71.448
6		0.00		5.20		1.717e-03		-9.007		6.046e-04		71.740
6		0.00		5.60		1.940e-03		-38.194		8.701e-04		68.356
6		0.00		6.00		2.111e-03		-54.764		8.717e-04		44.894
6		0.00		6.40		3.454e-03		-59.235		1.338e-03		27.306
6		0.00		6.80		4.411e-03		-53.581		1.384e-03		27.654
6		0.00		7.20		5.205e-03		-55.235		1.412e-03		20.155
6		0.00		7.60		5.956e-03		-44.487		1.632e-03		15.048
6		0.00		8.00		6.607e-03		-52.465		1.991e-03		17.447
6		0.00		8.40		7.785e-03		-48.107		2.155e-03		16.295
6		0.00		8.80		8.675e-03		-47.850		2.153e-03		13.057
6		0.00		9.20		1.094e-02		-54.427		2.569e-03		13.892
6		0.00		9.60		1.335e-02		-49.810		3.328e-03		10.530
6		0.00		10.00		1.576e-02		-52.432		4.118e-03		11.179
6		0.00		9.60		1.728e-02		-50.547		4.472e-03		11.477
6		0.00		9.20		1.756e-02		-49.713		4.786e-03		13.057
6		0.00		8.80		1.827e-02		-50.659		4.389e-03		12.530
6		0.00		8.40		1.824e-02		-50.204		4.359e-03		10.843
6		0.00		8.00		1.846e-02		-52.775		4.262e-03		11.948
6		0.00		7.60		1.806e-02		-49.499		4.431e-03		10.743
6		0.00		7.20		1.814e-02		-53.457		4.355e-03		11.420
6		0.00		6.80		1.759e-02		-51.843		4.227e-03		10.439
6		0.00		6.40		1.788e-02		-53.136		4.020e-03		11.311
6		0.00		6.00		1.768e-02		-50.537		4.209e-03		8.334
6		0.00		5.60		1.717e-02		-51.606		4.014e-03		12.658
6		0.00		5.20		1.723e-02		-52.515		4.289e-03		11.819
6		0.00		4.80		1.712e-02		-51.929		4.066e-03		11.616
6		0.00		4.40		1.647e-02		-51.437		4.304e-03		12.780
6		0.00		4.00		1.640e-02		-50.860		4.085e-03		12.666
6		0.00		3.60		1.612e-02		-52.605		4.078e-03		13.197
6		0.00		3.20		1.650e-02		-52.433		4.040e-03		11.899
6		0.00		2.80		1.603e-02		-51.301		3.686e-03		12.599
6		0.00		2.40		1.535e-02		-50.376		3.617e-03		12.064
6		0.00		2.00		1.554e-02		-52.315		3.432e-03		12.523
6		0.00		1.60		1.568e-02		-49.980		3.377e-03		11.487
6		0.00		1.20		1.561e-02		-53.499		3.312e-03		11.119
6		0.00		0.80		1.578e-02		-47.791		3.039e-03		10.772
6		0.00		0.40		1.581e-02		-51.102		3.277e-03		10.385
6		0.00		0.00		1.555e-02		-48.163		2.945e-03		10.475
6		0.00		-0.40		1.540e-02		-48.833		2.598e-03		11.455
6		0.00		-0.80		1.584e-02		-48.732		2.801e-03		10.490
6		0.00		-1.20		1.544e-02		-52.286		2.785e-03		9.520
6		0.00		-1.60		1.519e-02		-50.246		2.596e-03		9.710
6		0.00		-2.00		1.484e-02		-51.589		2.674e-03		10.608
6		0.00		-2.40		1.474e-02		-51.822		2.774e-03		10.406
6		0.00		-2.80		1.403e-02		-50.377		2.916e-03		11.858
6		0.00		-3.20		1.397e-02		-50.178		3.021e-03		9.664
6		0.00		-3.60		1.263e-02		-49.990		2.715e-03		10.056
6		0.00		-4.00		1.248e-02		-49.295		2.798e-03		12.723
6		0.00		-4.40		1.189e-02		-48.352		2.993e-03		12.724
6		0.00		-4.80		1.104e-02		-47.330		2.975e-03		12.464
6		0.00		-5.20		1.030e-02		-44.564		2.655e-03		11.957
6		0.00		-5.60		9.545e-03		-52.415		2.506e-03		16.108
6		0.00		-6.00		8.046e-03		-45.023		2.127e-03		12.706
6		0.00		-6.40		7.366e-03		-52.386		1.863e-03		16.339
6		0.00		-6.80		5.266e-03		-50.108		1.349e-03		16.914
6		0.00		-7.20		4.146e-03		-52.293		1.360e-03		26.166
6		0.00		-7.60		3.161e-03		-36.353		1.102e-03		33.381
6		0.00		-8.00		2.115e-03		-28.366		8.678e-04		67.851
6		0.00		-8.40		1.980e-03		36.998		8.014e-04		73.774
6		0.00		-8.80		2.739e-03		96.283		1.027e-03		45.792
6		0.00		-9.20		3.753e-03		103.623		1.551e-03		56.612
6		0.00		-9.60		5.117e-03		116.972		1.544e-03		18.981
6		0.00		-10.00		7.549e-03		122.141		2.033e-03		12.081
6		0.00		-9.60		8.212e-03		119.779		2.105e-03		13.450
6		0.00		-9.20		8.967e-03		122.365		2.524e-03		13.588
6		0.00		-8.80		9.272e-03		121.325		2.686e-03		12.260
6		0.00		-8.40		9.097e-03		120.674		2.536e-03		12.646
6		0.00		-8.00		9.135e-03		117.330		2.688e-03		19.090
6		0.00		-7.60		8.814e-03		120.233		2.868e-03		20.594
6		0.00		-7.20		8.619e-03		120.959		2.749e-03		15.223
6		0.00		-6.80		8.618e-03		120.382		2.564e-03		21.920
6		0.00		-6.40		8.594e-03		120.729		2.349e-03		17.349
6		0.00		-6.00		8.703e-03		121.500		2.268e-03		16.404
6		0.00		-5.60		8.211e-03		121.283		2.170e-03		12.395
6		0.00		-5.20		8.365e-03		121.011		1.958e-03		13.939
6		0.00		-4.80		8.068e-03		120.281		2.098e-03		14.783
6		0.00		-4.40		7.887e-03		129.729		1.857e-03		13.640
6		0.00		-4.00		8.026e-03		121.565		1.977e-03		15.333
6		0.00		-3.60		7.892e-03		122.441		1.957e-03		14.009
6		0.00		-3.20		7.321e-03		125.150		1.988e-03		14.835
6		0.00		-2.80		7.535e-03		118.778		1.689e-03		13.385
6		0.00		-2.40		7.313e-03		120.300		2.114e-03		12.740
6		0.00		-2.00		7.398e-03		119.285		2.001e-03		16.040
6		0.00		-1.60		6.840e-03		122.084		1.996e-03		18.230
6		0.00		-1.20		6.862e-03		110.248		1.980e-03		26.469
6		0.00		-0.80		6.809e-03		118.202		2.202e-03		19.131
6		0.00		-0.40		6.982e-03		118.553		1.851e-03		21.639
7		0.00		0.00		6.910e-03		118.395		2.011e-03		19.283
7		0.00		0.40		6.798e-03		117.778		1.836e-03		15.549
7		0.00		0.80		6.676e-03		122.616		1.752e-03		14.523
7		0.00		1.20		6.778e-03		119.128		1.700e-03		13.277
7		0.00		1.60		5.998e-03		125.228		1.575e-03		13.347
7		0.00		2.00		5.659e-03		117.073		1.557e-03		25.280
7		0.00		2.40		4.921e-03		118.471		1.448e-03		26.647
7		0.00		2.80		4.363e-03		111.918		1.571e-03		28.846
7		0.00		3.20		4.024e-03		109.686		1.444e-03		29.845
7		0.00		3.60		2.899e-03		94.637		1.211e-03		44.052
7		0.00		4.00		2.025e-03		59.729		8.617e-04		71.372
7		0.00		4.40		2.078e-03		39.885		8.664e-04		59.575
7		0.00		4.80		1.730e-03		11.317		7.431e-04		71.318
7		0.00		5.20		1.757e-03		-26.081		7.633e-04		59.082
7		0.00		5.60		2.541e-03		-49.316		1.110e-03		41.871
7		0.00		6.00		3.249e-03		-58.810		1.275e-03		28.510
7		0.00		6.40		4.116e-03		-49.403		1.283e-03		26.719
7		0.00		6.80		4.695e-03		-52.135		1.300e-03		19.712
7		0.00		7.20		5.836e-03		-46.959		1.458e-03		19.119
7		0.00		7.60		6.081e-03		-55.213		1.730e-03		16.452
7		0.00		8.00		7.525e-03		-49.897		2.019e-03		13.086
7		0.00		8.40		8.688e-03		-49.218		2.379e-03		16.705
7		0.00		8.80		9.634e-03		-48.605		2.339e-03		14.492
7		0.00		9.20		1.021e-02		-52.572		2.690e-03		14.228
7		0.00		9.60		1.285e-02		-51.534		2.656e-03		10.506
7		0.00		10.00		1.435e-02		-49.962		2.828e-03		11.962
7		0.00		9.60		1.604e-02		-51.344		2.849e-03		11.862
7		0.00		9.20		1.650e-02		-51.808		3.014e-03		9.369
7		0.00		8.80		1.739e-02		-50.320		3.129e-03		8.940
7		0.00		8.40		1.714e-02		-53.074		3.342e-03		10.369
7		0.00		8.00		1.741e-02		-50.569		4.030e-03		9.685
7		0.00		7.60		1.716e-02		-51.389		4.481e-03		9.504
7		0.00		7.20		1.650e-02		-51.946		4.650e-03		11.249
7		0.00		6.80		1.651e-02		-52.669		3.971e-03		13.138
7		0.00		6.40		1.705e-02		-51.941		3.847e-03		9.985
7		0.00		6.00		1.678e-02		-50.371		3.319e-03		8.777
7		0.00		5.60		1.672e-02		-51.652		3.230e-03		9.567
7		0.00		5.20		1.710e-02		-51.735		3.038e-03		9.466
7		0.00		4.80		1.620e-02		-52.585		3.066e-03		11.354
7		0.00		4.40		1.643e-02		-54.523		2.948e-03		10.930
7		0.00		4.00		1.626e-02		-53.188		3.171e-03		9.675
7		0.00		3.60		1.594e-02		-50.665		3.477e-03		9.276
7		0.00		3.20		1.545e-02		-51.188		3.634e-03		12.367
7		0.00		2.80		1.506e-02		-52.273		3.554e-03		17.895
7		0.00		2.40		1.514e-02		-50.293		3.523e-03		11.430
7		0.00		2.00		1.537e-02		-52.470		3.353e-03		10.162
7		0.00		1.60		1.510e-02		-48.369		3.325e-03		11.492
7		0.00		1.20		1.526e-02		-50.930		2.921e-03		10.542
7		0.00		0.80		1.517e-02		-50.614		2.798e-03		10.120
7		0.00		0.40		1.489e-02		-47.221		2.939e-03		10.207
7		0.00		0.00		1.494e-02		-52.105		3.175e-03		11.334
7		0.00		-0.40		1.464e-02		-51.504		3.121e-03		9.924
7		0.00		-0.80		1.470e-02		-53.493		3.311e-03		10.728
7		0.00		-1.20		1.411e-02		-51.521		3.669e-03		12.268
7		0.00		-1.60		1.322e-02		-49.407		3.500e-03		11.178
7		0.00		-2.00		1.318e-02		-50.268		3.527e-03		11.744
7		0.00		-2.40		1.296e-02		-52.310		3.455e-03		12.670
7		0.00		-2.80		1.299e-02		-51.492		2.924e-03		13.148
7		0.00		-3.20		1.227e-02		-49.459		2.694e-03		13.037
7		0.00		-3.60		1.184e-02		-51.330		2.422e-03		10.202
7		0.00		-4.00		1.160e-02		-50.388		2.438e-03		12.319
7		0.00		-4.40		1.129e-02		-46.132		2.150e-03		12.117
7		0.00		-4.80		1.089e-02		-51.016		2.033e-03		11.471
7		0.00		-5.20		9.673e-03		-49.682		1.994e-03		11.182
7		0.00		-5.60		9.244e-03		-48.639		2.045e-03		12.684
7		0.00		-6.00		8.607e-03		-51.370		1.984e-03		14.175
7		0.00		-6.40		6.939e-03		-42.678		1.418e-03		14.281
7		0.00		-6.80		5.859e-03		-42.938		1.708e-03		15.733
7		0.00		-7.20		4.814e-03		-47.263		1.480e-03		22.734
7		0.00		-7.60		3.147e-03		-56.483		1.156e-03		35.978
7		0.00		-8.00		2.315e-03		-44.775		9.328e-04		48.095
7		0.00		-8.40		1.832e-03		7.301		6.386e-04		70.658
7		0.00		-8.80		2.197e-03		58.768		9.021e-04		63.528
7		0.00		-9.20		3.302e-03		87.673		1.185e-03		47.441
7		0.00		-9.60		4.612e-03		113.025		1.492e-03		25.737
7		0.00		-10.00		6.380e-03		122.630		1.673e-03		12.828
7		0.00		-9.60		7.599e-03		124.855		1.930e-03		12.895
7		0.00		-9.20		8.521e-03		124.162		1.901e-03		11.928
7		0.00		-8.80		8.805e-03		123.490		2.077e-03		16.025
7		0.00		-8.40		9.110e-03		119.325		1.984e-03		10.232
7		0.00		-8.00		9.300e-03		126.061		2.026e-03		12.250
7		0.00		-7.60		8.955e-03		120.291		2.300e-03		13.602
7		0.00		-7.20		8.798e-03		122.647		2.383e-03		11.611
7		0.00		-6.80		8.362e-03		119.318		2.010e-03		12.621
7		0.00		-6.40		8.175e-03		123.250		2.258e-03		13.137
7		0.00		-6.00		8.050e-03		125.485		2.164e-03		15.227
7		0.00		-5.60		7.860e-03		117.979		2.421e-03		18.956
7		0.00		-5.20		7.424e-03		115.563		2.399e-03		20.975
7		0.00		-4.80		7.525e-03		120.176		2.493e-03		20.599
7		0.00		-4.40		7.351e-03		119.294		2.120e-03		24.090
7		0.00		-4.00		7.552e-03		121.685		2.259e-03		20.966
7		0.00		-3.60		7.217e-03		122.490		2.096e-03		20.320
7		0.00		-3.20		7.290e-03		123.675		2.089e-03		15.669
7		0.00		-2.80		7.212e-03		123.509		1.969e-03		13.401
7		0.00		-2.40		7.247e-03		124.156		2.157e-03		17.254
7		0.00		-2.00		7.181e-03		126.633		1.582e-03		16.484
7		0.00		-1.60		7.275e-03		123.627		1.755e-03		12.952
7		0.00		-1.20		7.154e-03		119.409		1.652e-03		12.638
7		0.00		-0.80		7.191e-03		122.393		1.682e-03		12.744
7		0.00		-0.40		7.241e-03		120.764		1.744e-03		19.691
8		0.00		0.00		6.828e-03		126.600		1.663e-03		13.872
8		0.00		0.40		6.729e-03		121.789		1.746e-03		17.076
8		0.00		0.80		6.654e-03		123.008		1.802e-03		18.857
8		0.00		1.20		6.174e-03		117.996		1.789e-03		29.658
8		0.00		1.60		5.746e-03		117.550		1.786e-03		21.926
8		0.00		2.00		5.468e-03		118.498		1.792e-03		28.067
8		0.00		2.40		4.916e-03		115.712		1.624e-03		26.019
8		0.00		2.80		4.281e-03		106.704		1.596e-03		36.033
8		0.00		3.20		3.827e-03		116.155		1.398e-03		32.356
8		0.00		3.60		2.872e-03		94.266		1.290e-03		43.619
8		0.00		4.00		2.383e-03		78.117		9.449e-04		55.996
8		0.00		4.40		1.882e-03		19.987		7.272e-04		72.206
8		0.00		4.80		1.869e-03		-6.492		7.422e-04		63.715
8		0.00		5.20		1.910e-03		-23.404		8.254e-04		56.926
8		0.00		5.60		2.544e-03		-41.424		9.598e-04		44.920
8		0.00		6.00		3.261e-03		-52.389		1.261e-03		29.050
8		0.00		6.40		3.557e-03		-43.976		1.260e-03		27.933
8		0.00		6.80		4.444e-03		-49.373		1.413e-03		23.653
8		0.00		7.20		5.028e-03		-54.770		1.601e-03		21.506
8		0.00		7.60		6.229e-03		-51.505		1.337e-03		15.502
8		0.00		8.00		7.517e-03		-51.880		1.725e-03		16.644
8		0.00		8.40		8.853e-03		-48.501		1.902e-03		15.623
8		0.00		8.80		9.835e-03		-52.721		2.132e-03		11.944
8		0.00		9.20		1.008e-02		-50.898		2.107e-03		13.485
8		0.00		9.60		1.245e-02		-51.468		2.272e-03		11.034
8		0.00		10.00		1.459e-02		-53.789		2.972e-03		10.686
8		0.00		9.60		1.573e-02		-50.828		3.477e-03		11.536
8		0.00		9.20		1.653e-02		-53.236		3.429e-03		11.381
8		0.00		8.80		1.683e-02		-53.671		3.247e-03		10.912
8		0.00		8.40		1.675e-02		-52.382		3.314e-03		10.964
8		0.00		8.00		1.656e-02		-51.745		3.261e-03		10.416
8		0.00		7.60		1.675e-02		-52.454		3.321e-03		11.355
8		0.00		7.20		1.660e-02		-52.088		3.154e-03		9.644
8		0.00		6.80		1.667e-02		-51.618		2.711e-03		8.954
8		0.00		6.40		1.651e-02		-51.078		3.066e-03		9.726
8		0.00		6.00		1.644e-02		-50.239		2.682e-03		9.515
8		0.00		5.60		1.675e-02		-49.850		2.963e-03		8.784
8		0.00		5.20		1.578e-02		-51.437		2.946e-03		9.579
8		0.00		4.80		1.579e-02		-48.796		2.646e-03		9.676
8		0.00		4.40		1.565e-02		-51.571		2.754e-03		9.632
8		0.00		4.00		1.543e-02		-51.305		2.654e-03		10.103
8		0.00		3.60		1.549e-02		-51.147		2.597e-03		10.520
8		0.00		3.20		1.524e-02		-51.099		2.712e-03		9.248
8		0.00		2.80		1.496e-02		-51.279		2.767e-03		9.250
8		0.00		2.40		1.495e-02		-49.321		2.824e-03		10.370
8		0.00		2.00		1.472e-02		-53.515		2.924e-03		9.880
8		0.00		1.60		1.507e-02		-48.858		2.953e-03		10.028
8		0.00		1.20		1.482e-02		-52.338		2.867e-03		9.900
8		0.00		0.80		1.494e-02		-49.983		2.801e-03		10.295
8		0.00		0.40		1.465e-02		-48.888		2.880e-03		9.938
8		0.00		0.00		1.465e-02		-50.977		2.803e-03		10.027
8		0.00		-0.40		1.454e-02		-53.043		2.611e-03		10.595
8		0.00		-0.80		1.414e-02		-50.513		2.530e-03		9.475
8		0.00		-1.20		1.417e-02		-51.433		2.743e-03		11.460
8		0.00		-1.60		1.397e-02		-48.812		2.789e-03		10.479
8		0.00		-2.00		1.365e-02		-47.815		2.778e-03		9.947
8		0.00		-2.40		1.326e-02		-50.511		2.878e-03		11.516
8		0.00		-2.80		1.254e-02		-54.547		2.797e-03		11.057
8		0.00		-3.20		1.245e-02		-49.634		2.855e-03		11.533
8		0.00		-3.60		1.215e-02		-48.076		2.545e-03		9.980
8		0.00		-4.00		1.172e-02		-48.722		2.708e-03		13.266
8		0.00		-4.40		1.082e-02		-52.898		2.681e-03		12.386
8		0.00		-4.80		9.962e-03		-47.684		2.835e-03		14.254
8		0.00		-5.20		9.532e-03		-50.444		2.736e-03		13.081
8		0.00		-5.60		8.583e-03		-52.444		2.427e-03		14.652
8		0.00		-6.00		7.888e-03		-52.856		2.135e-03		13.936
8		0.00		-6.40		6.593e-03		-45.293		1.851e-03		19.011
8		0.00		-6.80		5.737e-03		-51.153		1.735e-03		18.133
8		0.00		-7.20		4.781e-03		-53.218		1.621e-03		20.516
8		0.00		-7.60		3.455e-03		-44.428		1.154e-03		32.507
8		0.00		-8.00		2.557e-03		-25.981		1.043e-03		54.657
8		0.00		-8.40		1.850e-03		0.380		6.647e-04		67.135
8		0.00		-8.80		2.007e-03		25.919		8.304e-04		75.980
8		0.00		-9.20		2.401e-03		76.743		1.011e-03		58.676
8		0.00		-9.60		3.930e-03		108.079		1.338e-03		32.969
8		0.00		-10.00		5.055e-03		116.998		1.460e-03		22.110
8		0.00		-9.60		6.785e-03		120.053		1.928e-03		14.356
8		0.00		-9.20		7.817e-03		127.458		2.117e-03		17.069
8		0.00		-8.80		8.028e-03		119.008		2.071e-03		15.033
8		0.00		-8.40		8.520e-03		123.793		2.154e-03		12.166
8		0.00		-8.00		7.713e-03		123.730		1.840e-03		13.819
8		0.00		-7.60		8.146e-03		121.485		1.944e-03		10.724
8		0.00		-7.20		7.890e-03		123.268		1.978e-03		12.072
8		0.00		-6.80		7.508e-03		120.909		1.968e-03		14.222
8		0.00		-6.40		7.340e-03		121.071		1.769e-03		19.381
8		0.00		-6.00		7.135e-03		120.266		1.970e-03		16.772
8		0.00		-5.60		6.970e-03		118.311		2.325e-03		23.517
8		0.00		-5.20		6.618e-03		117.208		2.077e-03		23.844
8		0.00		-4.80		6.577e-03		114.011		1.976e-03		15.308
8		0.00		-4.40		6.285e-03		114.913		2.140e-03		19.301
8		0.00		-4.00		6.281e-03		111.059		1.994e-03		20.695
8		0.00		-3.60		6.409e-03		118.135		1.786e-03		23.972
8		0.00		-3.20		6.240e-03		116.339		1.823e-03		27.699
8		0.00		-2.80		5.689e-03		119.260		1.686e-03		26.220
8		0.00		-2.40		5.971e-03		121.955		1.787e-03		24.741
8		0.00		-2.00		5.729e-03		118.851		1.741e-03		23.458
8		0.00		-1.60		5.794e-03		119.860		1.777e-03		19.849
8		0.00		-1.20		5.717e-03		119.442		1.691e-03		19.237
8		0.00		-0.80		5.812e-03		119.115		1.725e-03		25.135
8		0.00		-0.40		5.451e-03		121.089		1.575e-03		18.340
