# Date of analysis: 2023-11-20 16;19
# 
# Loop index	Read Volt (V)	Write Volt (V)	Amplitude (a.u)	Phase (deg)	Sigma Amp (a.u)	Sigma Pha (deg)	
1		0.00		0.00		1.167e-02		-41.976		2.022e-03		14.102
1		0.00		0.40		1.181e-02		-42.220		1.896e-03		10.639
1		0.00		0.80		1.136e-02		-49.080		2.262e-03		14.174
1		0.00		1.20		1.148e-02		-43.931		2.347e-03		12.890
1		0.00		1.60		1.151e-02		-46.033		2.615e-03		12.868
1		0.00		2.00		1.124e-02		-42.312		2.050e-03		11.664
1		0.00		2.40		1.171e-02		-45.066		2.042e-03		10.700
1		0.00		2.80		1.151e-02		-45.058		2.082e-03		12.490
1		0.00		3.20		1.143e-02		-45.817		2.413e-03		14.278
1		0.00		3.60		1.202e-02		-45.393		2.177e-03		12.625
1		0.00		4.00		1.271e-02		-39.589		2.302e-03		10.799
1		0.00		4.40		1.318e-02		-44.772		2.514e-03		11.488
1		0.00		4.80		1.308e-02		-42.879		3.038e-03		13.212
1		0.00		5.20		1.426e-02		-46.898		3.096e-03		10.574
1		0.00		5.60		1.531e-02		-47.729		2.853e-03		12.511
1		0.00		6.00		1.615e-02		-48.988		3.132e-03		10.271
1		0.00		6.40		1.634e-02		-46.665		3.682e-03		12.490
1		0.00		6.80		1.687e-02		-51.551		3.864e-03		10.938
1		0.00		7.20		1.872e-02		-51.347		3.610e-03		9.749
1		0.00		7.60		1.884e-02		-48.270		3.863e-03		10.866
1		0.00		8.00		2.031e-02		-49.121		4.652e-03		11.453
1		0.00		8.40		2.023e-02		-48.976		4.373e-03		11.015
1		0.00		8.80		2.180e-02		-52.707		3.781e-03		10.314
1		0.00		9.20		2.288e-02		-49.734		4.041e-03		10.021
1		0.00		9.60		2.366e-02		-48.259		4.641e-03		9.442
1		0.00		10.00		2.537e-02		-50.083		5.548e-03		9.067
1		0.00		9.60		2.631e-02		-51.288		4.418e-03		8.339
1		0.00		9.20		2.656e-02		-48.992		4.468e-03		8.878
1		0.00		8.80		2.657e-02		-51.342		5.068e-03		8.825
1		0.00		8.40		2.622e-02		-50.612		5.648e-03		9.320
1		0.00		8.00		2.722e-02		-52.038		4.719e-03		8.738
1		0.00		7.60		2.722e-02		-50.879		4.462e-03		8.098
1		0.00		7.20		2.670e-02		-51.408		4.973e-03		9.742
1		0.00		6.80		2.601e-02		-51.182		5.651e-03		9.662
1		0.00		6.40		2.659e-02		-50.258		4.490e-03		8.852
1		0.00		6.00		2.761e-02		-48.624		4.038e-03		8.240
1		0.00		5.60		2.681e-02		-48.595		4.701e-03		8.132
1		0.00		5.20		2.590e-02		-50.665		5.256e-03		9.141
1		0.00		4.80		2.631e-02		-50.893		4.710e-03		7.555
1		0.00		4.40		2.709e-02		-50.812		4.238e-03		7.735
1		0.00		4.00		2.623e-02		-50.179		4.279e-03		9.871
1		0.00		3.60		2.540e-02		-49.163		5.113e-03		10.380
1		0.00		3.20		2.598e-02		-49.831		5.052e-03		9.763
1		0.00		2.80		2.614e-02		-50.329		4.245e-03		8.882
1		0.00		2.40		2.646e-02		-49.032		4.019e-03		8.730
1		0.00		2.00		2.585e-02		-48.630		4.567e-03		8.259
1		0.00		1.60		2.616e-02		-48.547		4.829e-03		8.446
1		0.00		1.20		2.667e-02		-48.972		4.163e-03		7.325
1		0.00		0.80		2.677e-02		-49.079		3.824e-03		9.560
1		0.00		0.40		2.608e-02		-49.763		4.376e-03		8.122
1		0.00		0.00		2.534e-02		-49.808		5.090e-03		8.896
1		0.00		-0.40		2.551e-02		-47.353		4.519e-03		9.147
1		0.00		-0.80		2.592e-02		-49.899		3.861e-03		9.121
1		0.00		-1.20		2.512e-02		-49.170		3.628e-03		7.234
1		0.00		-1.60		2.421e-02		-47.093		4.497e-03		8.224
1		0.00		-2.00		2.261e-02		-49.083		4.872e-03		10.298
1		0.00		-2.40		2.310e-02		-48.532		4.343e-03		9.794
1		0.00		-2.80		2.266e-02		-49.513		4.164e-03		9.024
1		0.00		-3.20		2.167e-02		-47.874		4.531e-03		9.081
1		0.00		-3.60		2.038e-02		-50.234		4.752e-03		9.379
1		0.00		-4.00		2.002e-02		-49.061		4.323e-03		10.421
1		0.00		-4.40		1.953e-02		-49.723		3.684e-03		9.825
1		0.00		-4.80		1.846e-02		-48.785		3.525e-03		8.753
1		0.00		-5.20		1.750e-02		-49.634		4.090e-03		11.628
1		0.00		-5.60		1.632e-02		-48.783		3.991e-03		10.569
1		0.00		-6.00		1.557e-02		-47.621		3.183e-03		12.303
1		0.00		-6.40		1.459e-02		-47.595		2.871e-03		12.033
1		0.00		-6.80		1.410e-02		-48.009		2.580e-03		9.963
1		0.00		-7.20		1.292e-02		-45.425		2.479e-03		15.484
1		0.00		-7.60		1.099e-02		-45.195		2.678e-03		15.061
1		0.00		-8.00		1.032e-02		-37.536		1.939e-03		11.428
1		0.00		-8.40		8.585e-03		-39.043		1.761e-03		12.588
1		0.00		-8.80		7.577e-03		-45.089		1.672e-03		16.118
1		0.00		-9.20		6.131e-03		-41.428		1.566e-03		20.790
1		0.00		-9.60		4.048e-03		-19.932		1.285e-03		23.153
1		0.00		-10.00		2.729e-03		-37.052		1.081e-03		37.649
1		0.00		-9.60		2.237e-03		-9.075		9.401e-04		51.169
1		0.00		-9.20		2.202e-03		3.297		9.651e-04		51.753
1		0.00		-8.80		2.068e-03		20.252		8.499e-04		58.734
1		0.00		-8.40		2.249e-03		52.202		8.172e-04		49.228
1		0.00		-8.00		2.219e-03		55.212		8.654e-04		57.280
1		0.00		-7.60		2.089e-03		47.842		9.765e-04		64.291
1		0.00		-7.20		2.193e-03		52.211		1.010e-03		58.056
1		0.00		-6.80		2.123e-03		50.231		8.370e-04		56.783
1		0.00		-6.40		2.007e-03		52.203		8.527e-04		62.718
1		0.00		-6.00		1.880e-03		31.659		7.137e-04		68.319
1		0.00		-5.60		2.054e-03		45.253		8.812e-04		62.716
1		0.00		-5.20		2.170e-03		30.947		8.807e-04		62.166
1		0.00		-4.80		2.092e-03		32.612		8.939e-04		55.640
1		0.00		-4.40		2.265e-03		37.702		9.210e-04		60.872
1		0.00		-4.00		1.975e-03		44.698		8.163e-04		63.577
1		0.00		-3.60		2.050e-03		29.876		8.943e-04		63.379
1		0.00		-3.20		1.834e-03		22.463		7.524e-04		62.049
1		0.00		-2.80		2.161e-03		25.050		8.458e-04		59.560
1		0.00		-2.40		1.826e-03		24.709		8.192e-04		64.650
1		0.00		-2.00		2.187e-03		30.541		9.037e-04		67.852
1		0.00		-1.60		2.145e-03		36.066		8.594e-04		56.753
1		0.00		-1.20		2.022e-03		20.583		9.559e-04		65.666
1		0.00		-0.80		2.184e-03		27.644		9.853e-04		65.346
1		0.00		-0.40		1.812e-03		30.145		7.675e-04		58.523
2		0.00		0.00		1.890e-03		25.813		8.300e-04		61.030
2		0.00		0.40		2.078e-03		25.643		8.893e-04		61.290
2		0.00		0.80		2.188e-03		38.600		9.751e-04		61.623
2		0.00		1.20		1.959e-03		16.285		9.000e-04		69.040
2		0.00		1.60		2.029e-03		24.652		8.121e-04		55.805
2		0.00		2.00		2.132e-03		3.699		7.378e-04		62.273
2		0.00		2.40		1.861e-03		5.820		6.909e-04		50.997
2		0.00		2.80		2.192e-03		-17.723		9.109e-04		49.896
2		0.00		3.20		2.444e-03		-19.237		1.018e-03		43.795
2		0.00		3.60		2.699e-03		-31.916		9.923e-04		40.863
2		0.00		4.00		3.407e-03		-38.778		1.226e-03		36.421
2		0.00		4.40		4.035e-03		-42.029		1.234e-03		29.929
2		0.00		4.80		4.959e-03		-32.757		1.268e-03		22.473
2		0.00		5.20		6.462e-03		-40.184		1.334e-03		16.303
2		0.00		5.60		7.028e-03		-49.226		1.486e-03		18.154
2		0.00		6.00		7.892e-03		-40.100		1.899e-03		16.006
2		0.00		6.40		8.576e-03		-48.064		1.884e-03		15.693
2		0.00		6.80		9.859e-03		-46.866		1.856e-03		12.365
2		0.00		7.20		1.024e-02		-50.202		1.766e-03		14.096
2		0.00		7.60		1.170e-02		-43.646		2.068e-03		9.564
2		0.00		8.00		1.266e-02		-46.020		2.510e-03		10.250
2		0.00		8.40		1.328e-02		-46.056		2.913e-03		13.701
2		0.00		8.80		1.476e-02		-51.653		2.997e-03		10.982
2		0.00		9.20		1.657e-02		-48.943		2.838e-03		10.739
2		0.00		9.60		1.819e-02		-47.986		3.201e-03		9.436
2		0.00		10.00		1.958e-02		-49.016		3.344e-03		9.284
2		0.00		9.60		2.071e-02		-49.244		4.094e-03		10.308
2		0.00		9.20		2.134e-02		-51.150		4.619e-03		9.644
2		0.00		8.80		2.181e-02		-51.776		3.630e-03		9.274
2		0.00		8.40		2.253e-02		-52.243		3.561e-03		9.440
2		0.00		8.00		2.307e-02		-50.097		3.673e-03		7.689
2		0.00		7.60		2.213e-02		-50.031		4.432e-03		10.352
2		0.00		7.20		2.171e-02		-48.028		4.719e-03		9.515
2		0.00		6.80		2.211e-02		-51.220		4.390e-03		9.520
2		0.00		6.40		2.251e-02		-49.966		3.417e-03		8.232
2		0.00		6.00		2.260e-02		-50.457		3.302e-03		8.119
2		0.00		5.60		2.186e-02		-47.529		3.740e-03		9.869
2		0.00		5.20		2.187e-02		-47.348		4.316e-03		9.433
2		0.00		4.80		2.105e-02		-50.590		4.226e-03		12.125
2		0.00		4.40		2.147e-02		-51.280		3.951e-03		10.450
2		0.00		4.00		2.183e-02		-48.140		3.421e-03		8.947
2		0.00		3.60		2.200e-02		-48.689		3.486e-03		8.611
2		0.00		3.20		2.110e-02		-48.818		3.980e-03		10.083
2		0.00		2.80		2.072e-02		-49.812		4.405e-03		9.916
2		0.00		2.40		2.088e-02		-50.694		4.832e-03		9.992
2		0.00		2.00		2.032e-02		-48.217		4.144e-03		9.630
2		0.00		1.60		2.094e-02		-49.663		4.099e-03		8.617
2		0.00		1.20		2.066e-02		-46.913		3.984e-03		9.231
2		0.00		0.80		2.004e-02		-50.939		4.419e-03		11.392
2		0.00		0.40		1.958e-02		-47.914		4.784e-03		12.499
2		0.00		0.00		1.914e-02		-48.173		4.675e-03		10.633
2		0.00		-0.40		1.944e-02		-51.503		4.167e-03		10.900
2		0.00		-0.80		1.979e-02		-51.433		4.060e-03		11.229
2		0.00		-1.20		1.949e-02		-50.613		3.890e-03		10.221
2		0.00		-1.60		1.850e-02		-47.358		4.340e-03		14.693
2		0.00		-2.00		1.812e-02		-48.813		4.119e-03		11.108
2		0.00		-2.40		1.802e-02		-47.722		3.548e-03		10.756
2		0.00		-2.80		1.759e-02		-47.770		3.152e-03		9.931
2		0.00		-3.20		1.713e-02		-47.858		3.008e-03		10.149
2		0.00		-3.60		1.637e-02		-48.105		3.039e-03		11.272
2		0.00		-4.00		1.583e-02		-47.599		3.496e-03		11.167
2		0.00		-4.40		1.463e-02		-50.371		3.307e-03		11.991
2		0.00		-4.80		1.437e-02		-45.915		2.881e-03		11.612
2		0.00		-5.20		1.386e-02		-44.700		2.553e-03		10.563
2		0.00		-5.60		1.307e-02		-45.678		2.202e-03		10.804
2		0.00		-6.00		1.200e-02		-45.838		2.348e-03		12.453
2		0.00		-6.40		1.144e-02		-48.773		2.643e-03		11.391
2		0.00		-6.80		1.062e-02		-43.782		2.297e-03		11.577
2		0.00		-7.20		9.867e-03		-39.411		2.032e-03		12.010
2		0.00		-7.60		9.242e-03		-42.219		1.733e-03		14.989
2		0.00		-8.00		7.845e-03		-48.896		1.748e-03		16.397
2		0.00		-8.40		6.793e-03		-41.576		1.822e-03		17.852
2		0.00		-8.80		6.190e-03		-43.476		1.628e-03		15.001
2		0.00		-9.20		4.492e-03		-24.782		1.196e-03		18.004
2		0.00		-9.60		3.519e-03		-31.461		1.193e-03		28.052
2		0.00		-10.00		2.455e-03		-39.518		9.692e-04		44.607
2		0.00		-9.60		2.227e-03		-24.778		8.056e-04		44.271
2		0.00		-9.20		1.783e-03		7.032		8.502e-04		49.970
2		0.00		-8.80		2.004e-03		15.847		7.520e-04		57.807
2		0.00		-8.40		1.963e-03		36.423		9.156e-04		62.723
2		0.00		-8.00		2.094e-03		33.732		8.211e-04		68.653
2		0.00		-7.60		1.998e-03		39.452		9.804e-04		64.174
2		0.00		-7.20		2.065e-03		46.043		8.830e-04		63.100
2		0.00		-6.80		2.287e-03		51.477		9.316e-04		60.988
2		0.00		-6.40		2.147e-03		59.310		7.625e-04		58.330
2		0.00		-6.00		2.028e-03		40.083		8.682e-04		66.766
2		0.00		-5.60		1.888e-03		35.752		7.009e-04		66.764
2		0.00		-5.20		2.000e-03		25.836		1.034e-03		68.334
2		0.00		-4.80		1.818e-03		13.832		7.800e-04		67.392
2		0.00		-4.40		1.915e-03		29.300		7.631e-04		55.113
2		0.00		-4.00		1.891e-03		30.938		8.505e-04		64.090
2		0.00		-3.60		2.267e-03		49.712		1.014e-03		54.654
2		0.00		-3.20		1.869e-03		29.208		8.259e-04		55.898
2		0.00		-2.80		2.081e-03		47.947		7.151e-04		65.621
2		0.00		-2.40		2.135e-03		34.310		8.182e-04		64.703
2		0.00		-2.00		2.079e-03		51.248		7.718e-04		53.285
2		0.00		-1.60		1.900e-03		35.770		7.719e-04		66.105
2		0.00		-1.20		1.778e-03		25.375		7.422e-04		58.404
2		0.00		-0.80		1.792e-03		14.803		7.884e-04		63.340
2		0.00		-0.40		1.691e-03		23.087		5.982e-04		63.099
3		0.00		0.00		2.005e-03		34.357		8.818e-04		56.878
3		0.00		0.40		2.045e-03		29.100		8.347e-04		67.000
3		0.00		0.80		1.916e-03		57.054		7.659e-04		58.711
3		0.00		1.20		1.893e-03		10.935		7.254e-04		62.096
3		0.00		1.60		1.878e-03		8.561		8.488e-04		62.608
3		0.00		2.00		1.858e-03		18.691		8.597e-04		52.394
3		0.00		2.40		1.954e-03		14.463		8.537e-04		57.069
3		0.00		2.80		1.922e-03		7.001		8.087e-04		58.711
3		0.00		3.20		2.126e-03		0.402		7.808e-04		59.083
3		0.00		3.60		2.529e-03		-33.116		9.018e-04		39.381
3		0.00		4.00		2.714e-03		-27.182		1.124e-03		35.600
3		0.00		4.40		3.849e-03		-39.017		1.194e-03		28.931
3		0.00		4.80		4.961e-03		-44.372		1.195e-03		18.970
3		0.00		5.20		5.943e-03		-39.770		1.331e-03		21.746
3		0.00		5.60		6.586e-03		-42.993		1.387e-03		18.657
3		0.00		6.00		7.404e-03		-45.334		1.642e-03		15.024
3		0.00		6.40		7.947e-03		-39.718		1.738e-03		16.684
3		0.00		6.80		8.132e-03		-35.597		1.964e-03		15.995
3		0.00		7.20		1.005e-02		-50.187		1.973e-03		12.269
3		0.00		7.60		1.092e-02		-46.912		1.808e-03		12.964
3		0.00		8.00		1.193e-02		-47.576		1.791e-03		10.632
3		0.00		8.40		1.288e-02		-45.829		1.948e-03		8.989
3		0.00		8.80		1.394e-02		-48.114		2.658e-03		9.873
3		0.00		9.20		1.517e-02		-48.700		3.020e-03		10.429
3		0.00		9.60		1.688e-02		-51.466		3.175e-03		9.142
3		0.00		10.00		1.891e-02		-49.129		3.192e-03		9.488
3		0.00		9.60		2.035e-02		-48.509		3.260e-03		8.611
3		0.00		9.20		2.083e-02		-50.313		3.707e-03		9.794
3		0.00		8.80		2.106e-02		-49.854		3.913e-03		10.023
3		0.00		8.40		2.128e-02		-48.158		4.486e-03		9.579
3		0.00		8.00		2.123e-02		-49.848		4.741e-03		9.521
3		0.00		7.60		2.134e-02		-52.392		3.915e-03		8.792
3		0.00		7.20		2.149e-02		-51.012		3.679e-03		10.551
3		0.00		6.80		2.093e-02		-50.345		3.846e-03		11.196
3		0.00		6.40		2.086e-02		-51.298		4.375e-03		10.109
3		0.00		6.00		2.044e-02		-48.317		4.459e-03		12.014
3		0.00		5.60		2.059e-02		-50.168		4.875e-03		10.685
3		0.00		5.20		2.029e-02		-51.499		4.024e-03		10.813
3		0.00		4.80		2.050e-02		-51.899		3.592e-03		9.785
3		0.00		4.40		2.019e-02		-49.788		4.028e-03		9.988
3		0.00		4.00		2.006e-02		-50.911		4.025e-03		10.638
3		0.00		3.60		1.959e-02		-51.035		4.271e-03		10.616
3		0.00		3.20		1.956e-02		-49.423		4.177e-03		10.157
3		0.00		2.80		2.035e-02		-50.290		3.614e-03		9.740
3		0.00		2.40		2.056e-02		-49.323		3.288e-03		10.167
3		0.00		2.00		2.084e-02		-47.790		3.503e-03		8.819
3		0.00		1.60		2.016e-02		-50.140		3.836e-03		11.130
3		0.00		1.20		2.006e-02		-47.902		4.020e-03		9.624
3		0.00		0.80		1.992e-02		-50.024		3.786e-03		9.481
3		0.00		0.40		2.028e-02		-49.434		3.035e-03		9.690
3		0.00		0.00		2.044e-02		-49.103		3.062e-03		8.065
3		0.00		-0.40		2.001e-02		-49.311		3.751e-03		10.041
3		0.00		-0.80		1.920e-02		-48.061		4.023e-03		12.396
3		0.00		-1.20		1.913e-02		-46.992		3.708e-03		9.869
3		0.00		-1.60		1.932e-02		-48.156		3.136e-03		9.215
3		0.00		-2.00		1.954e-02		-46.263		2.947e-03		8.770
3		0.00		-2.40		1.886e-02		-50.073		3.157e-03		10.384
3		0.00		-2.80		1.804e-02		-47.385		3.477e-03		10.480
3		0.00		-3.20		1.678e-02		-52.216		3.494e-03		12.063
3		0.00		-3.60		1.694e-02		-48.733		3.292e-03		9.481
3		0.00		-4.00		1.650e-02		-49.295		2.743e-03		9.477
3		0.00		-4.40		1.550e-02		-45.599		2.525e-03		8.969
3		0.00		-4.80		1.419e-02		-47.538		2.720e-03		9.000
3		0.00		-5.20		1.333e-02		-45.715		3.012e-03		14.070
3		0.00		-5.60		1.267e-02		-47.353		2.372e-03		11.016
3		0.00		-6.00		1.204e-02		-44.275		2.126e-03		14.273
3		0.00		-6.40		1.116e-02		-51.012		2.155e-03		12.925
3		0.00		-6.80		1.034e-02		-44.568		1.885e-03		14.398
3		0.00		-7.20		9.749e-03		-46.057		2.240e-03		13.880
3		0.00		-7.60		8.505e-03		-48.639		2.137e-03		14.256
3		0.00		-8.00		7.437e-03		-44.416		1.672e-03		15.992
3		0.00		-8.40		6.624e-03		-45.277		1.504e-03		19.849
3		0.00		-8.80		5.568e-03		-36.374		1.367e-03		20.890
3		0.00		-9.20		4.627e-03		-36.421		1.294e-03		25.446
3		0.00		-9.60		3.453e-03		-10.529		1.215e-03		33.564
3		0.00		-10.00		2.231e-03		-57.546		8.057e-04		50.254
3		0.00		-9.60		2.235e-03		4.089		9.665e-04		59.768
3		0.00		-9.20		2.102e-03		44.042		8.544e-04		49.506
3		0.00		-8.80		1.890e-03		16.253		7.878e-04		54.935
3		0.00		-8.40		1.973e-03		28.520		8.139e-04		63.207
3		0.00		-8.00		2.026e-03		50.337		8.024e-04		52.606
3		0.00		-7.60		2.217e-03		51.453		9.187e-04		61.763
3		0.00		-7.20		2.075e-03		47.142		7.847e-04		60.772
3		0.00		-6.80		2.197e-03		51.069		9.785e-04		56.158
3		0.00		-6.40		2.054e-03		47.778		9.980e-04		54.333
3		0.00		-6.00		2.318e-03		52.081		8.847e-04		53.982
3		0.00		-5.60		2.168e-03		43.328		9.573e-04		64.228
3		0.00		-5.20		1.898e-03		38.134		8.152e-04		57.867
3		0.00		-4.80		2.030e-03		39.337		7.800e-04		63.364
3		0.00		-4.40		1.983e-03		32.152		8.291e-04		62.965
3		0.00		-4.00		1.998e-03		42.694		9.227e-04		55.310
3		0.00		-3.60		2.034e-03		42.877		8.146e-04		54.952
3		0.00		-3.20		2.128e-03		52.187		8.198e-04		50.374
3		0.00		-2.80		2.069e-03		35.444		9.084e-04		55.302
3		0.00		-2.40		1.922e-03		29.924		8.698e-04		57.410
3		0.00		-2.00		2.039e-03		54.655		7.748e-04		70.022
3		0.00		-1.60		2.080e-03		46.198		7.948e-04		67.056
3		0.00		-1.20		2.138e-03		42.381		9.023e-04		54.513
3		0.00		-0.80		2.133e-03		42.642		9.860e-04		55.354
3		0.00		-0.40		2.200e-03		47.602		9.359e-04		59.714
4		0.00		0.00		2.163e-03		66.916		9.153e-04		56.393
4		0.00		0.40		2.008e-03		45.478		6.822e-04		61.179
4		0.00		0.80		2.074e-03		39.332		9.223e-04		58.871
4		0.00		1.20		2.123e-03		35.606		8.294e-04		62.056
4		0.00		1.60		1.920e-03		40.047		6.827e-04		62.063
4		0.00		2.00		1.978e-03		39.827		7.855e-04		65.189
4		0.00		2.40		1.937e-03		23.008		8.898e-04		55.344
4		0.00		2.80		1.940e-03		16.141		7.919e-04		56.944
4		0.00		3.20		2.100e-03		-9.366		8.392e-04		55.266
4		0.00		3.60		2.302e-03		-24.356		8.370e-04		42.861
4		0.00		4.00		2.754e-03		-52.491		1.115e-03		31.169
4		0.00		4.40		3.440e-03		-37.247		1.112e-03		33.225
4		0.00		4.80		4.593e-03		-36.923		1.266e-03		22.128
4		0.00		5.20		5.237e-03		-48.721		1.210e-03		16.681
4		0.00		5.60		5.841e-03		-44.143		1.376e-03		18.449
4		0.00		6.00		6.502e-03		-42.818		1.641e-03		15.058
4		0.00		6.40		7.479e-03		-43.843		1.835e-03		18.018
4		0.00		6.80		8.542e-03		-50.003		1.793e-03		13.851
4		0.00		7.20		9.020e-03		-50.039		1.868e-03		14.111
4		0.00		7.60		9.835e-03		-45.289		2.482e-03		16.864
4		0.00		8.00		1.052e-02		-52.909		2.568e-03		12.952
4		0.00		8.40		1.192e-02		-49.386		2.392e-03		11.519
4		0.00		8.80		1.347e-02		-52.953		2.318e-03		11.567
4		0.00		9.20		1.511e-02		-52.005		3.206e-03		10.174
4		0.00		9.60		1.565e-02		-48.045		3.691e-03		13.178
4		0.00		10.00		1.736e-02		-51.818		4.249e-03		10.302
4		0.00		9.60		1.829e-02		-51.588		3.517e-03		11.684
4		0.00		9.20		1.912e-02		-51.093		3.960e-03		9.626
4		0.00		8.80		1.894e-02		-51.074		4.410e-03		12.166
4		0.00		8.40		1.925e-02		-49.953		4.586e-03		9.287
4		0.00		8.00		1.998e-02		-50.627		3.726e-03		9.682
4		0.00		7.60		2.008e-02		-50.213		3.464e-03		9.557
4		0.00		7.20		1.959e-02		-51.794		4.088e-03		10.502
4		0.00		6.80		1.937e-02		-50.453		4.385e-03		11.715
4		0.00		6.40		1.975e-02		-51.090		3.841e-03		10.553
4		0.00		6.00		2.015e-02		-48.677		3.524e-03		9.363
4		0.00		5.60		2.061e-02		-48.865		3.496e-03		9.188
4		0.00		5.20		1.985e-02		-49.790		3.873e-03		9.489
4		0.00		4.80		1.979e-02		-49.661		4.256e-03		11.008
4		0.00		4.40		2.011e-02		-52.046		3.831e-03		10.215
4		0.00		4.00		2.046e-02		-50.133		3.416e-03		8.864
4		0.00		3.60		2.030e-02		-51.900		3.545e-03		10.136
4		0.00		3.20		1.968e-02		-49.226		3.732e-03		10.751
4		0.00		2.80		1.960e-02		-50.073		4.001e-03		11.090
4		0.00		2.40		2.017e-02		-51.464		3.412e-03		9.150
4		0.00		2.00		2.053e-02		-48.183		3.045e-03		8.533
4		0.00		1.60		1.991e-02		-49.697		3.657e-03		8.199
4		0.00		1.20		1.940e-02		-49.206		3.988e-03		11.776
4		0.00		0.80		1.924e-02		-50.048		4.451e-03		9.214
4		0.00		0.40		1.962e-02		-48.366		3.729e-03		10.222
4		0.00		0.00		1.972e-02		-48.500		3.146e-03		8.511
4		0.00		-0.40		1.946e-02		-47.156		3.471e-03		9.085
4		0.00		-0.80		1.895e-02		-48.665		3.506e-03		11.324
4		0.00		-1.20		1.893e-02		-47.803		3.788e-03		10.308
4		0.00		-1.60		1.859e-02		-48.299		3.420e-03		11.078
4		0.00		-2.00		1.820e-02		-48.152		2.733e-03		8.591
4		0.00		-2.40		1.799e-02		-44.581		3.047e-03		9.242
4		0.00		-2.80		1.716e-02		-49.575		3.409e-03		12.396
4		0.00		-3.20		1.623e-02		-47.433		3.343e-03		10.270
4		0.00		-3.60		1.594e-02		-48.574		3.221e-03		10.454
4		0.00		-4.00		1.541e-02		-47.948		2.403e-03		10.526
4		0.00		-4.40		1.457e-02		-46.553		2.676e-03		10.725
4		0.00		-4.80		1.410e-02		-46.233		2.780e-03		12.032
4		0.00		-5.20		1.288e-02		-45.832		3.015e-03		14.721
4		0.00		-5.60		1.259e-02		-50.694		2.760e-03		12.631
4		0.00		-6.00		1.199e-02		-47.637		2.050e-03		13.865
4		0.00		-6.40		1.160e-02		-47.543		2.392e-03		11.031
4		0.00		-6.80		1.016e-02		-43.993		2.335e-03		13.257
4		0.00		-7.20		9.310e-03		-43.673		2.310e-03		14.679
4		0.00		-7.60		8.316e-03		-42.966		2.045e-03		16.269
4		0.00		-8.00		7.522e-03		-46.714		1.761e-03		14.021
4		0.00		-8.40		6.324e-03		-44.102		1.569e-03		17.934
4		0.00		-8.80		5.966e-03		-39.023		1.563e-03		21.044
4		0.00		-9.20		4.275e-03		-34.676		1.304e-03		30.012
4		0.00		-9.60		3.786e-03		-37.839		1.307e-03		26.159
4		0.00		-10.00		2.609e-03		-28.195		1.013e-03		37.676
4		0.00		-9.60		2.036e-03		-21.651		8.620e-04		64.196
4		0.00		-9.20		2.061e-03		-12.113		8.257e-04		56.857
4		0.00		-8.80		1.686e-03		-15.088		7.009e-04		53.830
4		0.00		-8.40		2.064e-03		15.821		9.728e-04		71.476
4		0.00		-8.00		1.802e-03		14.844		7.521e-04		60.430
4		0.00		-7.60		1.867e-03		11.855		8.174e-04		64.904
4		0.00		-7.20		2.145e-03		19.342		8.961e-04		64.486
4		0.00		-6.80		1.985e-03		22.678		8.165e-04		53.325
4		0.00		-6.40		2.181e-03		27.362		9.838e-04		58.775
4		0.00		-6.00		1.755e-03		-8.504		7.957e-04		61.734
4		0.00		-5.60		1.986e-03		5.806		9.479e-04		68.098
4		0.00		-5.20		1.844e-03		23.489		7.560e-04		56.481
4		0.00		-4.80		1.997e-03		23.074		8.381e-04		59.977
4		0.00		-4.40		1.942e-03		-3.014		8.223e-04		67.309
4		0.00		-4.00		1.759e-03		-0.148		7.078e-04		59.060
4		0.00		-3.60		1.918e-03		0.872		7.966e-04		61.607
4		0.00		-3.20		1.913e-03		3.530		9.085e-04		65.166
4		0.00		-2.80		1.833e-03		26.950		7.362e-04		60.509
4		0.00		-2.40		1.919e-03		10.683		7.264e-04		64.453
4		0.00		-2.00		1.906e-03		12.505		7.245e-04		58.072
4		0.00		-1.60		1.960e-03		12.794		8.018e-04		53.390
4		0.00		-1.20		1.758e-03		15.988		7.523e-04		70.743
4		0.00		-0.80		1.804e-03		25.289		7.376e-04		56.998
4		0.00		-0.40		1.875e-03		26.589		7.064e-04		62.335
5		0.00		0.00		1.801e-03		11.223		6.702e-04		64.233
5		0.00		0.40		1.865e-03		-3.704		8.025e-04		61.331
5		0.00		0.80		1.811e-03		13.506		7.171e-04		60.483
5		0.00		1.20		1.859e-03		37.638		7.789e-04		56.663
5		0.00		1.60		1.979e-03		24.467		7.375e-04		62.143
5		0.00		2.00		1.775e-03		-10.990		6.432e-04		62.523
5		0.00		2.40		1.847e-03		-8.174		7.451e-04		55.417
5		0.00		2.80		1.831e-03		-2.527		7.643e-04		54.304
5		0.00		3.20		2.054e-03		-37.456		8.423e-04		58.883
5		0.00		3.60		2.909e-03		-19.453		9.558e-04		37.791
5		0.00		4.00		3.159e-03		-29.661		1.161e-03		25.082
5		0.00		4.40		3.787e-03		-42.276		1.404e-03		30.265
5		0.00		4.80		4.436e-03		-39.753		1.376e-03		24.244
5		0.00		5.20		5.482e-03		-36.097		1.741e-03		20.153
5		0.00		5.60		6.104e-03		-45.487		1.442e-03		19.754
5		0.00		6.00		7.133e-03		-46.329		1.494e-03		16.812
5		0.00		6.40		7.947e-03		-53.548		2.156e-03		15.443
5		0.00		6.80		8.174e-03		-41.922		1.960e-03		13.842
5		0.00		7.20		9.031e-03		-42.518		2.088e-03		13.049
5		0.00		7.60		1.026e-02		-50.723		1.904e-03		12.666
5		0.00		8.00		1.131e-02		-50.892		2.064e-03		11.369
5		0.00		8.40		1.171e-02		-53.054		2.656e-03		15.823
5		0.00		8.80		1.315e-02		-50.440		3.091e-03		12.612
5		0.00		9.20		1.422e-02		-49.376		2.492e-03		12.173
5		0.00		9.60		1.600e-02		-45.743		2.837e-03		10.158
5		0.00		10.00		1.673e-02		-46.889		3.576e-03		10.707
5		0.00		9.60		1.804e-02		-47.778		4.094e-03		9.676
5		0.00		9.20		1.877e-02		-52.716		3.799e-03		9.791
5		0.00		8.80		1.985e-02		-50.905		3.869e-03		8.905
5		0.00		8.40		2.043e-02		-49.448		3.666e-03		9.485
5		0.00		8.00		1.957e-02		-50.418		4.093e-03		10.856
5		0.00		7.60		1.951e-02		-49.749		4.387e-03		11.683
5		0.00		7.20		1.946e-02		-49.698		3.988e-03		10.334
5		0.00		6.80		1.985e-02		-49.752		3.293e-03		9.709
5		0.00		6.40		1.970e-02		-48.917		3.738e-03		8.909
5		0.00		6.00		1.928e-02		-49.736		4.463e-03		9.246
5		0.00		5.60		1.907e-02		-51.038		4.696e-03		11.461
5		0.00		5.20		1.924e-02		-51.236		3.697e-03		9.397
5		0.00		4.80		1.932e-02		-49.993		3.469e-03		9.112
5		0.00		4.40		1.842e-02		-47.161		4.027e-03		10.278
5		0.00		4.00		1.885e-02		-48.906		4.250e-03		9.453
5		0.00		3.60		1.896e-02		-46.778		3.848e-03		9.329
5		0.00		3.20		1.917e-02		-49.703		3.131e-03		9.860
5		0.00		2.80		1.872e-02		-47.873		3.700e-03		9.594
5		0.00		2.40		1.873e-02		-45.968		3.761e-03		10.831
5		0.00		2.00		1.866e-02		-48.981		4.259e-03		10.081
5		0.00		1.60		1.914e-02		-50.475		3.633e-03		9.126
5		0.00		1.20		1.892e-02		-49.858		3.177e-03		9.529
5		0.00		0.80		1.861e-02		-49.340		3.543e-03		11.525
5		0.00		0.40		1.846e-02		-48.358		4.076e-03		12.387
5		0.00		0.00		1.851e-02		-48.693		3.923e-03		9.248
5		0.00		-0.40		1.807e-02		-49.166		3.478e-03		10.204
5		0.00		-0.80		1.860e-02		-50.473		3.523e-03		9.928
5		0.00		-1.20		1.774e-02		-51.702		3.937e-03		12.246
5		0.00		-1.60		1.723e-02		-48.197		4.491e-03		12.979
5		0.00		-2.00		1.725e-02		-47.563		3.877e-03		10.292
5		0.00		-2.40		1.703e-02		-48.083		3.189e-03		12.488
5		0.00		-2.80		1.705e-02		-49.753		3.384e-03		10.504
5		0.00		-3.20		1.576e-02		-48.964		3.736e-03		10.915
5		0.00		-3.60		1.482e-02		-50.178		3.803e-03		12.338
5		0.00		-4.00		1.460e-02		-48.394		3.073e-03		12.799
5		0.00		-4.40		1.454e-02		-49.591		2.780e-03		10.833
5		0.00		-4.80		1.355e-02		-50.033		2.633e-03		9.934
5		0.00		-5.20		1.302e-02		-47.044		2.708e-03		14.539
5		0.00		-5.60		1.246e-02		-44.645		2.905e-03		9.815
5		0.00		-6.00		1.192e-02		-47.613		2.292e-03		10.589
5		0.00		-6.40		1.121e-02		-46.547		2.104e-03		10.836
5		0.00		-6.80		1.031e-02		-47.055		2.278e-03		13.786
5		0.00		-7.20		9.446e-03		-44.958		1.817e-03		14.300
5		0.00		-7.60		8.537e-03		-44.338		2.184e-03		15.925
5		0.00		-8.00		7.912e-03		-44.975		1.480e-03		14.626
5		0.00		-8.40		6.644e-03		-39.800		1.598e-03		23.283
5		0.00		-8.80		5.611e-03		-43.495		1.407e-03		16.381
5		0.00		-9.20		4.985e-03		-35.692		1.536e-03		19.250
5		0.00		-9.60		3.482e-03		-28.961		1.126e-03		28.631
5		0.00		-10.00		2.725e-03		-39.717		1.090e-03		33.512
5		0.00		-9.60		2.400e-03		-18.183		1.013e-03		52.418
5		0.00		-9.20		2.159e-03		-7.361		6.844e-04		49.001
5		0.00		-8.80		1.915e-03		13.378		8.810e-04		60.902
5		0.00		-8.40		1.771e-03		21.574		6.909e-04		62.636
5		0.00		-8.00		1.964e-03		38.774		7.756e-04		69.108
5		0.00		-7.60		1.931e-03		33.801		9.333e-04		60.982
5		0.00		-7.20		1.874e-03		34.566		6.521e-04		66.403
5		0.00		-6.80		2.007e-03		40.978		9.164e-04		55.806
5		0.00		-6.40		1.905e-03		26.365		7.544e-04		68.195
5		0.00		-6.00		1.986e-03		35.608		8.085e-04		59.613
5		0.00		-5.60		1.815e-03		19.131		6.739e-04		66.904
5		0.00		-5.20		1.979e-03		10.760		8.309e-04		62.190
5		0.00		-4.80		1.932e-03		33.257		7.646e-04		61.668
5		0.00		-4.40		1.942e-03		27.315		7.486e-04		58.303
5		0.00		-4.00		1.854e-03		39.542		6.890e-04		54.444
5		0.00		-3.60		1.884e-03		24.876		7.324e-04		67.820
5		0.00		-3.20		1.957e-03		20.357		7.761e-04		59.443
5		0.00		-2.80		1.932e-03		17.079		7.397e-04		72.819
5		0.00		-2.40		1.989e-03		19.877		8.119e-04		64.412
5		0.00		-2.00		1.819e-03		28.553		7.592e-04		66.776
5		0.00		-1.60		1.858e-03		21.721		7.913e-04		69.128
5		0.00		-1.20		1.811e-03		33.433		6.876e-04		57.939
5		0.00		-0.80		2.025e-03		20.619		7.848e-04		56.407
5		0.00		-0.40		2.007e-03		28.021		8.707e-04		65.163
6		0.00		0.00		1.879e-03		18.288		8.158e-04		68.664
6		0.00		0.40		1.733e-03		23.744		7.192e-04		64.209
6		0.00		0.80		1.894e-03		30.281		9.134e-04		71.706
6		0.00		1.20		2.038e-03		35.611		7.670e-04		57.664
6		0.00		1.60		2.028e-03		25.171		7.968e-04		58.465
6		0.00		2.00		1.836e-03		9.568		8.703e-04		63.263
6		0.00		2.40		1.801e-03		23.337		8.981e-04		65.552
6		0.00		2.80		1.966e-03		-10.484		9.084e-04		50.087
6		0.00		3.20		2.338e-03		-5.211		8.969e-04		59.268
6		0.00		3.60		2.545e-03		-34.227		1.007e-03		34.601
6		0.00		4.00		2.741e-03		-46.433		1.050e-03		34.641
6		0.00		4.40		3.604e-03		-28.724		1.215e-03		30.840
6		0.00		4.80		4.542e-03		-38.742		1.196e-03		21.549
6		0.00		5.20		5.092e-03		-37.197		1.248e-03		20.420
6		0.00		5.60		5.608e-03		-33.772		1.517e-03		17.211
6		0.00		6.00		6.514e-03		-43.458		1.477e-03		17.022
6		0.00		6.40		7.466e-03		-47.340		1.868e-03		17.905
6		0.00		6.80		8.255e-03		-42.986		1.694e-03		17.322
6		0.00		7.20		9.234e-03		-45.070		1.772e-03		12.970
6		0.00		7.60		1.012e-02		-44.899		1.908e-03		12.900
6		0.00		8.00		1.039e-02		-51.583		2.343e-03		14.146
6		0.00		8.40		1.135e-02		-44.492		2.621e-03		12.325
6		0.00		8.80		1.287e-02		-49.407		2.370e-03		11.159
6		0.00		9.20		1.458e-02		-49.982		2.579e-03		10.983
6		0.00		9.60		1.515e-02		-50.286		3.035e-03		11.710
6		0.00		10.00		1.627e-02		-53.368		4.031e-03		11.598
6		0.00		9.60		1.747e-02		-51.649		4.145e-03		10.646
6		0.00		9.20		1.841e-02		-50.890		3.202e-03		9.546
6		0.00		8.80		1.832e-02		-49.588		3.700e-03		10.324
6		0.00		8.40		1.830e-02		-47.648		4.070e-03		12.186
6		0.00		8.00		1.872e-02		-50.033		4.154e-03		10.835
6		0.00		7.60		1.911e-02		-52.804		3.735e-03		10.566
6		0.00		7.20		1.883e-02		-48.083		3.111e-03		11.483
6		0.00		6.80		1.876e-02		-50.811		3.558e-03		9.929
6		0.00		6.40		1.865e-02		-48.817		3.800e-03		8.698
6		0.00		6.00		1.853e-02		-51.507		4.062e-03		9.631
6		0.00		5.60		1.910e-02		-47.719		3.329e-03		9.584
6		0.00		5.20		1.832e-02		-49.921		3.301e-03		9.589
6		0.00		4.80		1.834e-02		-49.057		3.690e-03		9.155
6		0.00		4.40		1.798e-02		-51.932		4.121e-03		10.709
6		0.00		4.00		1.823e-02		-49.978		3.793e-03		9.888
6		0.00		3.60		1.759e-02		-50.443		3.319e-03		10.195
6		0.00		3.20		1.767e-02		-50.221		3.722e-03		10.372
6		0.00		2.80		1.725e-02		-51.139		4.401e-03		12.672
6		0.00		2.40		1.715e-02		-49.541		4.208e-03		10.324
6		0.00		2.00		1.717e-02		-51.213		3.458e-03		11.674
6		0.00		1.60		1.782e-02		-49.843		3.794e-03		11.536
6		0.00		1.20		1.698e-02		-52.249		4.255e-03		13.401
6		0.00		0.80		1.712e-02		-52.648		4.301e-03		11.883
6		0.00		0.40		1.733e-02		-50.268		3.821e-03		10.325
6		0.00		0.00		1.712e-02		-49.304		3.731e-03		11.500
6		0.00		-0.40		1.711e-02		-48.331		3.701e-03		12.779
6		0.00		-0.80		1.706e-02		-46.743		4.018e-03		11.351
6		0.00		-1.20		1.674e-02		-48.832		3.321e-03		10.589
6		0.00		-1.60		1.672e-02		-46.627		3.032e-03		9.995
6		0.00		-2.00		1.604e-02		-47.628		3.283e-03		13.095
6		0.00		-2.40		1.582e-02		-47.511		3.682e-03		10.964
6		0.00		-2.80		1.553e-02		-46.964		3.214e-03		9.540
6		0.00		-3.20		1.513e-02		-48.374		3.003e-03		10.400
6		0.00		-3.60		1.515e-02		-46.993		2.685e-03		11.055
6		0.00		-4.00		1.400e-02		-48.400		3.076e-03		13.762
6		0.00		-4.40		1.361e-02		-45.906		2.948e-03		11.803
6		0.00		-4.80		1.332e-02		-46.840		2.317e-03		12.009
6		0.00		-5.20		1.274e-02		-44.008		2.551e-03		11.989
6		0.00		-5.60		1.134e-02		-46.492		2.542e-03		13.392
6		0.00		-6.00		1.125e-02		-45.400		2.605e-03		10.868
6		0.00		-6.40		1.125e-02		-41.833		2.025e-03		9.857
6		0.00		-6.80		9.923e-03		-44.102		2.050e-03		11.474
6		0.00		-7.20		9.149e-03		-47.872		2.182e-03		13.079
6		0.00		-7.60		8.138e-03		-46.426		1.917e-03		14.754
6		0.00		-8.00		7.437e-03		-39.696		1.504e-03		12.210
6		0.00		-8.40		6.201e-03		-33.230		1.381e-03		18.543
6		0.00		-8.80		5.386e-03		-36.216		1.519e-03		22.456
6		0.00		-9.20		4.632e-03		-33.092		1.504e-03		20.855
6		0.00		-9.60		3.282e-03		-47.492		1.360e-03		24.009
6		0.00		-10.00		2.600e-03		-17.848		1.077e-03		45.307
6		0.00		-9.60		2.099e-03		-7.636		9.289e-04		56.790
6		0.00		-9.20		1.934e-03		-4.262		8.272e-04		53.758
6		0.00		-8.80		1.978e-03		13.143		8.314e-04		63.900
6		0.00		-8.40		1.978e-03		41.482		9.795e-04		60.343
6		0.00		-8.00		2.045e-03		31.793		8.633e-04		57.117
6		0.00		-7.60		2.138e-03		46.570		8.375e-04		56.631
6		0.00		-7.20		1.926e-03		25.567		8.613e-04		63.460
6		0.00		-6.80		1.657e-03		13.765		6.304e-04		59.716
6		0.00		-6.40		2.028e-03		37.039		8.307e-04		63.163
6		0.00		-6.00		1.931e-03		32.420		8.201e-04		70.536
6		0.00		-5.60		1.994e-03		26.232		8.742e-04		62.898
6		0.00		-5.20		2.009e-03		35.623		9.029e-04		63.114
6		0.00		-4.80		2.013e-03		36.414		7.838e-04		59.652
6		0.00		-4.40		1.803e-03		16.963		7.651e-04		65.259
6		0.00		-4.00		1.754e-03		8.229		7.450e-04		70.152
6		0.00		-3.60		2.080e-03		27.453		8.737e-04		64.491
6		0.00		-3.20		1.885e-03		32.032		7.701e-04		60.750
6		0.00		-2.80		2.007e-03		28.874		8.214e-04		59.711
6		0.00		-2.40		2.085e-03		33.036		8.944e-04		67.595
6		0.00		-2.00		2.097e-03		49.408		8.945e-04		68.142
6		0.00		-1.60		2.008e-03		34.983		7.955e-04		56.135
6		0.00		-1.20		2.024e-03		47.323		8.538e-04		61.701
6		0.00		-0.80		2.121e-03		48.157		8.570e-04		62.107
6		0.00		-0.40		2.084e-03		54.385		9.095e-04		55.448
7		0.00		0.00		2.012e-03		51.988		8.435e-04		59.644
7		0.00		0.40		1.911e-03		43.982		7.324e-04		66.923
7		0.00		0.80		1.967e-03		41.044		9.258e-04		63.728
7		0.00		1.20		1.898e-03		49.828		7.626e-04		61.114
7		0.00		1.60		2.125e-03		39.041		9.071e-04		60.798
7		0.00		2.00		1.958e-03		36.525		8.555e-04		62.561
7		0.00		2.40		1.977e-03		18.879		7.263e-04		63.303
7		0.00		2.80		1.823e-03		8.149		8.781e-04		60.358
7		0.00		3.20		1.979e-03		-13.942		7.572e-04		55.878
7		0.00		3.60		2.183e-03		-19.652		9.464e-04		51.981
7		0.00		4.00		2.490e-03		-20.336		1.073e-03		43.055
7		0.00		4.40		3.104e-03		-33.840		1.141e-03		31.712
7		0.00		4.80		4.141e-03		-43.227		1.276e-03		23.547
7		0.00		5.20		4.432e-03		-43.145		1.264e-03		24.127
7		0.00		5.60		5.569e-03		-37.854		1.275e-03		18.522
7		0.00		6.00		6.472e-03		-44.453		1.347e-03		17.826
7		0.00		6.40		7.331e-03		-46.529		1.515e-03		14.413
7		0.00		6.80		7.686e-03		-43.221		1.839e-03		18.853
7		0.00		7.20		8.414e-03		-52.129		2.154e-03		17.783
7		0.00		7.60		9.524e-03		-51.112		1.965e-03		11.928
7		0.00		8.00		1.026e-02		-41.720		1.985e-03		12.363
7		0.00		8.40		1.186e-02		-46.065		2.091e-03		11.019
7		0.00		8.80		1.197e-02		-47.729		2.734e-03		12.967
7		0.00		9.20		1.343e-02		-48.898		2.734e-03		11.260
7		0.00		9.60		1.506e-02		-49.416		2.723e-03		11.345
7		0.00		10.00		1.649e-02		-48.677		2.818e-03		9.139
7		0.00		9.60		1.769e-02		-50.283		3.763e-03		10.404
7		0.00		9.20		1.776e-02		-49.193		3.971e-03		10.471
7		0.00		8.80		1.886e-02		-49.460		3.433e-03		9.831
7		0.00		8.40		1.883e-02		-49.633		3.347e-03		9.370
7		0.00		8.00		1.874e-02		-52.102		4.145e-03		13.817
7		0.00		7.60		1.824e-02		-51.504		4.559e-03		12.052
7		0.00		7.20		1.850e-02		-49.925		4.247e-03		10.828
7		0.00		6.80		1.842e-02		-48.878		3.682e-03		12.061
7		0.00		6.40		1.855e-02		-50.166		4.031e-03		9.860
7		0.00		6.00		1.824e-02		-53.268		4.350e-03		13.748
7		0.00		5.60		1.782e-02		-49.320		4.759e-03		12.435
7		0.00		5.20		1.838e-02		-49.708		4.048e-03		9.722
7		0.00		4.80		1.774e-02		-53.279		3.553e-03		11.312
7		0.00		4.40		1.741e-02		-49.870		3.836e-03		10.218
7		0.00		4.00		1.731e-02		-48.412		4.179e-03		12.101
7		0.00		3.60		1.693e-02		-49.932		3.981e-03		11.265
7		0.00		3.20		1.795e-02		-47.622		3.368e-03		11.286
7		0.00		2.80		1.796e-02		-49.057		2.735e-03		9.213
7		0.00		2.40		1.768e-02		-48.761		3.562e-03		11.100
7		0.00		2.00		1.750e-02		-46.434		3.821e-03		11.338
7		0.00		1.60		1.742e-02		-48.625		3.699e-03		10.268
7		0.00		1.20		1.768e-02		-48.478		3.127e-03		9.459
7		0.00		0.80		1.777e-02		-50.533		3.028e-03		9.573
7		0.00		0.40		1.729e-02		-48.299		3.447e-03		8.049
7		0.00		0.00		1.746e-02		-47.908		4.012e-03		11.790
7		0.00		-0.40		1.717e-02		-47.132		3.788e-03		9.529
7		0.00		-0.80		1.696e-02		-48.227		3.246e-03		10.513
7		0.00		-1.20		1.701e-02		-48.075		3.219e-03		11.417
7		0.00		-1.60		1.705e-02		-49.638		3.263e-03		9.298
7		0.00		-2.00		1.623e-02		-47.103		3.712e-03		13.240
7		0.00		-2.40		1.585e-02		-48.427		3.633e-03		11.394
7		0.00		-2.80		1.549e-02		-49.765		3.003e-03		10.344
7		0.00		-3.20		1.596e-02		-47.413		2.820e-03		10.358
7		0.00		-3.60		1.493e-02		-50.434		2.963e-03		10.382
7		0.00		-4.00		1.411e-02		-50.318		2.883e-03		12.580
7		0.00		-4.40		1.333e-02		-46.273		3.210e-03		9.399
7		0.00		-4.80		1.311e-02		-45.771		2.577e-03		11.104
7		0.00		-5.20		1.245e-02		-45.855		2.154e-03		11.324
7		0.00		-5.60		1.197e-02		-43.930		2.242e-03		12.234
7		0.00		-6.00		1.079e-02		-46.613		2.176e-03		13.764
7		0.00		-6.40		1.070e-02		-40.138		2.221e-03		11.980
7		0.00		-6.80		9.646e-03		-46.842		1.889e-03		12.842
7		0.00		-7.20		9.140e-03		-44.997		1.687e-03		12.842
7		0.00		-7.60		8.026e-03		-41.505		1.701e-03		15.165
7		0.00		-8.00		7.654e-03		-44.328		1.817e-03		14.042
7		0.00		-8.40		6.028e-03		-39.979		1.472e-03		20.063
7		0.00		-8.80		5.287e-03		-35.151		1.321e-03		22.368
7		0.00		-9.20		4.329e-03		-34.817		1.319e-03		19.537
7		0.00		-9.60		3.603e-03		-45.256		1.112e-03		24.748
7		0.00		-10.00		2.113e-03		-49.986		8.517e-04		47.763
7		0.00		-9.60		2.073e-03		-41.172		7.562e-04		44.634
7		0.00		-9.20		1.983e-03		-7.153		8.402e-04		54.887
7		0.00		-8.80		1.851e-03		10.803		7.903e-04		64.940
7		0.00		-8.40		1.863e-03		12.600		7.866e-04		68.563
7		0.00		-8.00		2.033e-03		19.783		9.627e-04		70.677
7		0.00		-7.60		1.964e-03		28.224		8.781e-04		60.861
7		0.00		-7.20		1.941e-03		28.341		8.424e-04		62.845
7		0.00		-6.80		1.910e-03		8.818		8.375e-04		62.183
7		0.00		-6.40		1.800e-03		2.463		7.840e-04		69.253
7		0.00		-6.00		1.769e-03		9.630		7.332e-04		68.663
7		0.00		-5.60		1.762e-03		8.831		7.026e-04		63.096
7		0.00		-5.20		2.036e-03		11.008		8.300e-04		68.541
7		0.00		-4.80		1.895e-03		11.780		7.498e-04		71.713
7		0.00		-4.40		1.940e-03		13.723		7.729e-04		53.898
7		0.00		-4.00		1.829e-03		19.856		9.097e-04		59.497
7		0.00		-3.60		1.880e-03		-2.920		8.153e-04		66.801
7		0.00		-3.20		1.930e-03		35.467		8.349e-04		57.976
7		0.00		-2.80		1.844e-03		22.407		8.095e-04		57.128
7		0.00		-2.40		1.961e-03		9.438		6.473e-04		55.753
7		0.00		-2.00		1.781e-03		18.148		6.713e-04		66.654
7		0.00		-1.60		1.890e-03		25.972		8.296e-04		60.919
7		0.00		-1.20		1.886e-03		28.770		8.023e-04		66.766
7		0.00		-0.80		1.965e-03		39.720		8.465e-04		61.991
7		0.00		-0.40		1.888e-03		27.527		7.834e-04		63.062
8		0.00		0.00		1.967e-03		26.113		8.012e-04		58.633
8		0.00		0.40		1.881e-03		18.562		7.162e-04		63.228
8		0.00		0.80		1.975e-03		24.858		8.435e-04		56.007
8		0.00		1.20		1.888e-03		-0.978		7.894e-04		66.970
8		0.00		1.60		1.855e-03		33.600		9.572e-04		60.607
8		0.00		2.00		1.828e-03		21.539		7.688e-04		66.107
8		0.00		2.40		1.989e-03		5.813		9.497e-04		61.148
8		0.00		2.80		1.965e-03		-27.425		9.645e-04		64.339
8		0.00		3.20		2.049e-03		-37.525		7.453e-04		53.773
8		0.00		3.60		2.594e-03		-38.015		8.850e-04		35.372
8		0.00		4.00		2.972e-03		-31.527		1.071e-03		35.029
8		0.00		4.40		3.767e-03		-42.394		1.139e-03		30.858
8		0.00		4.80		4.248e-03		-50.994		1.296e-03		20.957
8		0.00		5.20		4.769e-03		-37.985		1.286e-03		20.475
8		0.00		5.60		6.054e-03		-43.359		1.585e-03		19.193
8		0.00		6.00		6.574e-03		-46.933		1.357e-03		16.090
8		0.00		6.40		7.737e-03		-47.908		1.450e-03		13.255
8		0.00		6.80		8.402e-03		-45.572		1.736e-03		12.620
8		0.00		7.20		9.295e-03		-46.853		1.996e-03		15.545
8		0.00		7.60		9.688e-03		-43.396		2.202e-03		16.254
8		0.00		8.00		1.029e-02		-48.820		2.572e-03		13.041
8		0.00		8.40		1.117e-02		-50.524		2.682e-03		14.897
8		0.00		8.80		1.253e-02		-52.408		2.848e-03		9.769
8		0.00		9.20		1.373e-02		-50.228		2.641e-03		10.467
8		0.00		9.60		1.471e-02		-48.099		2.772e-03		10.251
8		0.00		10.00		1.643e-02		-47.690		3.256e-03		11.375
8		0.00		9.60		1.719e-02		-49.760		3.959e-03		11.730
8		0.00		9.20		1.730e-02		-49.969		3.929e-03		16.183
8		0.00		8.80		1.764e-02		-50.626		3.950e-03		12.141
8		0.00		8.40		1.820e-02		-50.654		4.009e-03		10.544
8		0.00		8.00		1.845e-02		-53.561		3.698e-03		10.171
8		0.00		7.60		1.862e-02		-50.863		3.270e-03		10.281
8		0.00		7.20		1.890e-02		-49.753		3.561e-03		10.900
8		0.00		6.80		1.945e-02		-48.482		3.261e-03		10.277
8		0.00		6.40		1.897e-02		-48.622		3.521e-03		9.703
8		0.00		6.00		1.849e-02		-49.163		3.655e-03		10.779
8		0.00		5.60		1.812e-02		-47.893		3.609e-03		12.059
8		0.00		5.20		1.836e-02		-48.003		4.053e-03		8.716
8		0.00		4.80		1.852e-02		-49.386		4.070e-03		8.548
8		0.00		4.40		1.860e-02		-48.673		3.633e-03		9.428
8		0.00		4.00		1.891e-02		-48.977		3.198e-03		8.962
8		0.00		3.60		1.888e-02		-50.409		3.211e-03		10.161
8		0.00		3.20		1.880e-02		-50.169		3.001e-03		8.713
8		0.00		2.80		1.880e-02		-50.524		3.120e-03		9.516
8		0.00		2.40		1.840e-02		-49.144		3.339e-03		9.531
8		0.00		2.00		1.824e-02		-50.772		3.687e-03		11.443
8		0.00		1.60		1.740e-02		-50.289		3.820e-03		12.101
8		0.00		1.20		1.831e-02		-45.310		3.955e-03		8.768
8		0.00		0.80		1.805e-02		-47.031		3.599e-03		8.649
8		0.00		0.40		1.795e-02		-50.308		3.159e-03		10.171
8		0.00		0.00		1.793e-02		-49.388		3.054e-03		9.786
8		0.00		-0.40		1.789e-02		-50.551		3.063e-03		10.479
8		0.00		-0.80		1.788e-02		-46.963		3.101e-03		8.765
8		0.00		-1.20		1.698e-02		-50.805		3.113e-03		9.290
8		0.00		-1.60		1.707e-02		-47.748		3.262e-03		10.904
8		0.00		-2.00		1.642e-02		-48.722		3.724e-03		10.152
8		0.00		-2.40		1.600e-02		-49.168		3.366e-03		10.578
8		0.00		-2.80		1.588e-02		-45.978		2.767e-03		8.949
8		0.00		-3.20		1.498e-02		-48.263		3.054e-03		10.130
8		0.00		-3.60		1.493e-02		-50.768		2.704e-03		11.135
8		0.00		-4.00		1.445e-02		-45.003		2.648e-03		11.172
8		0.00		-4.40		1.356e-02		-48.168		2.428e-03		12.756
8		0.00		-4.80		1.314e-02		-50.558		2.412e-03		10.789
8		0.00		-5.20		1.235e-02		-45.671		3.068e-03		10.781
8		0.00		-5.60		1.149e-02		-48.184		2.819e-03		10.605
8		0.00		-6.00		1.121e-02		-47.398		2.653e-03		13.162
8		0.00		-6.40		1.074e-02		-43.804		2.125e-03		11.523
8		0.00		-6.80		1.028e-02		-51.058		2.031e-03		12.270
8		0.00		-7.20		9.304e-03		-51.649		1.834e-03		15.999
8		0.00		-7.60		8.201e-03		-46.462		1.903e-03		13.106
8		0.00		-8.00		7.135e-03		-41.258		1.541e-03		14.641
8		0.00		-8.40		5.808e-03		-33.029		1.653e-03		16.740
8		0.00		-8.80		5.322e-03		-39.843		1.460e-03		17.461
8		0.00		-9.20		4.715e-03		-38.357		1.344e-03		25.177
8		0.00		-9.60		3.780e-03		-29.328		1.232e-03		26.161
8		0.00		-10.00		3.176e-03		-40.551		1.050e-03		34.660
8		0.00		-9.60		2.502e-03		-18.135		1.175e-03		43.224
8		0.00		-9.20		2.022e-03		-38.004		8.089e-04		51.095
8		0.00		-8.80		2.050e-03		-14.972		8.019e-04		50.975
8		0.00		-8.40		2.049e-03		-10.376		6.906e-04		51.354
8		0.00		-8.00		1.780e-03		-13.362		7.763e-04		68.055
8		0.00		-7.60		1.960e-03		-14.025		8.005e-04		55.388
8		0.00		-7.20		1.618e-03		-24.079		6.939e-04		66.460
8		0.00		-6.80		2.112e-03		19.888		9.026e-04		45.645
8		0.00		-6.40		2.005e-03		1.581		9.480e-04		57.203
8		0.00		-6.00		2.221e-03		-24.874		9.160e-04		59.429
8		0.00		-5.60		1.968e-03		-15.554		7.862e-04		58.791
8		0.00		-5.20		2.012e-03		-0.462		8.461e-04		56.195
8		0.00		-4.80		2.148e-03		-13.689		7.684e-04		48.161
8		0.00		-4.40		1.949e-03		-8.241		7.641e-04		53.745
8		0.00		-4.00		2.055e-03		9.268		8.334e-04		56.316
8		0.00		-3.60		2.024e-03		1.850		7.205e-04		62.204
8		0.00		-3.20		1.737e-03		-5.422		6.551e-04		62.922
8		0.00		-2.80		1.730e-03		-6.879		8.088e-04		63.398
8		0.00		-2.40		1.852e-03		15.019		8.286e-04		62.075
8		0.00		-2.00		1.789e-03		-1.961		7.788e-04		63.766
8		0.00		-1.60		1.901e-03		-0.525		7.170e-04		61.014
8		0.00		-1.20		2.120e-03		30.457		8.511e-04		61.257
8		0.00		-0.80		1.948e-03		19.524		7.737e-04		60.561
8		0.00		-0.40		2.049e-03		6.278		8.645e-04		56.840
