# Date of analysis: 2024-03-08 10;58
# Segment other properties: height: -51.03513041297705, diff height: 541.9239950217332, deflection: 35.733024145339996, deflection error: 3.1220104851471224, adhesion: 25.463346872889602, phase offset: 0
# 
# Loop index	Read Volt (V)	Write Volt (V)	Amplitude (a.u)	Phase (deg)	Sigma Amp (a.u)	Sigma Pha (deg)	
1		0.00		0.00		2.061e-02		-57.244		4.980e-03		16.337
1		0.00		0.40		2.049e-02		-57.366		5.001e-03		16.146
1		0.00		0.80		1.998e-02		-56.740		5.391e-03		18.535
1		0.00		1.20		2.042e-02		-55.776		5.734e-03		18.305
1		0.00		1.60		1.999e-02		-54.794		6.184e-03		18.038
1		0.00		2.00		2.077e-02		-59.365		6.480e-03		18.475
1		0.00		2.40		2.249e-02		-58.067		6.924e-03		15.703
1		0.00		2.80		2.486e-02		-60.543		7.346e-03		17.906
1		0.00		3.20		2.855e-02		-57.650		7.525e-03		16.026
1		0.00		3.60		3.103e-02		-56.817		7.307e-03		14.325
1		0.00		4.00		3.294e-02		-56.237		7.300e-03		14.729
1		0.00		4.40		3.463e-02		-56.641		7.986e-03		14.589
1		0.00		4.80		3.660e-02		-55.658		8.891e-03		17.243
1		0.00		5.20		3.795e-02		-55.331		9.836e-03		16.125
1		0.00		5.60		4.046e-02		-54.309		1.056e-02		15.951
1		0.00		6.00		4.280e-02		-54.842		1.161e-02		15.829
1		0.00		6.40		4.411e-02		-58.279		1.223e-02		16.876
1		0.00		6.80		4.685e-02		-55.388		1.123e-02		14.924
1		0.00		7.20		4.985e-02		-55.219		1.073e-02		13.238
1		0.00		7.60		5.299e-02		-54.050		1.103e-02		11.897
1		0.00		8.00		5.448e-02		-53.688		1.222e-02		14.963
1		0.00		8.40		5.487e-02		-52.550		1.436e-02		14.309
1		0.00		8.80		5.577e-02		-51.183		1.538e-02		17.597
1		0.00		9.20		5.728e-02		-53.179		1.701e-02		16.247
1		0.00		9.60		6.001e-02		-54.549		1.905e-02		15.804
1		0.00		10.00		6.031e-02		-54.711		1.741e-02		14.120
1		0.00		9.60		6.120e-02		-52.458		1.456e-02		13.414
1		0.00		9.20		6.243e-02		-51.970		1.373e-02		12.853
1		0.00		8.80		6.062e-02		-53.301		1.317e-02		13.746
1		0.00		8.40		5.869e-02		-53.747		1.403e-02		15.295
1		0.00		8.00		5.774e-02		-53.429		1.241e-02		11.826
1		0.00		7.60		5.453e-02		-51.562		1.272e-02		11.377
1		0.00		7.20		5.452e-02		-53.992		1.373e-02		14.604
1		0.00		6.80		5.271e-02		-55.062		1.415e-02		13.557
1		0.00		6.40		5.283e-02		-56.031		1.298e-02		12.311
1		0.00		6.00		5.243e-02		-55.651		1.084e-02		10.306
1		0.00		5.60		5.235e-02		-53.701		9.644e-03		10.333
1		0.00		5.20		5.189e-02		-52.653		8.851e-03		9.819
1		0.00		4.80		5.072e-02		-53.423		1.006e-02		11.435
1		0.00		4.40		4.945e-02		-52.829		1.029e-02		12.448
1		0.00		4.00		4.787e-02		-53.762		1.239e-02		12.787
1		0.00		3.60		4.627e-02		-57.142		1.353e-02		17.741
1		0.00		3.20		4.705e-02		-57.088		1.416e-02		15.643
1		0.00		2.80		4.680e-02		-57.143		1.260e-02		14.847
1		0.00		2.40		4.773e-02		-56.407		1.135e-02		12.853
1		0.00		2.00		4.740e-02		-56.104		1.053e-02		11.166
1		0.00		1.60		4.657e-02		-57.333		1.109e-02		12.536
1		0.00		1.20		4.610e-02		-56.273		1.129e-02		14.626
1		0.00		0.80		4.495e-02		-56.130		1.133e-02		15.211
1		0.00		0.40		4.479e-02		-55.532		1.171e-02		13.831
1		0.00		0.00		4.431e-02		-54.327		1.112e-02		13.703
1		0.00		-0.40		4.382e-02		-55.728		1.099e-02		14.089
1		0.00		-0.80		4.273e-02		-57.442		1.061e-02		14.207
1		0.00		-1.20		4.264e-02		-57.194		9.555e-03		14.368
1		0.00		-1.60		4.145e-02		-56.526		9.154e-03		12.923
1		0.00		-2.00		4.110e-02		-55.147		8.718e-03		12.352
1		0.00		-2.40		3.824e-02		-54.889		8.111e-03		13.250
1		0.00		-2.80		3.647e-02		-55.396		8.188e-03		13.892
1		0.00		-3.20		3.484e-02		-54.317		7.757e-03		15.128
1		0.00		-3.60		3.218e-02		-54.392		8.023e-03		13.568
1		0.00		-4.00		3.067e-02		-54.892		7.874e-03		13.577
1		0.00		-4.40		2.839e-02		-55.889		7.289e-03		13.504
1		0.00		-4.80		2.617e-02		-55.529		6.020e-03		13.831
1		0.00		-5.20		2.427e-02		-53.707		4.975e-03		13.122
1		0.00		-5.60		2.073e-02		-53.618		4.134e-03		14.432
1		0.00		-6.00		1.902e-02		-54.396		3.843e-03		12.457
1		0.00		-6.40		1.649e-02		-52.591		3.790e-03		13.506
1		0.00		-6.80		1.349e-02		-51.584		3.642e-03		16.096
1		0.00		-7.20		1.096e-02		-53.209		3.488e-03		16.124
1		0.00		-7.60		9.074e-03		-45.786		3.070e-03		18.097
1		0.00		-8.00		7.627e-03		-42.095		2.697e-03		22.189
1		0.00		-8.40		5.525e-03		-41.454		2.198e-03		25.013
1		0.00		-8.80		5.206e-03		-43.556		1.875e-03		27.324
1		0.00		-9.20		4.703e-03		-36.612		1.996e-03		31.851
1		0.00		-9.60		4.200e-03		-47.618		1.786e-03		35.092
1		0.00		-10.00		3.386e-03		-41.568		1.552e-03		38.536
1		0.00		-9.60		3.300e-03		-37.046		1.461e-03		44.957
1		0.00		-9.20		3.204e-03		-34.635		1.517e-03		42.790
1		0.00		-8.80		3.105e-03		-35.943		1.577e-03		55.364
1		0.00		-8.40		2.789e-03		-18.878		1.405e-03		55.082
1		0.00		-8.00		2.888e-03		-29.625		1.483e-03		56.300
1		0.00		-7.60		3.090e-03		-36.724		1.512e-03		51.770
1		0.00		-7.20		3.114e-03		-39.462		1.563e-03		44.027
1		0.00		-6.80		3.392e-03		-25.948		1.522e-03		46.577
1		0.00		-6.40		3.909e-03		-43.280		1.566e-03		34.607
1		0.00		-6.00		4.021e-03		-33.993		1.730e-03		39.281
1		0.00		-5.60		4.249e-03		-31.652		1.787e-03		32.748
1		0.00		-5.20		4.784e-03		-34.141		1.909e-03		32.407
1		0.00		-4.80		5.111e-03		-54.135		1.697e-03		27.213
1		0.00		-4.40		5.441e-03		-42.260		1.662e-03		25.377
1		0.00		-4.00		6.206e-03		-53.759		1.992e-03		18.589
1		0.00		-3.60		6.629e-03		-52.339		2.101e-03		22.385
1		0.00		-3.20		7.063e-03		-54.719		2.434e-03		18.077
1		0.00		-2.80		7.371e-03		-44.710		2.508e-03		21.736
1		0.00		-2.40		7.826e-03		-49.727		2.545e-03		23.123
1		0.00		-2.00		8.604e-03		-50.091		2.559e-03		19.181
1		0.00		-1.60		9.014e-03		-54.802		2.678e-03		15.846
1		0.00		-1.20		9.218e-03		-52.894		2.513e-03		19.146
1		0.00		-0.80		9.865e-03		-52.766		2.804e-03		17.196
1		0.00		-0.40		1.019e-02		-56.472		3.079e-03		16.833
2		0.00		0.00		1.058e-02		-54.661		2.886e-03		14.843
2		0.00		0.40		1.095e-02		-57.503		3.099e-03		15.931
2		0.00		0.80		1.106e-02		-54.204		3.364e-03		16.431
2		0.00		1.20		1.147e-02		-56.087		3.404e-03		18.971
2		0.00		1.60		1.207e-02		-59.850		3.259e-03		18.033
2		0.00		2.00		1.385e-02		-60.827		3.544e-03		17.548
2		0.00		2.40		1.576e-02		-56.131		3.797e-03		14.596
2		0.00		2.80		1.687e-02		-58.826		4.068e-03		14.911
2		0.00		3.20		1.901e-02		-55.953		4.951e-03		15.879
2		0.00		3.60		2.136e-02		-56.015		5.775e-03		14.703
2		0.00		4.00		2.437e-02		-57.799		6.932e-03		14.212
2		0.00		4.40		2.749e-02		-58.272		7.210e-03		13.468
2		0.00		4.80		3.135e-02		-57.361		7.100e-03		13.947
2		0.00		5.20		3.511e-02		-58.190		7.377e-03		13.435
2		0.00		5.60		3.848e-02		-57.573		7.681e-03		12.060
2		0.00		6.00		4.240e-02		-55.707		8.159e-03		11.069
2		0.00		6.40		4.427e-02		-54.845		8.936e-03		12.063
2		0.00		6.80		4.647e-02		-55.262		1.036e-02		13.520
2		0.00		7.20		4.899e-02		-54.888		1.173e-02		12.338
2		0.00		7.60		4.989e-02		-55.773		1.316e-02		12.914
2		0.00		8.00		5.245e-02		-56.207		1.317e-02		12.302
2		0.00		8.40		5.468e-02		-55.861		1.180e-02		10.139
2		0.00		8.80		5.635e-02		-54.878		1.104e-02		9.706
2		0.00		9.20		5.724e-02		-54.219		1.074e-02		10.282
2		0.00		9.60		5.660e-02		-55.207		1.180e-02		12.642
2		0.00		10.00		5.709e-02		-53.537		1.208e-02		11.025
2		0.00		9.60		5.635e-02		-54.027		1.315e-02		12.628
2		0.00		9.20		5.501e-02		-53.362		1.422e-02		9.979
2		0.00		8.80		5.311e-02		-54.460		1.516e-02		14.934
2		0.00		8.40		5.117e-02		-55.770		1.493e-02		14.012
2		0.00		8.00		5.038e-02		-55.907		1.373e-02		13.579
2		0.00		7.60		4.971e-02		-56.279		1.211e-02		11.917
2		0.00		7.20		5.056e-02		-55.860		1.077e-02		9.749
2		0.00		6.80		5.077e-02		-55.374		9.548e-03		9.677
2		0.00		6.40		4.938e-02		-55.096		1.000e-02		12.101
2		0.00		6.00		4.874e-02		-55.978		9.851e-03		12.400
2		0.00		5.60		4.773e-02		-54.821		1.027e-02		13.385
2		0.00		5.20		4.650e-02		-55.754		1.104e-02		11.942
2		0.00		4.80		4.525e-02		-56.507		1.131e-02		14.739
2		0.00		4.40		4.527e-02		-57.388		1.096e-02		14.045
2		0.00		4.00		4.602e-02		-57.343		9.950e-03		12.396
2		0.00		3.60		4.612e-02		-56.584		8.924e-03		12.399
2		0.00		3.20		4.603e-02		-56.562		8.770e-03		11.214
2		0.00		2.80		4.595e-02		-55.416		8.692e-03		12.039
2		0.00		2.40		4.477e-02		-55.587		9.620e-03		13.905
2		0.00		2.00		4.342e-02		-53.873		1.144e-02		13.982
2		0.00		1.60		4.203e-02		-55.228		1.091e-02		13.276
2		0.00		1.20		4.269e-02		-56.415		1.080e-02		13.968
2		0.00		0.80		4.299e-02		-57.862		9.514e-03		13.004
2		0.00		0.40		4.306e-02		-56.853		8.515e-03		12.562
2		0.00		0.00		4.263e-02		-57.431		8.808e-03		13.003
2		0.00		-0.40		4.229e-02		-57.548		8.619e-03		12.773
2		0.00		-0.80		4.124e-02		-57.167		9.144e-03		13.194
2		0.00		-1.20		3.967e-02		-54.514		1.003e-02		12.718
2		0.00		-1.60		3.888e-02		-54.574		9.766e-03		14.020
2		0.00		-2.00		3.769e-02		-56.483		9.095e-03		14.045
2		0.00		-2.40		3.757e-02		-57.790		7.799e-03		12.264
2		0.00		-2.80		3.639e-02		-57.113		7.611e-03		12.548
2		0.00		-3.20		3.444e-02		-56.045		7.112e-03		12.120
2		0.00		-3.60		3.307e-02		-56.085		6.705e-03		12.421
2		0.00		-4.00		3.017e-02		-53.994		6.468e-03		14.921
2		0.00		-4.40		2.786e-02		-54.843		6.507e-03		13.898
2		0.00		-4.80		2.553e-02		-56.129		6.318e-03		13.911
2		0.00		-5.20		2.346e-02		-55.191		5.687e-03		12.801
2		0.00		-5.60		2.180e-02		-54.947		4.986e-03		11.761
2		0.00		-6.00		1.854e-02		-55.019		4.290e-03		13.858
2		0.00		-6.40		1.658e-02		-54.674		3.799e-03		13.911
2		0.00		-6.80		1.465e-02		-55.219		3.638e-03		14.821
2		0.00		-7.20		1.234e-02		-51.343		3.131e-03		17.815
2		0.00		-7.60		9.980e-03		-53.044		2.887e-03		17.833
2		0.00		-8.00		9.155e-03		-53.678		2.787e-03		15.261
2		0.00		-8.40		7.800e-03		-54.545		2.548e-03		19.804
2		0.00		-8.80		6.309e-03		-50.518		2.206e-03		22.099
2		0.00		-9.20		5.735e-03		-53.817		2.005e-03		22.252
2		0.00		-9.60		5.109e-03		-57.201		2.128e-03		28.979
2		0.00		-10.00		4.274e-03		-61.438		1.632e-03		28.733
2		0.00		-9.60		3.951e-03		-57.406		1.698e-03		26.927
2		0.00		-9.20		3.686e-03		-51.983		1.788e-03		35.229
2		0.00		-8.80		3.713e-03		-63.522		1.757e-03		36.384
2		0.00		-8.40		3.489e-03		-37.112		1.837e-03		40.645
2		0.00		-8.00		4.017e-03		-43.061		1.873e-03		37.997
2		0.00		-7.60		4.682e-03		-55.608		1.989e-03		24.021
2		0.00		-7.20		4.864e-03		-53.774		2.015e-03		25.058
2		0.00		-6.80		4.985e-03		-50.912		1.939e-03		25.660
2		0.00		-6.40		5.364e-03		-52.244		1.886e-03		25.694
2		0.00		-6.00		5.939e-03		-55.874		2.157e-03		20.279
2		0.00		-5.60		6.217e-03		-57.699		2.472e-03		19.365
2		0.00		-5.20		7.141e-03		-51.886		2.252e-03		19.217
2		0.00		-4.80		7.663e-03		-53.245		2.353e-03		20.033
2		0.00		-4.40		8.345e-03		-53.318		2.251e-03		16.302
2		0.00		-4.00		8.965e-03		-55.591		2.387e-03		15.654
2		0.00		-3.60		9.788e-03		-56.140		2.669e-03		18.054
2		0.00		-3.20		1.043e-02		-54.431		2.574e-03		16.198
2		0.00		-2.80		1.098e-02		-55.746		2.980e-03		17.905
2		0.00		-2.40		1.101e-02		-54.677		3.026e-03		18.640
2		0.00		-2.00		1.176e-02		-58.154		3.024e-03		16.513
2		0.00		-1.60		1.242e-02		-57.394		3.301e-03		15.175
2		0.00		-1.20		1.300e-02		-54.341		3.125e-03		14.939
2		0.00		-0.80		1.362e-02		-56.932		3.054e-03		14.969
2		0.00		-0.40		1.407e-02		-59.811		3.372e-03		16.151
3		0.00		0.00		1.473e-02		-56.340		3.242e-03		16.242
3		0.00		0.40		1.480e-02		-56.928		3.289e-03		17.935
3		0.00		0.80		1.545e-02		-55.270		3.731e-03		14.502
3		0.00		1.20		1.552e-02		-57.026		4.062e-03		17.937
3		0.00		1.60		1.636e-02		-58.355		4.076e-03		16.151
3		0.00		2.00		1.682e-02		-56.594		3.816e-03		16.164
3		0.00		2.40		1.746e-02		-61.487		3.919e-03		15.491
3		0.00		2.80		1.848e-02		-58.040		4.551e-03		16.776
3		0.00		3.20		1.953e-02		-57.323		4.856e-03		16.369
3		0.00		3.60		2.094e-02		-55.840		5.378e-03		15.492
3		0.00		4.00		2.253e-02		-56.580		6.055e-03		13.343
3		0.00		4.40		2.459e-02		-58.219		6.427e-03		13.754
3		0.00		4.80		2.662e-02		-59.407		6.210e-03		13.193
3		0.00		5.20		2.905e-02		-58.485		6.583e-03		13.992
3		0.00		5.60		3.139e-02		-58.309		6.711e-03		12.457
3		0.00		6.00		3.399e-02		-57.256		7.506e-03		14.431
3		0.00		6.40		3.717e-02		-56.083		8.410e-03		13.978
3		0.00		6.80		3.880e-02		-55.689		9.357e-03		13.159
3		0.00		7.20		4.258e-02		-58.182		9.868e-03		12.599
3		0.00		7.60		4.550e-02		-56.842		9.112e-03		12.027
3		0.00		8.00		4.916e-02		-55.873		9.402e-03		10.520
3		0.00		8.40		5.054e-02		-55.711		9.856e-03		10.768
3		0.00		8.80		5.198e-02		-55.276		1.074e-02		12.617
3		0.00		9.20		5.262e-02		-55.647		1.243e-02		11.925
3		0.00		9.60		5.260e-02		-55.442		1.357e-02		13.808
3		0.00		10.00		5.307e-02		-55.805		1.223e-02		12.277
3		0.00		9.60		5.358e-02		-55.765		1.005e-02		10.630
3		0.00		9.20		5.270e-02		-54.341		9.985e-03		10.377
3		0.00		8.80		5.197e-02		-55.835		1.046e-02		13.586
3		0.00		8.40		5.057e-02		-55.402		1.121e-02		13.959
3		0.00		8.00		4.855e-02		-54.619		1.189e-02		12.011
3		0.00		7.60		4.740e-02		-56.557		1.148e-02		12.325
3		0.00		7.20		4.709e-02		-56.390		9.269e-03		11.990
3		0.00		6.80		4.816e-02		-56.012		8.555e-03		10.539
3		0.00		6.40		4.802e-02		-54.999		8.481e-03		10.704
3		0.00		6.00		4.621e-02		-55.283		8.944e-03		12.978
3		0.00		5.60		4.401e-02		-54.689		1.049e-02		12.186
3		0.00		5.20		4.383e-02		-55.144		1.015e-02		12.457
3		0.00		4.80		4.451e-02		-56.544		9.027e-03		12.348
3		0.00		4.40		4.470e-02		-57.508		8.302e-03		11.151
3		0.00		4.00		4.535e-02		-56.109		8.191e-03		9.747
3		0.00		3.60		4.451e-02		-56.326		8.833e-03		11.689
3		0.00		3.20		4.342e-02		-55.357		9.436e-03		11.120
3		0.00		2.80		4.245e-02		-55.981		1.017e-02		12.954
3		0.00		2.40		4.217e-02		-56.315		9.596e-03		13.598
3		0.00		2.00		4.283e-02		-57.820		8.644e-03		13.107
3		0.00		1.60		4.319e-02		-57.437		8.065e-03		11.940
3		0.00		1.20		4.290e-02		-56.857		9.090e-03		12.493
3		0.00		0.80		4.213e-02		-57.147		9.239e-03		13.756
3		0.00		0.40		4.019e-02		-54.578		1.049e-02		12.008
3		0.00		0.00		3.949e-02		-55.858		9.748e-03		13.534
3		0.00		-0.40		3.983e-02		-58.701		9.017e-03		12.932
3		0.00		-0.80		3.879e-02		-58.166		8.390e-03		13.709
3		0.00		-1.20		3.806e-02		-57.074		8.190e-03		12.678
3		0.00		-1.60		3.685e-02		-57.927		8.552e-03		15.232
3		0.00		-2.00		3.473e-02		-54.387		9.063e-03		12.460
3		0.00		-2.40		3.442e-02		-56.503		9.464e-03		15.041
3		0.00		-2.80		3.322e-02		-56.945		8.536e-03		13.002
3		0.00		-3.20		3.256e-02		-57.919		7.372e-03		14.101
3		0.00		-3.60		3.050e-02		-57.287		6.349e-03		12.809
3		0.00		-4.00		2.892e-02		-57.107		5.822e-03		12.903
3		0.00		-4.40		2.744e-02		-55.711		5.595e-03		14.996
3		0.00		-4.80		2.495e-02		-54.274		5.383e-03		15.198
3		0.00		-5.20		2.225e-02		-55.694		5.463e-03		13.705
3		0.00		-5.60		2.065e-02		-54.631		4.694e-03		13.565
3		0.00		-6.00		1.826e-02		-56.491		3.953e-03		14.299
3		0.00		-6.40		1.669e-02		-55.240		3.536e-03		14.921
3		0.00		-6.80		1.494e-02		-55.374		3.290e-03		16.095
3		0.00		-7.20		1.277e-02		-54.506		3.145e-03		16.095
3		0.00		-7.60		1.091e-02		-51.951		2.994e-03		16.479
3		0.00		-8.00		9.591e-03		-55.898		2.973e-03		18.151
3		0.00		-8.40		9.226e-03		-55.728		2.882e-03		15.703
3		0.00		-8.80		7.848e-03		-53.135		2.387e-03		18.448
3		0.00		-9.20		6.564e-03		-53.720		2.134e-03		20.091
3		0.00		-9.60		5.688e-03		-58.063		1.942e-03		23.014
3		0.00		-10.00		4.769e-03		-61.753		1.853e-03		27.305
3		0.00		-9.60		4.664e-03		-65.869		1.778e-03		23.516
3		0.00		-9.20		4.003e-03		-58.441		1.564e-03		35.080
3		0.00		-8.80		3.912e-03		-62.056		1.703e-03		30.601
3		0.00		-8.40		3.872e-03		-60.649		1.631e-03		26.583
3		0.00		-8.00		3.903e-03		-63.016		1.682e-03		26.308
3		0.00		-7.60		4.275e-03		-55.260		1.634e-03		28.736
3		0.00		-7.20		4.366e-03		-54.524		1.678e-03		24.561
3		0.00		-6.80		4.903e-03		-65.172		2.177e-03		24.619
3		0.00		-6.40		5.526e-03		-53.695		1.929e-03		23.221
3		0.00		-6.00		6.417e-03		-59.338		2.158e-03		16.657
3		0.00		-5.60		6.913e-03		-62.429		2.073e-03		18.809
3		0.00		-5.20		7.820e-03		-58.958		2.115e-03		18.632
3		0.00		-4.80		8.157e-03		-61.878		2.316e-03		17.455
3		0.00		-4.40		8.961e-03		-58.194		2.232e-03		17.926
3		0.00		-4.00		9.566e-03		-55.677		2.302e-03		17.761
3		0.00		-3.60		9.946e-03		-52.278		2.707e-03		17.521
3		0.00		-3.20		1.028e-02		-56.096		2.760e-03		17.768
3		0.00		-2.80		1.113e-02		-58.128		2.791e-03		13.743
3		0.00		-2.40		1.135e-02		-59.050		2.749e-03		15.863
3		0.00		-2.00		1.210e-02		-56.374		3.193e-03		19.155
3		0.00		-1.60		1.286e-02		-56.098		3.306e-03		19.211
3		0.00		-1.20		1.346e-02		-53.016		3.704e-03		15.030
3		0.00		-0.80		1.310e-02		-53.154		3.783e-03		15.114
3		0.00		-0.40		1.413e-02		-55.868		3.966e-03		16.372
4		0.00		0.00		1.475e-02		-59.235		3.488e-03		16.697
4		0.00		0.40		1.540e-02		-59.522		3.598e-03		16.946
4		0.00		0.80		1.584e-02		-58.263		3.743e-03		16.556
4		0.00		1.20		1.662e-02		-57.671		3.878e-03		16.758
4		0.00		1.60		1.691e-02		-56.229		3.889e-03		18.118
4		0.00		2.00		1.725e-02		-58.240		4.236e-03		16.169
4		0.00		2.40		1.793e-02		-55.849		4.075e-03		14.645
4		0.00		2.80		1.914e-02		-59.103		4.072e-03		14.221
4		0.00		3.20		2.004e-02		-59.061		3.831e-03		14.460
4		0.00		3.60		2.175e-02		-57.313		3.972e-03		13.423
4		0.00		4.00		2.296e-02		-57.292		4.190e-03		14.311
4		0.00		4.40		2.535e-02		-58.632		5.605e-03		14.062
4		0.00		4.80		2.567e-02		-56.891		6.483e-03		14.455
4		0.00		5.20		2.728e-02		-56.349		7.259e-03		13.645
4		0.00		5.60		2.919e-02		-58.748		6.946e-03		12.568
4		0.00		6.00		3.237e-02		-58.385		6.497e-03		11.590
4		0.00		6.40		3.575e-02		-56.960		6.536e-03		11.231
4		0.00		6.80		3.797e-02		-56.419		7.085e-03		10.951
4		0.00		7.20		4.049e-02		-57.098		7.916e-03		12.236
4		0.00		7.60		4.327e-02		-54.955		9.077e-03		11.154
4		0.00		8.00		4.386e-02		-54.915		1.074e-02		12.986
4		0.00		8.40		4.555e-02		-56.810		1.167e-02		14.733
4		0.00		8.80		4.793e-02		-55.769		1.103e-02		12.712
4		0.00		9.20		5.143e-02		-55.736		9.741e-03		11.991
4		0.00		9.60		5.331e-02		-55.007		9.493e-03		9.664
4		0.00		10.00		5.412e-02		-54.737		9.166e-03		8.614
4		0.00		9.60		5.302e-02		-53.688		9.781e-03		9.752
4		0.00		9.20		5.217e-02		-53.384		1.025e-02		10.318
4		0.00		8.80		5.006e-02		-53.633		1.115e-02		10.190
4		0.00		8.40		4.931e-02		-54.207		1.192e-02		12.414
4		0.00		8.00		4.830e-02		-56.112		1.113e-02		11.825
4		0.00		7.60		4.772e-02		-56.484		9.624e-03		11.664
4		0.00		7.20		4.686e-02		-55.483		8.601e-03		11.178
4		0.00		6.80		4.661e-02		-55.161		8.247e-03		9.951
4		0.00		6.40		4.633e-02		-54.949		8.557e-03		10.778
4		0.00		6.00		4.489e-02		-55.875		9.542e-03		13.089
4		0.00		5.60		4.440e-02		-56.642		9.810e-03		15.340
4		0.00		5.20		4.278e-02		-54.694		1.041e-02		13.196
4		0.00		4.80		4.157e-02		-55.156		1.150e-02		13.195
4		0.00		4.40		4.122e-02		-58.640		1.089e-02		14.372
4		0.00		4.00		4.121e-02		-58.344		9.820e-03		13.222
4		0.00		3.60		4.157e-02		-58.342		9.242e-03		12.836
4		0.00		3.20		4.159e-02		-57.308		8.408e-03		12.263
4		0.00		2.80		4.217e-02		-57.239		8.147e-03		11.111
4		0.00		2.40		4.194e-02		-56.215		7.544e-03		12.185
4		0.00		2.00		4.179e-02		-55.486		8.261e-03		12.496
4		0.00		1.60		4.119e-02		-54.817		8.002e-03		11.901
4		0.00		1.20		4.042e-02		-55.087		9.006e-03		11.477
4		0.00		0.80		4.016e-02		-55.867		9.168e-03		13.383
4		0.00		0.40		3.966e-02		-55.905		9.246e-03		13.004
4		0.00		0.00		3.949e-02		-56.803		8.977e-03		13.854
4		0.00		-0.40		3.994e-02		-58.798		7.982e-03		12.793
4		0.00		-0.80		3.956e-02		-58.208		7.540e-03		13.248
4		0.00		-1.20		3.927e-02		-57.051		7.779e-03		13.443
4		0.00		-1.60		3.923e-02		-56.456		8.391e-03		11.899
4		0.00		-2.00		3.786e-02		-56.764		7.701e-03		12.220
4		0.00		-2.40		3.604e-02		-55.514		7.473e-03		13.370
4		0.00		-2.80		3.495e-02		-55.321		6.759e-03		12.818
4		0.00		-3.20		3.251e-02		-55.138		7.747e-03		11.894
4		0.00		-3.60		3.128e-02		-54.378		7.446e-03		13.028
4		0.00		-4.00		2.889e-02		-55.025		7.236e-03		13.948
4		0.00		-4.40		2.769e-02		-55.716		7.198e-03		12.297
4		0.00		-4.80		2.534e-02		-55.488		5.934e-03		13.464
4		0.00		-5.20		2.339e-02		-54.738		4.804e-03		12.642
4		0.00		-5.60		2.132e-02		-55.303		4.471e-03		13.876
4		0.00		-6.00		1.930e-02		-53.054		4.022e-03		12.193
4		0.00		-6.40		1.829e-02		-53.300		4.011e-03		12.683
4		0.00		-6.80		1.560e-02		-52.565		3.489e-03		13.640
4		0.00		-7.20		1.413e-02		-53.659		3.367e-03		13.801
4		0.00		-7.60		1.139e-02		-56.537		2.944e-03		18.773
4		0.00		-8.00		1.010e-02		-56.446		2.903e-03		19.499
4		0.00		-8.40		8.810e-03		-55.179		2.745e-03		17.029
4		0.00		-8.80		7.762e-03		-48.792		2.625e-03		17.297
4		0.00		-9.20		6.148e-03		-57.987		2.242e-03		27.026
4		0.00		-9.60		5.802e-03		-55.195		2.199e-03		22.025
4		0.00		-10.00		4.203e-03		-52.716		2.071e-03		37.873
4		0.00		-9.60		4.282e-03		-61.311		2.076e-03		28.772
4		0.00		-9.20		3.715e-03		-63.116		1.826e-03		35.060
4		0.00		-8.80		3.927e-03		-61.857		1.690e-03		28.186
4		0.00		-8.40		3.855e-03		-60.096		1.598e-03		33.747
4		0.00		-8.00		4.333e-03		-71.513		1.896e-03		29.345
4		0.00		-7.60		3.953e-03		-55.256		1.977e-03		37.476
4		0.00		-7.20		5.149e-03		-61.061		2.170e-03		28.938
4		0.00		-6.80		5.669e-03		-62.096		1.909e-03		25.155
4		0.00		-6.40		5.938e-03		-56.654		2.336e-03		24.184
4		0.00		-6.00		6.342e-03		-57.213		1.977e-03		21.937
4		0.00		-5.60		7.071e-03		-65.913		2.152e-03		17.205
4		0.00		-5.20		8.120e-03		-56.668		2.175e-03		15.539
4		0.00		-4.80		8.548e-03		-56.216		2.363e-03		17.265
4		0.00		-4.40		9.509e-03		-58.140		2.469e-03		15.691
4		0.00		-4.00		1.026e-02		-57.961		2.493e-03		15.088
4		0.00		-3.60		1.050e-02		-58.281		2.670e-03		16.692
4		0.00		-3.20		1.127e-02		-53.971		3.015e-03		17.559
4		0.00		-2.80		1.163e-02		-55.966		3.257e-03		17.348
4		0.00		-2.40		1.198e-02		-55.349		3.486e-03		16.986
4		0.00		-2.00		1.230e-02		-57.071		3.386e-03		17.056
4		0.00		-1.60		1.296e-02		-58.643		3.166e-03		14.506
4		0.00		-1.20		1.359e-02		-59.908		3.002e-03		15.394
4		0.00		-0.80		1.437e-02		-61.006		3.297e-03		13.263
4		0.00		-0.40		1.460e-02		-59.838		3.366e-03		14.344
5		0.00		0.00		1.529e-02		-62.149		3.569e-03		14.667
5		0.00		0.40		1.516e-02		-61.431		3.573e-03		14.107
5		0.00		0.80		1.587e-02		-57.934		3.578e-03		14.600
5		0.00		1.20		1.607e-02		-56.690		4.047e-03		15.036
5		0.00		1.60		1.648e-02		-55.515		3.968e-03		14.363
5		0.00		2.00		1.696e-02		-58.361		4.367e-03		17.387
5		0.00		2.40		1.721e-02		-59.896		4.750e-03		15.608
5		0.00		2.80		1.827e-02		-59.130		4.815e-03		14.634
5		0.00		3.20		1.975e-02		-60.259		4.541e-03		13.174
5		0.00		3.60		2.161e-02		-59.234		4.891e-03		12.818
5		0.00		4.00		2.273e-02		-56.917		4.281e-03		11.839
5		0.00		4.40		2.485e-02		-58.958		4.810e-03		11.796
5		0.00		4.80		2.632e-02		-56.810		4.918e-03		11.737
5		0.00		5.20		2.873e-02		-57.519		5.524e-03		11.915
5		0.00		5.60		2.934e-02		-56.898		6.390e-03		13.586
5		0.00		6.00		3.111e-02		-56.361		7.291e-03		13.347
5		0.00		6.40		3.348e-02		-58.242		8.668e-03		15.211
5		0.00		6.80		3.518e-02		-55.827		9.500e-03		12.874
5		0.00		7.20		3.840e-02		-57.824		1.084e-02		16.205
5		0.00		7.60		4.057e-02		-56.483		1.228e-02		15.328
5		0.00		8.00		4.304e-02		-58.049		1.285e-02		13.600
5		0.00		8.40		4.513e-02		-57.193		1.322e-02		13.032
5		0.00		8.80		4.686e-02		-57.861		1.236e-02		12.529
5		0.00		9.20		4.950e-02		-56.429		1.153e-02		11.181
5		0.00		9.60		5.066e-02		-56.042		1.011e-02		9.348
5		0.00		10.00		5.166e-02		-55.717		9.544e-03		9.228
5		0.00		9.60		5.080e-02		-54.925		9.475e-03		10.449
5		0.00		9.20		4.972e-02		-55.109		9.255e-03		10.340
5		0.00		8.80		4.950e-02		-54.810		9.914e-03		9.550
5		0.00		8.40		4.841e-02		-53.695		9.228e-03		10.213
5		0.00		8.00		4.606e-02		-55.604		9.324e-03		12.179
5		0.00		7.60		4.626e-02		-55.289		9.640e-03		11.899
5		0.00		7.20		4.480e-02		-54.980		1.007e-02		13.465
5		0.00		6.80		4.432e-02		-56.906		9.690e-03		14.605
5		0.00		6.40		4.300e-02		-55.909		1.083e-02		14.504
5		0.00		6.00		4.230e-02		-56.901		1.136e-02		15.634
5		0.00		5.60		4.165e-02		-57.972		1.145e-02		16.642
5		0.00		5.20		4.149e-02		-56.024		1.132e-02		14.434
5		0.00		4.80		4.073e-02		-56.665		1.172e-02		14.096
5		0.00		4.40		4.038e-02		-57.015		1.195e-02		14.483
5		0.00		4.00		3.990e-02		-58.185		1.168e-02		13.693
5		0.00		3.60		4.007e-02		-57.356		1.113e-02		13.036
5		0.00		3.20		4.059e-02		-57.655		1.049e-02		12.425
5		0.00		2.80		4.086e-02		-57.281		9.453e-03		11.863
5		0.00		2.40		4.083e-02		-57.567		8.726e-03		12.276
5		0.00		2.00		4.126e-02		-57.560		8.299e-03		10.374
5		0.00		1.60		4.034e-02		-57.308		7.655e-03		11.639
5		0.00		1.20		4.070e-02		-56.838		7.962e-03		11.950
5		0.00		0.80		4.018e-02		-56.879		7.672e-03		11.291
5		0.00		0.40		4.040e-02		-56.528		7.566e-03		10.545
5		0.00		0.00		4.029e-02		-57.053		7.941e-03		12.058
5		0.00		-0.40		4.030e-02		-55.647		7.662e-03		11.695
5		0.00		-0.80		3.968e-02		-56.024		8.138e-03		11.970
5		0.00		-1.20		3.849e-02		-55.370		8.308e-03		11.965
5		0.00		-1.60		3.677e-02		-57.040		9.070e-03		16.612
5		0.00		-2.00		3.601e-02		-56.743		9.022e-03		14.870
5		0.00		-2.40		3.447e-02		-56.440		8.936e-03		12.699
5		0.00		-2.80		3.299e-02		-57.047		8.281e-03		15.776
5		0.00		-3.20		3.106e-02		-56.848		8.642e-03		14.829
5		0.00		-3.60		2.934e-02		-56.001		8.324e-03		13.692
5		0.00		-4.00		2.749e-02		-57.650		7.900e-03		13.721
5		0.00		-4.40		2.599e-02		-58.342		7.384e-03		15.045
5		0.00		-4.80		2.447e-02		-56.763		6.887e-03		14.376
5		0.00		-5.20		2.243e-02		-56.920		5.542e-03		12.967
5		0.00		-5.60		2.062e-02		-56.870		5.101e-03		12.973
5		0.00		-6.00		1.863e-02		-61.157		4.798e-03		13.770
5		0.00		-6.40		1.580e-02		-56.424		3.984e-03		14.905
5		0.00		-6.80		1.340e-02		-56.247		3.746e-03		13.068
5		0.00		-7.20		1.162e-02		-54.358		3.639e-03		15.891
5		0.00		-7.60		1.007e-02		-59.293		3.154e-03		15.433
5		0.00		-8.00		9.004e-03		-56.860		3.089e-03		18.520
5		0.00		-8.40		8.762e-03		-59.116		2.825e-03		17.699
5		0.00		-8.80		7.702e-03		-56.751		2.626e-03		17.566
5		0.00		-9.20		6.137e-03		-56.281		2.583e-03		19.995
5		0.00		-9.60		5.014e-03		-57.629		2.287e-03		25.412
5		0.00		-10.00		3.435e-03		-46.852		2.059e-03		51.606
5		0.00		-9.60		3.560e-03		-58.684		1.912e-03		45.875
5		0.00		-9.20		3.689e-03		-58.269		1.891e-03		39.414
5		0.00		-8.80		2.794e-03		-31.724		1.564e-03		73.460
5		0.00		-8.40		3.398e-03		-53.312		1.715e-03		49.844
5		0.00		-8.00		3.704e-03		-63.705		1.819e-03		32.375
5		0.00		-7.60		3.664e-03		-50.520		1.843e-03		41.459
5		0.00		-7.20		3.538e-03		-60.437		1.645e-03		33.665
5		0.00		-6.80		3.456e-03		-41.463		1.845e-03		39.977
5		0.00		-6.40		4.450e-03		-65.124		2.020e-03		32.312
5		0.00		-6.00		4.433e-03		-62.190		1.893e-03		33.177
5		0.00		-5.60		5.518e-03		-61.130		2.325e-03		29.721
5		0.00		-5.20		6.421e-03		-59.082		2.531e-03		22.808
5		0.00		-4.80		7.077e-03		-56.629		2.188e-03		21.866
5		0.00		-4.40		8.117e-03		-59.858		2.468e-03		16.367
5		0.00		-4.00		8.894e-03		-58.390		2.643e-03		17.506
5		0.00		-3.60		9.143e-03		-59.141		2.458e-03		16.809
5		0.00		-3.20		1.032e-02		-57.980		2.688e-03		15.148
5		0.00		-2.80		1.073e-02		-53.300		2.771e-03		16.466
5		0.00		-2.40		1.111e-02		-59.308		2.779e-03		15.094
5		0.00		-2.00		1.176e-02		-57.847		2.904e-03		12.048
5		0.00		-1.60		1.196e-02		-58.698		2.995e-03		15.632
5		0.00		-1.20		1.249e-02		-61.681		3.201e-03		15.565
5		0.00		-0.80		1.289e-02		-56.974		2.994e-03		14.656
5		0.00		-0.40		1.298e-02		-56.734		3.164e-03		14.165
6		0.00		0.00		1.383e-02		-59.463		3.232e-03		14.767
6		0.00		0.40		1.410e-02		-60.935		3.445e-03		16.111
6		0.00		0.80		1.437e-02		-57.703		3.432e-03		14.008
6		0.00		1.20		1.518e-02		-59.516		3.848e-03		16.592
6		0.00		1.60		1.553e-02		-57.708		3.877e-03		13.381
6		0.00		2.00		1.615e-02		-57.287		4.463e-03		14.452
6		0.00		2.40		1.675e-02		-58.462		4.637e-03		16.164
6		0.00		2.80		1.700e-02		-58.498		4.670e-03		16.339
6		0.00		3.20		1.820e-02		-59.408		4.595e-03		13.672
6		0.00		3.60		1.958e-02		-59.761		4.867e-03		15.253
6		0.00		4.00		2.116e-02		-59.371		5.010e-03		13.809
6		0.00		4.40		2.301e-02		-60.375		5.156e-03		12.713
6		0.00		4.80		2.545e-02		-58.864		5.437e-03		11.408
6		0.00		5.20		2.669e-02		-58.326		5.248e-03		10.991
6		0.00		5.60		2.854e-02		-58.259		5.408e-03		10.988
6		0.00		6.00		2.952e-02		-59.222		5.601e-03		11.889
6		0.00		6.40		3.294e-02		-56.786		5.920e-03		10.913
6		0.00		6.80		3.489e-02		-56.553		6.261e-03		10.438
6		0.00		7.20		3.747e-02		-56.397		7.118e-03		11.609
6		0.00		7.60		4.049e-02		-54.475		8.025e-03		11.380
6		0.00		8.00		4.307e-02		-55.888		9.082e-03		12.100
6		0.00		8.40		4.570e-02		-55.202		9.986e-03		12.280
6		0.00		8.80		4.714e-02		-54.938		1.061e-02		12.762
6		0.00		9.20		4.820e-02		-55.424		1.106e-02		14.744
6		0.00		9.60		4.941e-02		-54.742		1.219e-02		13.076
6		0.00		10.00		5.005e-02		-54.929		1.324e-02		14.829
6		0.00		9.60		4.956e-02		-55.410		1.314e-02		13.066
6		0.00		9.20		4.874e-02		-56.090		1.266e-02		12.283
6		0.00		8.80		4.778e-02		-56.171		1.155e-02		11.655
6		0.00		8.40		4.680e-02		-55.759		1.009e-02		11.358
6		0.00		8.00		4.728e-02		-56.096		9.755e-03		10.398
6		0.00		7.60		4.669e-02		-55.086		8.953e-03		10.509
6		0.00		7.20		4.556e-02		-54.956		8.280e-03		9.554
6		0.00		6.80		4.491e-02		-54.526		8.500e-03		9.806
6		0.00		6.40		4.416e-02		-55.557		8.541e-03		10.887
6		0.00		6.00		4.391e-02		-56.003		8.563e-03		10.118
6		0.00		5.60		4.223e-02		-56.812		8.841e-03		11.839
6		0.00		5.20		4.190e-02		-54.618		8.981e-03		11.280
6		0.00		4.80		4.131e-02		-55.616		9.048e-03		11.474
6		0.00		4.40		3.972e-02		-56.285		9.477e-03		14.802
6		0.00		4.00		4.064e-02		-56.963		1.024e-02		15.374
6		0.00		3.60		3.904e-02		-58.377		1.004e-02		17.835
6		0.00		3.20		3.930e-02		-55.819		1.047e-02		13.202
6		0.00		2.80		3.913e-02		-57.380		1.006e-02		14.795
6		0.00		2.40		3.906e-02		-58.492		1.029e-02		13.901
6		0.00		2.00		3.900e-02		-57.782		1.010e-02		13.375
6		0.00		1.60		3.951e-02		-58.284		9.269e-03		12.994
6		0.00		1.20		3.959e-02		-57.168		8.623e-03		12.378
6		0.00		0.80		4.016e-02		-57.072		7.766e-03		10.940
6		0.00		0.40		3.980e-02		-58.347		7.557e-03		11.462
6		0.00		0.00		3.910e-02		-57.803		7.324e-03		12.324
6		0.00		-0.40		3.899e-02		-57.247		7.440e-03		11.502
6		0.00		-0.80		3.869e-02		-57.142		7.713e-03		12.048
6		0.00		-1.20		3.744e-02		-56.642		7.772e-03		11.953
6		0.00		-1.60		3.675e-02		-56.259		8.250e-03		12.758
6		0.00		-2.00		3.572e-02		-56.720		8.575e-03		13.715
6		0.00		-2.40		3.442e-02		-55.286		8.748e-03		14.494
6		0.00		-2.80		3.263e-02		-55.725		8.525e-03		15.270
6		0.00		-3.20		3.123e-02		-56.903		8.447e-03		12.721
6		0.00		-3.60		3.015e-02		-57.775		8.051e-03		12.523
6		0.00		-4.00		2.903e-02		-56.974		7.311e-03		13.127
6		0.00		-4.40		2.816e-02		-57.839		6.369e-03		12.094
6		0.00		-4.80		2.541e-02		-56.707		5.109e-03		11.904
6		0.00		-5.20		2.351e-02		-56.813		4.432e-03		11.153
6		0.00		-5.60		2.196e-02		-56.402		4.072e-03		11.465
6		0.00		-6.00		1.981e-02		-54.551		4.055e-03		11.691
6		0.00		-6.40		1.716e-02		-54.411		3.565e-03		12.184
6		0.00		-6.80		1.508e-02		-54.862		3.489e-03		12.812
6		0.00		-7.20		1.261e-02		-57.847		3.512e-03		15.165
6		0.00		-7.60		1.138e-02		-56.735		3.328e-03		12.971
6		0.00		-8.00		9.518e-03		-53.428		3.010e-03		17.273
6		0.00		-8.40		8.491e-03		-58.003		2.793e-03		19.236
6		0.00		-8.80		7.298e-03		-63.804		2.547e-03		16.474
6		0.00		-9.20		6.272e-03		-70.400		2.373e-03		19.964
6		0.00		-9.60		5.964e-03		-58.872		2.435e-03		21.770
6		0.00		-10.00		5.371e-03		-65.234		2.161e-03		31.800
6		0.00		-9.60		5.149e-03		-68.496		2.145e-03		25.081
6		0.00		-9.20		5.480e-03		-56.107		2.018e-03		24.894
6		0.00		-8.80		5.188e-03		-63.815		2.145e-03		23.927
6		0.00		-8.40		5.112e-03		-61.610		1.930e-03		28.630
6		0.00		-8.00		5.181e-03		-54.651		2.034e-03		22.630
6		0.00		-7.60		5.898e-03		-64.406		2.233e-03		20.515
6		0.00		-7.20		5.846e-03		-57.059		2.432e-03		20.452
6		0.00		-6.80		7.005e-03		-62.341		2.037e-03		18.443
6		0.00		-6.40		7.838e-03		-58.213		2.081e-03		16.862
6		0.00		-6.00		8.429e-03		-58.254		2.483e-03		17.570
6		0.00		-5.60		8.983e-03		-53.220		2.350e-03		15.825
6		0.00		-5.20		9.587e-03		-56.208		2.397e-03		14.887
6		0.00		-4.80		1.056e-02		-58.830		2.618e-03		15.991
6		0.00		-4.40		1.108e-02		-56.049		2.995e-03		14.426
6		0.00		-4.00		1.149e-02		-56.143		2.993e-03		14.731
6		0.00		-3.60		1.239e-02		-56.517		2.872e-03		16.179
6		0.00		-3.20		1.312e-02		-55.094		2.907e-03		14.827
6		0.00		-2.80		1.347e-02		-54.562		2.871e-03		13.709
6		0.00		-2.40		1.384e-02		-54.931		3.176e-03		15.520
6		0.00		-2.00		1.398e-02		-59.246		3.238e-03		13.623
6		0.00		-1.60		1.415e-02		-55.422		3.468e-03		14.509
6		0.00		-1.20		1.441e-02		-56.100		3.705e-03		15.059
6		0.00		-0.80		1.470e-02		-59.675		3.466e-03		15.709
6		0.00		-0.40		1.548e-02		-57.319		3.563e-03		16.264
7		0.00		0.00		1.594e-02		-60.012		3.688e-03		16.762
7		0.00		0.40		1.604e-02		-57.622		3.557e-03		14.054
7		0.00		0.80		1.631e-02		-56.556		3.544e-03		14.674
7		0.00		1.20		1.672e-02		-56.033		3.785e-03		15.649
7		0.00		1.60		1.689e-02		-57.376		4.227e-03		14.461
7		0.00		2.00		1.716e-02		-54.552		4.326e-03		15.039
7		0.00		2.40		1.811e-02		-55.672		4.168e-03		13.484
7		0.00		2.80		1.908e-02		-58.709		3.928e-03		12.839
7		0.00		3.20		1.978e-02		-58.929		3.862e-03		14.017
7		0.00		3.60		2.124e-02		-56.306		3.841e-03		13.049
7		0.00		4.00		2.295e-02		-57.345		4.772e-03		15.678
7		0.00		4.40		2.349e-02		-55.878		5.175e-03		12.380
7		0.00		4.80		2.512e-02		-56.085		5.705e-03		13.252
7		0.00		5.20		2.679e-02		-57.149		6.065e-03		12.328
7		0.00		5.60		2.883e-02		-56.668		5.846e-03		12.043
7		0.00		6.00		3.127e-02		-57.654		6.271e-03		12.177
7		0.00		6.40		3.226e-02		-56.552		6.291e-03		12.365
7		0.00		6.80		3.491e-02		-55.720		6.893e-03		10.850
7		0.00		7.20		3.623e-02		-55.305		8.327e-03		11.449
7		0.00		7.60		3.889e-02		-55.921		9.933e-03		13.668
7		0.00		8.00		4.028e-02		-56.104		1.018e-02		13.410
7		0.00		8.40		4.325e-02		-57.850		9.504e-03		11.449
7		0.00		8.80		4.598e-02		-55.923		8.425e-03		10.766
7		0.00		9.20		4.923e-02		-56.759		9.183e-03		9.966
7		0.00		9.60		5.124e-02		-55.083		9.156e-03		10.941
7		0.00		10.00		5.084e-02		-52.670		1.033e-02		9.968
7		0.00		9.60		5.031e-02		-53.361		1.137e-02		12.165
7		0.00		9.20		4.940e-02		-54.796		1.149e-02		11.563
7		0.00		8.80		4.902e-02		-56.422		9.774e-03		11.014
7		0.00		8.40		4.886e-02		-55.930		8.102e-03		10.140
7		0.00		8.00		4.855e-02		-55.942		8.340e-03		8.734
7		0.00		7.60		4.788e-02		-55.313		7.920e-03		8.940
7		0.00		7.20		4.618e-02		-53.920		7.975e-03		12.655
7		0.00		6.80		4.439e-02		-54.072		9.373e-03		11.449
7		0.00		6.40		4.416e-02		-56.009		9.776e-03		12.329
7		0.00		6.00		4.337e-02		-55.218		9.525e-03		11.659
7		0.00		5.60		4.362e-02		-57.144		8.313e-03		11.699
7		0.00		5.20		4.354e-02		-57.152		7.611e-03		11.794
7		0.00		4.80		4.339e-02		-55.635		7.604e-03		10.190
7		0.00		4.40		4.318e-02		-55.734		7.888e-03		9.886
7		0.00		4.00		4.234e-02		-55.966		7.875e-03		11.499
7		0.00		3.60		4.102e-02		-54.832		9.137e-03		13.146
7		0.00		3.20		3.976e-02		-54.919		9.202e-03		12.445
7		0.00		2.80		3.927e-02		-56.475		8.980e-03		12.004
7		0.00		2.40		4.001e-02		-58.176		8.315e-03		12.532
7		0.00		2.00		4.073e-02		-57.860		7.760e-03		11.878
7		0.00		1.60		4.126e-02		-57.640		7.354e-03		10.750
7		0.00		1.20		4.107e-02		-56.723		7.425e-03		10.999
7		0.00		0.80		4.058e-02		-55.887		7.731e-03		11.915
7		0.00		0.40		3.996e-02		-56.100		8.292e-03		12.951
7		0.00		0.00		3.887e-02		-54.752		9.026e-03		12.076
7		0.00		-0.40		3.890e-02		-55.407		9.044e-03		12.437
7		0.00		-0.80		3.960e-02		-56.197		8.952e-03		12.797
7		0.00		-1.20		3.973e-02		-58.339		8.119e-03		12.301
7		0.00		-1.60		3.933e-02		-57.664		7.857e-03		10.877
7		0.00		-2.00		3.942e-02		-56.859		7.427e-03		9.572
7		0.00		-2.40		3.844e-02		-56.786		7.655e-03		10.101
7		0.00		-2.80		3.677e-02		-57.206		8.142e-03		13.550
7		0.00		-3.20		3.517e-02		-55.111		8.375e-03		12.370
7		0.00		-3.60		3.382e-02		-55.317		8.596e-03		13.829
7		0.00		-4.00		3.212e-02		-56.228		8.208e-03		11.976
7		0.00		-4.40		3.045e-02		-56.944		7.485e-03		11.938
7		0.00		-4.80		2.886e-02		-60.178		6.671e-03		12.435
7		0.00		-5.20		2.717e-02		-57.660		5.957e-03		11.264
7		0.00		-5.60		2.548e-02		-56.302		5.128e-03		11.155
7		0.00		-6.00		2.394e-02		-56.317		4.591e-03		10.782
7		0.00		-6.40		2.184e-02		-54.903		3.959e-03		12.095
7		0.00		-6.80		1.926e-02		-53.889		3.921e-03		11.804
7		0.00		-7.20		1.627e-02		-54.823		3.605e-03		13.087
7		0.00		-7.60		1.488e-02		-56.823		3.519e-03		14.474
7		0.00		-8.00		1.202e-02		-55.913		2.961e-03		14.649
7		0.00		-8.40		1.040e-02		-56.551		3.003e-03		15.946
7		0.00		-8.80		9.128e-03		-54.358		2.453e-03		14.885
7		0.00		-9.20		8.354e-03		-63.034		2.583e-03		14.805
7		0.00		-9.60		6.621e-03		-64.041		2.217e-03		23.900
7		0.00		-10.00		5.640e-03		-58.910		2.192e-03		24.592
7		0.00		-9.60		4.963e-03		-70.831		2.016e-03		24.510
7		0.00		-9.20		4.863e-03		-65.892		1.911e-03		30.148
7		0.00		-8.80		4.704e-03		-63.570		2.025e-03		25.947
7		0.00		-8.40		4.864e-03		-67.121		1.666e-03		24.803
7		0.00		-8.00		5.420e-03		-61.550		1.983e-03		22.247
7		0.00		-7.60		5.595e-03		-57.370		1.884e-03		19.903
7		0.00		-7.20		5.935e-03		-58.449		2.087e-03		27.322
7		0.00		-6.80		5.707e-03		-63.469		2.101e-03		22.105
7		0.00		-6.40		6.056e-03		-58.908		1.915e-03		26.603
7		0.00		-6.00		6.976e-03		-62.333		2.019e-03		17.514
7		0.00		-5.60		7.826e-03		-59.075		2.180e-03		13.670
7		0.00		-5.20		7.967e-03		-59.347		2.392e-03		18.524
7		0.00		-4.80		9.006e-03		-55.386		2.783e-03		15.009
7		0.00		-4.40		9.634e-03		-56.729		2.427e-03		15.150
7		0.00		-4.00		1.051e-02		-54.158		2.478e-03		14.629
7		0.00		-3.60		1.034e-02		-51.578		2.669e-03		15.313
7		0.00		-3.20		1.164e-02		-56.929		2.697e-03		13.474
7		0.00		-2.80		1.167e-02		-55.466		3.178e-03		14.609
7		0.00		-2.40		1.255e-02		-55.180		3.047e-03		14.797
7		0.00		-2.00		1.323e-02		-51.524		3.334e-03		14.978
7		0.00		-1.60		1.356e-02		-58.042		3.284e-03		13.303
7		0.00		-1.20		1.341e-02		-55.766		3.465e-03		15.430
7		0.00		-0.80		1.391e-02		-58.275		3.636e-03		15.862
7		0.00		-0.40		1.388e-02		-56.494		3.520e-03		17.390
8		0.00		0.00		1.456e-02		-56.381		3.609e-03		16.290
8		0.00		0.40		1.477e-02		-58.549		3.621e-03		16.682
8		0.00		0.80		1.518e-02		-59.459		3.554e-03		16.024
8		0.00		1.20		1.535e-02		-58.978		3.547e-03		15.820
8		0.00		1.60		1.613e-02		-61.140		3.806e-03		15.490
8		0.00		2.00		1.646e-02		-61.763		3.747e-03		15.089
8		0.00		2.40		1.722e-02		-57.563		3.884e-03		16.549
8		0.00		2.80		1.801e-02		-59.505		3.750e-03		14.386
8		0.00		3.20		1.896e-02		-58.287		4.008e-03		13.716
8		0.00		3.60		2.014e-02		-56.199		4.098e-03		13.527
8		0.00		4.00		2.135e-02		-56.568		4.675e-03		18.252
8		0.00		4.40		2.317e-02		-56.501		5.143e-03		15.487
8		0.00		4.80		2.466e-02		-56.826		5.509e-03		14.843
8		0.00		5.20		2.577e-02		-56.721		6.079e-03		13.720
8		0.00		5.60		2.696e-02		-54.378		6.097e-03		12.531
8		0.00		6.00		2.898e-02		-56.600		6.664e-03		12.566
8		0.00		6.40		3.168e-02		-56.612		6.948e-03		12.435
8		0.00		6.80		3.330e-02		-56.751		7.246e-03		11.538
8		0.00		7.20		3.540e-02		-57.559		7.455e-03		12.142
8		0.00		7.60		3.878e-02		-57.433		7.637e-03		10.737
8		0.00		8.00		4.075e-02		-57.156		7.646e-03		11.197
8		0.00		8.40		4.412e-02		-57.074		8.069e-03		10.382
8		0.00		8.80		4.605e-02		-56.050		7.904e-03		9.839
8		0.00		9.20		4.857e-02		-55.660		7.696e-03		9.343
8		0.00		9.60		5.061e-02		-55.860		7.958e-03		9.531
8		0.00		10.00		5.174e-02		-55.540		8.260e-03		9.065
8		0.00		9.60		5.242e-02		-54.351		8.215e-03		9.264
8		0.00		9.20		5.104e-02		-53.854		8.242e-03		9.889
8		0.00		8.80		5.017e-02		-55.300		8.377e-03		9.862
8		0.00		8.40		4.840e-02		-55.115		8.434e-03		11.776
8		0.00		8.00		4.706e-02		-54.501		8.344e-03		12.177
8		0.00		7.60		4.574e-02		-55.209		8.831e-03		13.443
8		0.00		7.20		4.470e-02		-54.881		8.892e-03		11.753
8		0.00		6.80		4.339e-02		-54.443		9.075e-03		11.656
8		0.00		6.40		4.338e-02		-55.176		9.436e-03		10.422
8		0.00		6.00		4.244e-02		-55.031		9.063e-03		10.765
8		0.00		5.60		4.173e-02		-56.363		9.341e-03		11.586
8		0.00		5.20		4.139e-02		-55.749		9.322e-03		11.414
8		0.00		4.80		4.097e-02		-57.774		9.225e-03		12.642
8		0.00		4.40		4.067e-02		-57.350		8.959e-03		12.459
8		0.00		4.00		4.049e-02		-58.414		8.428e-03		12.144
8		0.00		3.60		4.062e-02		-58.969		8.332e-03		12.121
8		0.00		3.20		4.056e-02		-57.421		8.453e-03		12.094
8		0.00		2.80		3.972e-02		-58.385		8.554e-03		11.557
8		0.00		2.40		3.922e-02		-57.878		8.260e-03		11.771
8		0.00		2.00		4.010e-02		-56.885		7.867e-03		10.960
8		0.00		1.60		4.007e-02		-56.964		7.611e-03		10.566
8		0.00		1.20		3.976e-02		-56.069		7.599e-03		11.390
8		0.00		0.80		3.947e-02		-56.536		7.833e-03		14.425
8		0.00		0.40		3.890e-02		-56.113		8.198e-03		13.624
8		0.00		0.00		3.905e-02		-56.103		8.382e-03		12.983
8		0.00		-0.40		3.796e-02		-56.025		8.381e-03		11.474
8		0.00		-0.80		3.748e-02		-55.433		8.155e-03		12.500
8		0.00		-1.20		3.768e-02		-56.762		8.001e-03		12.624
8		0.00		-1.60		3.711e-02		-57.092		7.787e-03		13.028
8		0.00		-2.00		3.693e-02		-56.852		7.583e-03		12.087
8		0.00		-2.40		3.725e-02		-58.074		7.342e-03		11.508
8		0.00		-2.80		3.636e-02		-57.360		7.072e-03		11.935
8		0.00		-3.20		3.552e-02		-56.131		6.688e-03		12.175
8		0.00		-3.60		3.368e-02		-56.486		6.651e-03		11.679
8		0.00		-4.00		3.247e-02		-56.446		6.480e-03		10.630
8		0.00		-4.40		3.085e-02		-55.589		6.091e-03		11.115
8		0.00		-4.80		2.907e-02		-54.228		5.929e-03		11.631
8		0.00		-5.20		2.741e-02		-54.271		5.699e-03		10.989
8		0.00		-5.60		2.532e-02		-57.520		5.571e-03		12.408
8		0.00		-6.00		2.359e-02		-57.422		5.316e-03		13.108
8		0.00		-6.40		2.129e-02		-55.846		4.958e-03		14.881
8		0.00		-6.80		1.860e-02		-53.622		4.443e-03		14.208
8		0.00		-7.20		1.679e-02		-57.151		3.829e-03		13.688
8		0.00		-7.60		1.440e-02		-53.875		3.471e-03		14.563
8		0.00		-8.00		1.297e-02		-53.800		3.311e-03		13.121
8		0.00		-8.40		1.165e-02		-55.021		2.708e-03		13.165
8		0.00		-8.80		1.045e-02		-58.515		2.534e-03		14.911
8		0.00		-9.20		1.008e-02		-60.255		2.363e-03		13.065
8		0.00		-9.60		9.322e-03		-60.683		2.371e-03		17.129
8		0.00		-10.00		7.541e-03		-51.163		2.219e-03		23.431
8		0.00		-9.60		7.044e-03		-58.177		2.061e-03		19.050
8		0.00		-9.20		6.687e-03		-56.133		1.878e-03		17.898
8		0.00		-8.80		6.848e-03		-57.142		2.156e-03		20.958
8		0.00		-8.40		6.637e-03		-51.806		2.114e-03		18.021
8		0.00		-8.00		7.013e-03		-61.794		2.179e-03		17.702
8		0.00		-7.60		6.985e-03		-54.266		2.332e-03		15.937
8		0.00		-7.20		8.177e-03		-57.585		2.308e-03		17.068
8		0.00		-6.80		8.336e-03		-57.863		2.251e-03		14.497
8		0.00		-6.40		8.713e-03		-58.052		2.348e-03		17.473
8		0.00		-6.00		8.920e-03		-58.486		2.638e-03		15.368
8		0.00		-5.60		9.755e-03		-57.532		2.420e-03		15.590
8		0.00		-5.20		1.063e-02		-61.598		2.675e-03		13.880
8		0.00		-4.80		1.101e-02		-56.168		2.731e-03		14.863
8		0.00		-4.40		1.203e-02		-60.215		2.868e-03		12.782
8		0.00		-4.00		1.277e-02		-59.488		2.993e-03		14.834
8		0.00		-3.60		1.299e-02		-56.724		3.037e-03		13.230
8		0.00		-3.20		1.418e-02		-55.744		3.180e-03		13.206
8		0.00		-2.80		1.447e-02		-56.323		3.004e-03		13.594
8		0.00		-2.40		1.469e-02		-58.146		3.115e-03		14.715
8		0.00		-2.00		1.467e-02		-56.360		3.166e-03		13.102
8		0.00		-1.60		1.520e-02		-56.592		3.435e-03		13.673
8		0.00		-1.20		1.590e-02		-56.975		3.723e-03		14.553
8		0.00		-0.80		1.562e-02		-56.585		3.662e-03		13.720
8		0.00		-0.40		1.609e-02		-59.182		4.316e-03		15.062
