# Date of analysis: 2023-11-20 16;19
# 
# Loop index	Read Volt (V)	Write Volt (V)	Amplitude (a.u)	Phase (deg)	Sigma Amp (a.u)	Sigma Pha (deg)	
1		0.00		0.00		2.298e-02		-50.711		5.824e-03		12.392
1		0.00		0.40		2.285e-02		-50.875		6.051e-03		13.244
1		0.00		0.80		2.341e-02		-53.467		5.691e-03		8.674
1		0.00		1.20		2.327e-02		-52.558		4.922e-03		9.818
1		0.00		1.60		2.293e-02		-52.371		5.150e-03		9.790
1		0.00		2.00		2.251e-02		-51.696		5.918e-03		11.610
1		0.00		2.40		2.242e-02		-52.289		6.404e-03		15.891
1		0.00		2.80		2.297e-02		-49.648		6.237e-03		9.724
1		0.00		3.20		2.408e-02		-51.693		5.425e-03		8.310
1		0.00		3.60		2.368e-02		-52.011		5.311e-03		10.954
1		0.00		4.00		2.341e-02		-53.378		6.157e-03		11.335
1		0.00		4.40		2.371e-02		-52.063		6.465e-03		16.226
1		0.00		4.80		2.392e-02		-50.388		7.038e-03		10.894
1		0.00		5.20		2.474e-02		-54.277		6.577e-03		8.743
1		0.00		5.60		2.525e-02		-55.436		5.893e-03		10.135
1		0.00		6.00		2.566e-02		-51.808		5.861e-03		11.244
1		0.00		6.40		2.587e-02		-52.071		6.347e-03		14.190
1		0.00		6.80		2.672e-02		-50.622		6.842e-03		11.952
1		0.00		7.20		2.747e-02		-54.224		6.446e-03		9.314
1		0.00		7.60		2.815e-02		-52.006		6.075e-03		9.482
1		0.00		8.00		2.956e-02		-52.101		6.162e-03		9.295
1		0.00		8.40		2.955e-02		-52.913		6.797e-03		10.776
1		0.00		8.80		3.144e-02		-52.318		8.233e-03		14.803
1		0.00		9.20		3.353e-02		-51.666		8.920e-03		8.944
1		0.00		9.60		3.623e-02		-51.793		8.203e-03		7.705
1		0.00		10.00		3.839e-02		-54.123		8.584e-03		8.108
1		0.00		9.60		3.962e-02		-52.270		8.729e-03		8.126
1		0.00		9.20		3.944e-02		-52.668		1.031e-02		12.972
1		0.00		8.80		3.936e-02		-52.684		1.111e-02		11.144
1		0.00		8.40		4.042e-02		-52.332		1.081e-02		8.789
1		0.00		8.00		4.183e-02		-54.174		9.426e-03		7.107
1		0.00		7.60		3.998e-02		-52.252		8.866e-03		8.517
1		0.00		7.20		4.043e-02		-52.169		9.333e-03		9.566
1		0.00		6.80		3.819e-02		-52.871		1.060e-02		15.432
1		0.00		6.40		3.799e-02		-52.679		1.117e-02		11.634
1		0.00		6.00		3.821e-02		-54.049		9.882e-03		8.087
1		0.00		5.60		3.866e-02		-52.292		8.232e-03		7.185
1		0.00		5.20		3.746e-02		-52.371		8.292e-03		8.140
1		0.00		4.80		3.696e-02		-52.086		9.140e-03		10.639
1		0.00		4.40		3.648e-02		-50.814		9.599e-03		11.307
1		0.00		4.00		3.656e-02		-52.568		9.600e-03		9.295
1		0.00		3.60		3.808e-02		-52.408		8.684e-03		6.371
1		0.00		3.20		3.786e-02		-52.588		7.667e-03		8.091
1		0.00		2.80		3.712e-02		-53.334		7.931e-03		9.046
1		0.00		2.40		3.637e-02		-53.126		8.493e-03		10.780
1		0.00		2.00		3.596e-02		-52.946		9.660e-03		16.135
1		0.00		1.60		3.632e-02		-52.396		9.498e-03		8.732
1		0.00		1.20		3.658e-02		-52.042		8.801e-03		7.676
1		0.00		0.80		3.604e-02		-52.028		8.220e-03		8.020
1		0.00		0.40		3.541e-02		-53.358		8.416e-03		9.107
1		0.00		0.00		3.451e-02		-51.789		9.834e-03		11.540
1		0.00		-0.40		3.372e-02		-54.075		1.018e-02		15.178
1		0.00		-0.80		3.354e-02		-52.055		1.052e-02		8.836
1		0.00		-1.20		3.364e-02		-52.428		8.832e-03		7.061
1		0.00		-1.60		3.308e-02		-52.755		7.747e-03		7.401
1		0.00		-2.00		3.243e-02		-53.260		8.411e-03		9.444
1		0.00		-2.40		3.131e-02		-53.092		8.580e-03		13.308
1		0.00		-2.80		3.038e-02		-50.570		8.889e-03		14.258
1		0.00		-3.20		2.918e-02		-53.672		7.801e-03		9.248
1		0.00		-3.60		2.640e-02		-53.306		5.945e-03		8.942
1		0.00		-4.00		2.380e-02		-52.888		4.644e-03		10.030
1		0.00		-4.40		1.953e-02		-50.418		3.937e-03		10.737
1		0.00		-4.80		1.557e-02		-47.838		3.684e-03		13.249
1		0.00		-5.20		1.213e-02		-54.369		3.092e-03		13.909
1		0.00		-5.60		9.083e-03		-48.028		2.201e-03		13.534
1		0.00		-6.00		5.251e-03		-51.679		1.523e-03		20.405
1		0.00		-6.40		2.535e-03		-11.147		1.003e-03		47.108
1		0.00		-6.80		3.297e-03		78.254		1.407e-03		53.235
1		0.00		-7.20		5.768e-03		108.671		1.965e-03		35.277
1		0.00		-7.60		8.770e-03		117.617		3.205e-03		24.319
1		0.00		-8.00		1.075e-02		123.250		3.333e-03		11.853
1		0.00		-8.40		1.263e-02		124.593		3.681e-03		10.281
1		0.00		-8.80		1.440e-02		125.841		3.936e-03		11.912
1		0.00		-9.20		1.552e-02		122.643		4.376e-03		15.529
1		0.00		-9.60		1.596e-02		121.068		5.142e-03		18.371
1		0.00		-10.00		1.758e-02		125.763		5.290e-03		10.852
1		0.00		-9.60		1.784e-02		123.313		4.201e-03		8.117
1		0.00		-9.20		1.780e-02		119.957		4.484e-03		10.893
1		0.00		-8.80		1.679e-02		124.240		4.558e-03		11.485
1		0.00		-8.40		1.643e-02		124.687		4.876e-03		17.056
1		0.00		-8.00		1.689e-02		126.011		4.863e-03		10.385
1		0.00		-7.60		1.781e-02		125.045		4.214e-03		8.956
1		0.00		-7.20		1.684e-02		125.890		4.081e-03		10.509
1		0.00		-6.80		1.635e-02		126.306		4.053e-03		10.990
1		0.00		-6.40		1.517e-02		124.917		4.240e-03		18.697
1		0.00		-6.00		1.396e-02		123.894		4.028e-03		14.589
1		0.00		-5.60		1.433e-02		125.370		3.582e-03		9.341
1		0.00		-5.20		1.384e-02		124.002		3.174e-03		9.172
1		0.00		-4.80		1.275e-02		126.665		3.175e-03		11.413
1		0.00		-4.40		1.204e-02		125.800		3.145e-03		13.168
1		0.00		-4.00		1.138e-02		121.670		3.406e-03		20.653
1		0.00		-3.60		1.078e-02		123.596		3.017e-03		10.989
1		0.00		-3.20		1.051e-02		123.478		3.013e-03		11.842
1		0.00		-2.80		1.008e-02		122.806		2.868e-03		10.952
1		0.00		-2.40		9.438e-03		126.006		2.799e-03		21.111
1		0.00		-2.00		8.690e-03		121.454		2.854e-03		20.795
1		0.00		-1.60		8.679e-03		120.167		2.772e-03		23.507
1		0.00		-1.20		8.291e-03		124.477		2.698e-03		19.146
1		0.00		-0.80		8.005e-03		123.856		2.186e-03		16.949
1		0.00		-0.40		7.555e-03		123.716		2.077e-03		16.194
2		0.00		0.00		7.463e-03		120.266		2.127e-03		17.158
2		0.00		0.40		6.741e-03		125.365		2.307e-03		27.398
2		0.00		0.80		6.598e-03		115.738		2.111e-03		23.685
2		0.00		1.20		5.834e-03		123.288		1.940e-03		18.802
2		0.00		1.60		5.659e-03		120.835		1.928e-03		29.551
2		0.00		2.00		4.533e-03		120.248		1.708e-03		44.022
2		0.00		2.40		3.885e-03		110.018		1.543e-03		47.330
2		0.00		2.80		3.187e-03		79.966		1.104e-03		83.380
2		0.00		3.20		2.271e-03		63.612		1.012e-03		77.421
2		0.00		3.60		1.976e-03		7.935		8.183e-04		80.914
2		0.00		4.00		1.858e-03		-23.703		7.873e-04		66.702
2		0.00		4.40		2.425e-03		-61.423		8.749e-04		39.609
2		0.00		4.80		3.475e-03		-48.716		1.110e-03		26.655
2		0.00		5.20		4.578e-03		-52.645		1.328e-03		22.456
2		0.00		5.60		5.961e-03		-53.441		1.600e-03		19.629
2		0.00		6.00		7.495e-03		-57.801		2.040e-03		18.887
2		0.00		6.40		9.226e-03		-54.591		2.604e-03		14.002
2		0.00		6.80		1.092e-02		-51.669		2.730e-03		12.199
2		0.00		7.20		1.251e-02		-53.477		2.737e-03		10.564
2		0.00		7.60		1.465e-02		-51.771		3.247e-03		10.893
2		0.00		8.00		1.706e-02		-54.988		3.605e-03		10.321
2		0.00		8.40		1.817e-02		-55.879		4.609e-03		13.268
2		0.00		8.80		2.085e-02		-52.320		5.637e-03		13.533
2		0.00		9.20		2.312e-02		-53.746		6.180e-03		10.227
2		0.00		9.60		2.650e-02		-51.233		6.487e-03		9.028
2		0.00		10.00		3.091e-02		-54.393		6.265e-03		8.136
2		0.00		9.60		3.183e-02		-53.288		6.649e-03		8.680
2		0.00		9.20		3.241e-02		-51.657		6.754e-03		9.835
2		0.00		8.80		3.304e-02		-52.915		7.757e-03		11.201
2		0.00		8.40		3.248e-02		-51.543		8.437e-03		14.706
2		0.00		8.00		3.286e-02		-52.652		8.668e-03		10.464
2		0.00		7.60		3.323e-02		-53.002		8.049e-03		7.666
2		0.00		7.20		3.353e-02		-53.987		7.199e-03		7.550
2		0.00		6.80		3.283e-02		-52.956		7.519e-03		9.071
2		0.00		6.40		3.219e-02		-52.500		8.168e-03		9.948
2		0.00		6.00		3.129e-02		-53.120		8.598e-03		14.170
2		0.00		5.60		3.054e-02		-54.027		9.288e-03		17.645
2		0.00		5.20		3.038e-02		-52.917		8.828e-03		10.218
2		0.00		4.80		3.089e-02		-54.026		7.684e-03		7.774
2		0.00		4.40		3.072e-02		-54.008		7.129e-03		8.183
2		0.00		4.00		3.016e-02		-53.693		7.052e-03		9.278
2		0.00		3.60		2.993e-02		-51.674		7.464e-03		9.677
2		0.00		3.20		2.911e-02		-52.614		8.115e-03		12.839
2		0.00		2.80		2.840e-02		-53.801		8.180e-03		12.098
2		0.00		2.40		2.920e-02		-53.262		7.115e-03		8.397
2		0.00		2.00		2.956e-02		-52.032		6.162e-03		7.663
2		0.00		1.60		2.994e-02		-52.891		5.992e-03		8.979
2		0.00		1.20		2.907e-02		-51.990		6.612e-03		10.609
2		0.00		0.80		2.880e-02		-51.550		7.313e-03		13.691
2		0.00		0.40		2.885e-02		-51.581		7.555e-03		12.635
2		0.00		0.00		2.839e-02		-52.979		7.146e-03		9.255
2		0.00		-0.40		2.932e-02		-53.149		6.484e-03		8.439
2		0.00		-0.80		2.918e-02		-52.964		6.399e-03		8.960
2		0.00		-1.20		2.857e-02		-52.651		6.166e-03		9.839
2		0.00		-1.60		2.760e-02		-52.151		6.805e-03		12.192
2		0.00		-2.00		2.684e-02		-52.478		7.523e-03		15.493
2		0.00		-2.40		2.626e-02		-52.115		7.521e-03		10.120
2		0.00		-2.80		2.592e-02		-52.884		6.599e-03		8.427
2		0.00		-3.20		2.478e-02		-53.122		5.401e-03		8.031
2		0.00		-3.60		2.391e-02		-53.641		5.190e-03		9.046
2		0.00		-4.00		2.177e-02		-52.843		4.652e-03		10.293
2		0.00		-4.40		1.806e-02		-52.477		4.854e-03		14.548
2		0.00		-4.80		1.547e-02		-51.004		4.282e-03		14.426
2		0.00		-5.20		1.195e-02		-51.166		3.474e-03		12.972
2		0.00		-5.60		8.729e-03		-51.145		2.262e-03		11.716
2		0.00		-6.00		4.950e-03		-62.803		1.474e-03		20.358
2		0.00		-6.40		2.193e-03		-31.843		8.928e-04		49.565
2		0.00		-6.80		2.824e-03		80.225		1.321e-03		55.870
2		0.00		-7.20		6.437e-03		123.793		2.034e-03		24.345
2		0.00		-7.60		9.201e-03		121.938		2.650e-03		22.935
2		0.00		-8.00		1.074e-02		124.365		3.338e-03		13.544
2		0.00		-8.40		1.203e-02		122.319		3.233e-03		11.567
2		0.00		-8.80		1.454e-02		124.575		3.169e-03		9.678
2		0.00		-9.20		1.549e-02		125.500		3.348e-03		10.685
2		0.00		-9.60		1.724e-02		127.665		3.981e-03		10.021
2		0.00		-10.00		1.732e-02		125.994		4.721e-03		14.956
2		0.00		-9.60		1.730e-02		124.126		5.135e-03		21.323
2		0.00		-9.20		1.736e-02		122.948		5.100e-03		13.061
2		0.00		-8.80		1.797e-02		124.472		5.108e-03		8.788
2		0.00		-8.40		1.745e-02		124.463		4.467e-03		9.605
2		0.00		-8.00		1.750e-02		125.986		4.139e-03		9.323
2		0.00		-7.60		1.713e-02		124.605		4.376e-03		9.349
2		0.00		-7.20		1.692e-02		127.462		4.512e-03		13.051
2		0.00		-6.80		1.542e-02		124.710		4.608e-03		19.653
2		0.00		-6.40		1.487e-02		124.951		4.826e-03		20.411
2		0.00		-6.00		1.452e-02		125.643		4.345e-03		10.132
2		0.00		-5.60		1.387e-02		123.946		3.917e-03		11.627
2		0.00		-5.20		1.317e-02		123.720		3.380e-03		10.539
2		0.00		-4.80		1.243e-02		126.345		2.924e-03		11.510
2		0.00		-4.40		1.165e-02		126.838		2.986e-03		11.656
2		0.00		-4.00		1.131e-02		125.916		3.051e-03		14.292
2		0.00		-3.60		1.084e-02		127.637		3.321e-03		23.937
2		0.00		-3.20		1.033e-02		122.687		3.186e-03		15.154
2		0.00		-2.80		9.872e-03		127.548		2.869e-03		14.553
2		0.00		-2.40		9.668e-03		127.497		2.418e-03		12.416
2		0.00		-2.00		9.117e-03		123.210		2.331e-03		11.090
2		0.00		-1.60		8.865e-03		124.484		2.581e-03		13.588
2		0.00		-1.20		8.582e-03		123.026		2.612e-03		19.829
2		0.00		-0.80		7.978e-03		121.771		2.547e-03		21.719
2		0.00		-0.40		7.456e-03		122.945		2.611e-03		23.959
3		0.00		0.00		7.472e-03		128.363		2.219e-03		13.607
3		0.00		0.40		7.103e-03		122.465		2.084e-03		17.416
3		0.00		0.80		6.876e-03		126.060		2.076e-03		14.296
3		0.00		1.20		6.112e-03		123.031		1.939e-03		21.259
3		0.00		1.60		5.522e-03		118.063		1.880e-03		35.837
3		0.00		2.00		4.617e-03		116.795		1.740e-03		40.297
3		0.00		2.40		4.225e-03		116.464		1.587e-03		49.450
3		0.00		2.80		3.089e-03		102.055		1.182e-03		54.961
3		0.00		3.20		2.754e-03		98.162		1.113e-03		54.760
3		0.00		3.60		2.122e-03		41.312		8.047e-04		80.259
3		0.00		4.00		1.782e-03		-5.488		7.250e-04		80.961
3		0.00		4.40		2.135e-03		-50.277		9.332e-04		57.006
3		0.00		4.80		2.787e-03		-56.777		1.143e-03		35.925
3		0.00		5.20		3.651e-03		-61.685		1.319e-03		31.187
3		0.00		5.60		4.583e-03		-53.822		1.176e-03		24.997
3		0.00		6.00		5.799e-03		-48.341		1.473e-03		20.167
3		0.00		6.40		7.089e-03		-51.153		2.174e-03		18.648
3		0.00		6.80		9.026e-03		-51.102		2.478e-03		17.547
3		0.00		7.20		1.041e-02		-55.173		2.764e-03		10.062
3		0.00		7.60		1.278e-02		-53.626		2.955e-03		10.648
3		0.00		8.00		1.433e-02		-52.560		3.615e-03		12.189
3		0.00		8.40		1.646e-02		-53.877		4.443e-03		11.703
3		0.00		8.80		1.762e-02		-54.056		5.426e-03		17.550
3		0.00		9.20		2.061e-02		-53.944		5.919e-03		9.806
3		0.00		9.60		2.364e-02		-54.214		5.712e-03		9.481
3		0.00		10.00		2.591e-02		-55.306		5.702e-03		9.414
3		0.00		9.60		2.770e-02		-54.245		6.885e-03		9.397
3		0.00		9.20		2.772e-02		-52.894		7.649e-03		13.296
3		0.00		8.80		2.836e-02		-51.663		8.325e-03		12.531
3		0.00		8.40		2.875e-02		-52.412		7.704e-03		8.482
3		0.00		8.00		2.920e-02		-51.901		6.329e-03		8.061
3		0.00		7.60		2.900e-02		-52.668		6.300e-03		8.679
3		0.00		7.20		2.843e-02		-50.349		6.637e-03		11.392
3		0.00		6.80		2.804e-02		-51.635		7.248e-03		13.459
3		0.00		6.40		2.790e-02		-52.595		7.402e-03		9.925
3		0.00		6.00		2.836e-02		-52.844		6.341e-03		9.214
3		0.00		5.60		2.769e-02		-52.878		5.482e-03		8.754
3		0.00		5.20		2.750e-02		-51.102		6.103e-03		9.565
3		0.00		4.80		2.670e-02		-52.098		6.596e-03		13.270
3		0.00		4.40		2.632e-02		-51.688		7.522e-03		11.271
3		0.00		4.00		2.701e-02		-52.580		6.657e-03		7.880
3		0.00		3.60		2.683e-02		-51.880		5.921e-03		7.515
3		0.00		3.20		2.650e-02		-53.483		5.618e-03		9.732
3		0.00		2.80		2.607e-02		-51.517		6.294e-03		10.735
3		0.00		2.40		2.514e-02		-53.001		6.754e-03		13.501
3		0.00		2.00		2.581e-02		-51.758		7.302e-03		11.145
3		0.00		1.60		2.601e-02		-51.571		6.435e-03		7.345
3		0.00		1.20		2.660e-02		-51.788		5.395e-03		7.667
3		0.00		0.80		2.682e-02		-53.256		5.409e-03		8.397
3		0.00		0.40		2.589e-02		-51.581		6.085e-03		9.924
3		0.00		0.00		2.532e-02		-52.253		6.459e-03		12.867
3		0.00		-0.40		2.558e-02		-52.197		6.659e-03		11.598
3		0.00		-0.80		2.611e-02		-51.608		6.075e-03		8.602
3		0.00		-1.20		2.608e-02		-51.867		5.127e-03		8.034
3		0.00		-1.60		2.528e-02		-51.176		5.115e-03		8.702
3		0.00		-2.00		2.516e-02		-52.976		5.532e-03		10.126
3		0.00		-2.40		2.417e-02		-52.383		6.041e-03		12.432
3		0.00		-2.80		2.392e-02		-51.587		6.298e-03		11.434
3		0.00		-3.20		2.290e-02		-54.159		5.494e-03		7.683
3		0.00		-3.60		2.188e-02		-52.190		4.512e-03		8.229
3		0.00		-4.00		1.995e-02		-54.206		4.484e-03		10.222
3		0.00		-4.40		1.807e-02		-52.291		4.366e-03		12.363
3		0.00		-4.80		1.470e-02		-51.979		4.017e-03		12.934
3		0.00		-5.20		1.287e-02		-55.389		3.590e-03		13.568
3		0.00		-5.60		9.398e-03		-55.698		2.560e-03		12.060
3		0.00		-6.00		5.499e-03		-50.868		1.577e-03		21.973
3		0.00		-6.40		2.291e-03		-40.521		8.900e-04		44.620
3		0.00		-6.80		2.264e-03		59.470		1.029e-03		75.873
3		0.00		-7.20		5.105e-03		116.493		1.931e-03		32.445
3		0.00		-7.60		7.247e-03		116.409		2.526e-03		28.371
3		0.00		-8.00		9.745e-03		122.810		3.019e-03		12.582
3		0.00		-8.40		1.198e-02		125.032		3.600e-03		13.022
3		0.00		-8.80		1.389e-02		126.330		3.609e-03		10.921
3		0.00		-9.20		1.504e-02		126.705		3.785e-03		10.729
3		0.00		-9.60		1.600e-02		125.442		4.337e-03		16.261
3		0.00		-10.00		1.668e-02		123.219		4.761e-03		18.947
3		0.00		-9.60		1.762e-02		125.425		4.988e-03		11.109
3		0.00		-9.20		1.787e-02		126.346		4.366e-03		9.418
3		0.00		-8.80		1.768e-02		125.485		4.017e-03		8.409
3		0.00		-8.40		1.686e-02		127.755		3.623e-03		8.836
3		0.00		-8.00		1.676e-02		126.171		4.087e-03		13.427
3		0.00		-7.60		1.611e-02		124.125		4.569e-03		19.896
3		0.00		-7.20		1.588e-02		126.617		4.501e-03		10.209
3		0.00		-6.80		1.548e-02		127.261		4.078e-03		9.676
3		0.00		-6.40		1.511e-02		126.524		3.468e-03		8.725
3		0.00		-6.00		1.398e-02		126.603		3.804e-03		12.799
3		0.00		-5.60		1.325e-02		127.180		3.901e-03		16.434
3		0.00		-5.20		1.277e-02		124.561		3.905e-03		18.795
3		0.00		-4.80		1.264e-02		128.671		3.403e-03		11.727
3		0.00		-4.40		1.253e-02		127.231		2.998e-03		8.290
3		0.00		-4.00		1.224e-02		125.526		2.959e-03		10.815
3		0.00		-3.60		1.113e-02		129.423		3.043e-03		17.501
3		0.00		-3.20		1.074e-02		124.674		3.364e-03		22.264
3		0.00		-2.80		1.027e-02		128.176		2.639e-03		10.942
3		0.00		-2.40		1.041e-02		128.461		2.650e-03		12.396
3		0.00		-2.00		9.578e-03		126.816		2.110e-03		11.850
3		0.00		-1.60		9.471e-03		128.157		2.406e-03		14.469
3		0.00		-1.20		8.583e-03		126.700		2.499e-03		24.939
3		0.00		-0.80		8.635e-03		128.428		2.486e-03		14.630
3		0.00		-0.40		8.525e-03		125.019		2.287e-03		12.861
4		0.00		0.00		7.994e-03		125.118		2.019e-03		15.462
4		0.00		0.40		8.114e-03		126.518		2.527e-03		17.940
4		0.00		0.80		7.350e-03		125.987		2.272e-03		20.277
4		0.00		1.20		7.001e-03		123.389		2.283e-03		17.002
4		0.00		1.60		6.135e-03		126.108		1.801e-03		14.323
4		0.00		2.00		5.167e-03		122.148		1.610e-03		22.702
4		0.00		2.40		4.706e-03		117.994		1.682e-03		38.761
4		0.00		2.80		3.832e-03		114.619		1.469e-03		34.847
4		0.00		3.20		2.855e-03		93.226		1.228e-03		64.636
4		0.00		3.60		2.227e-03		60.441		9.423e-04		78.079
4		0.00		4.00		1.632e-03		1.823		6.969e-04		81.946
4		0.00		4.40		1.842e-03		-28.122		8.106e-04		72.507
4		0.00		4.80		2.422e-03		-51.755		1.047e-03		45.064
4		0.00		5.20		3.093e-03		-63.944		1.156e-03		36.411
4		0.00		5.60		4.125e-03		-63.408		1.494e-03		23.991
4		0.00		6.00		5.449e-03		-54.293		1.418e-03		19.195
4		0.00		6.40		6.654e-03		-51.336		1.689e-03		15.488
4		0.00		6.80		8.230e-03		-60.290		1.831e-03		14.998
4		0.00		7.20		1.033e-02		-50.670		2.761e-03		18.593
4		0.00		7.60		1.175e-02		-51.530		3.125e-03		11.684
4		0.00		8.00		1.360e-02		-53.002		3.031e-03		10.217
4		0.00		8.40		1.527e-02		-54.746		3.144e-03		10.182
4		0.00		8.80		1.779e-02		-50.603		3.399e-03		9.686
4		0.00		9.20		1.953e-02		-49.924		4.486e-03		10.375
4		0.00		9.60		2.221e-02		-50.429		5.785e-03		12.122
4		0.00		10.00		2.516e-02		-53.042		6.815e-03		10.395
4		0.00		9.60		2.699e-02		-52.623		6.865e-03		7.170
4		0.00		9.20		2.798e-02		-52.233		6.146e-03		7.715
4		0.00		8.80		2.860e-02		-53.355		5.864e-03		9.242
4		0.00		8.40		2.758e-02		-51.653		6.514e-03		10.794
4		0.00		8.00		2.779e-02		-51.531		7.075e-03		11.863
4		0.00		7.60		2.711e-02		-54.583		7.553e-03		14.306
4		0.00		7.20		2.795e-02		-53.248		7.402e-03		10.599
4		0.00		6.80		2.763e-02		-52.669		6.265e-03		7.690
4		0.00		6.40		2.789e-02		-52.181		5.909e-03		7.800
4		0.00		6.00		2.762e-02		-52.081		5.444e-03		8.994
4		0.00		5.60		2.647e-02		-51.579		5.756e-03		10.006
4		0.00		5.20		2.623e-02		-50.934		6.414e-03		9.139
4		0.00		4.80		2.585e-02		-51.111		6.538e-03		10.568
4		0.00		4.40		2.577e-02		-51.723		6.884e-03		10.717
4		0.00		4.00		2.637e-02		-52.012		5.957e-03		7.944
4		0.00		3.60		2.591e-02		-52.642		5.122e-03		7.303
4		0.00		3.20		2.619e-02		-51.874		4.984e-03		8.582
4		0.00		2.80		2.513e-02		-51.698		5.368e-03		9.883
4		0.00		2.40		2.495e-02		-51.648		5.749e-03		11.771
4		0.00		2.00		2.443e-02		-51.050		6.171e-03		12.603
4		0.00		1.60		2.457e-02		-52.306		6.333e-03		9.380
4		0.00		1.20		2.477e-02		-52.334		6.484e-03		9.397
4		0.00		0.80		2.541e-02		-53.360		5.946e-03		8.336
4		0.00		0.40		2.495e-02		-54.334		5.723e-03		8.592
4		0.00		0.00		2.411e-02		-50.538		5.453e-03		9.849
4		0.00		-0.40		2.391e-02		-51.772		5.919e-03		11.955
4		0.00		-0.80		2.313e-02		-52.715		6.516e-03		15.314
4		0.00		-1.20		2.359e-02		-52.720		6.924e-03		12.597
4		0.00		-1.60		2.342e-02		-52.571		5.982e-03		9.334
4		0.00		-2.00		2.351e-02		-53.329		5.285e-03		8.050
4		0.00		-2.40		2.279e-02		-52.555		4.928e-03		8.704
4		0.00		-2.80		2.225e-02		-50.120		4.878e-03		8.434
4		0.00		-3.20		2.169e-02		-52.354		5.175e-03		10.242
4		0.00		-3.60		2.070e-02		-51.866		5.129e-03		13.545
4		0.00		-4.00		1.962e-02		-49.721		4.823e-03		8.460
4		0.00		-4.40		1.800e-02		-52.773		4.230e-03		8.708
4		0.00		-4.80		1.595e-02		-52.438		3.049e-03		10.397
4		0.00		-5.20		1.323e-02		-46.943		2.575e-03		10.519
4		0.00		-5.60		9.143e-03		-50.416		2.161e-03		17.342
4		0.00		-6.00		6.204e-03		-42.672		1.849e-03		22.527
4		0.00		-6.40		4.136e-03		-57.380		1.483e-03		26.992
4		0.00		-6.80		1.724e-03		-2.322		7.287e-04		68.287
4		0.00		-7.20		3.972e-03		111.401		1.466e-03		36.408
4		0.00		-7.60		6.885e-03		123.239		2.065e-03		15.794
4		0.00		-8.00		9.971e-03		124.451		2.614e-03		13.330
4		0.00		-8.40		1.152e-02		127.129		3.210e-03		17.803
4		0.00		-8.80		1.291e-02		124.577		3.932e-03		18.232
4		0.00		-9.20		1.433e-02		123.670		3.813e-03		9.875
4		0.00		-9.60		1.638e-02		125.120		3.934e-03		8.276
4		0.00		-10.00		1.719e-02		124.465		3.908e-03		9.401
4		0.00		-9.60		1.710e-02		126.915		4.049e-03		10.450
4		0.00		-9.20		1.675e-02		125.403		4.479e-03		14.609
4		0.00		-8.80		1.655e-02		123.358		4.750e-03		19.661
4		0.00		-8.40		1.678e-02		126.116		4.474e-03		9.032
4		0.00		-8.00		1.687e-02		127.509		3.582e-03		8.506
4		0.00		-7.60		1.657e-02		125.990		3.364e-03		7.873
4		0.00		-7.20		1.579e-02		125.926		3.396e-03		9.291
4		0.00		-6.80		1.518e-02		128.608		3.462e-03		10.870
4		0.00		-6.40		1.451e-02		125.175		3.569e-03		18.801
4		0.00		-6.00		1.443e-02		127.332		3.766e-03		17.516
4		0.00		-5.60		1.369e-02		126.490		2.984e-03		9.646
4		0.00		-5.20		1.336e-02		128.714		2.872e-03		9.110
4		0.00		-4.80		1.279e-02		126.304		2.544e-03		10.450
4		0.00		-4.40		1.241e-02		126.652		2.543e-03		10.269
4		0.00		-4.00		1.178e-02		124.600		2.855e-03		12.996
4		0.00		-3.60		1.114e-02		123.655		3.236e-03		15.566
4		0.00		-3.20		1.079e-02		122.931		3.295e-03		20.221
4		0.00		-2.80		1.029e-02		126.936		2.943e-03		12.044
4		0.00		-2.40		9.924e-03		125.207		2.616e-03		11.636
4		0.00		-2.00		9.521e-03		122.973		2.400e-03		12.634
4		0.00		-1.60		9.589e-03		125.401		2.227e-03		11.278
4		0.00		-1.20		9.076e-03		129.441		2.231e-03		11.463
4		0.00		-0.80		8.608e-03		124.544		2.390e-03		17.850
4		0.00		-0.40		8.379e-03		122.938		2.356e-03		23.658
5		0.00		0.00		8.144e-03		127.566		2.251e-03		19.993
5		0.00		0.40		7.370e-03		126.621		2.166e-03		15.000
5		0.00		0.80		7.438e-03		127.096		1.897e-03		12.023
5		0.00		1.20		6.766e-03		124.306		1.744e-03		13.259
5		0.00		1.60		6.074e-03		127.243		1.753e-03		17.578
5		0.00		2.00		5.371e-03		127.643		1.478e-03		21.071
5		0.00		2.40		4.610e-03		116.794		1.654e-03		40.145
5		0.00		2.80		4.129e-03		117.967		1.301e-03		39.597
5		0.00		3.20		3.302e-03		104.851		1.259e-03		45.299
5		0.00		3.60		2.204e-03		78.899		9.159e-04		76.397
5		0.00		4.00		1.997e-03		32.136		7.992e-04		85.391
5		0.00		4.40		1.713e-03		-32.931		6.309e-04		71.712
5		0.00		4.80		2.016e-03		-56.359		8.604e-04		53.493
5		0.00		5.20		2.946e-03		-44.121		1.094e-03		28.865
5		0.00		5.60		3.958e-03		-54.286		1.349e-03		25.634
5		0.00		6.00		5.285e-03		-49.610		1.694e-03		21.422
5		0.00		6.40		5.964e-03		-49.277		2.040e-03		20.823
5		0.00		6.80		7.968e-03		-56.204		2.287e-03		12.855
5		0.00		7.20		9.444e-03		-49.612		2.397e-03		12.931
5		0.00		7.60		1.082e-02		-54.684		2.486e-03		11.407
5		0.00		8.00		1.231e-02		-50.108		2.597e-03		10.387
5		0.00		8.40		1.368e-02		-49.843		2.836e-03		11.982
5		0.00		8.80		1.570e-02		-52.862		3.657e-03		11.025
5		0.00		9.20		1.734e-02		-52.553		4.050e-03		15.578
5		0.00		9.60		1.973e-02		-50.443		5.049e-03		11.967
5		0.00		10.00		2.306e-02		-54.471		5.712e-03		10.795
5		0.00		9.60		2.410e-02		-51.735		5.596e-03		7.908
5		0.00		9.20		2.548e-02		-52.451		5.035e-03		7.718
5		0.00		8.80		2.625e-02		-51.852		5.219e-03		7.842
5		0.00		8.40		2.648e-02		-51.071		4.980e-03		8.176
5		0.00		8.00		2.635e-02		-51.874		5.558e-03		8.310
5		0.00		7.60		2.544e-02		-52.097		6.286e-03		13.123
5		0.00		7.20		2.456e-02		-52.494		6.818e-03		18.530
5		0.00		6.80		2.413e-02		-53.475		7.109e-03		13.669
5		0.00		6.40		2.432e-02		-52.557		6.873e-03		9.143
5		0.00		6.00		2.425e-02		-53.234		5.972e-03		7.806
5		0.00		5.60		2.420e-02		-51.842		5.096e-03		7.901
5		0.00		5.20		2.388e-02		-52.487		5.048e-03		7.709
5		0.00		4.80		2.320e-02		-53.220		5.642e-03		10.466
5		0.00		4.40		2.239e-02		-51.225		5.857e-03		12.666
5		0.00		4.00		2.230e-02		-53.631		6.149e-03		14.913
5		0.00		3.60		2.265e-02		-51.944		6.027e-03		14.157
5		0.00		3.20		2.224e-02		-53.586		5.682e-03		8.518
5		0.00		2.80		2.290e-02		-52.168		5.071e-03		7.336
5		0.00		2.40		2.317e-02		-51.638		4.440e-03		9.436
5		0.00		2.00		2.279e-02		-52.162		4.489e-03		8.528
5		0.00		1.60		2.254e-02		-49.077		4.494e-03		8.797
5		0.00		1.20		2.208e-02		-49.866		4.587e-03		10.085
5		0.00		0.80		2.190e-02		-51.478		5.347e-03		11.581
5		0.00		0.40		2.250e-02		-51.121		5.342e-03		9.213
5		0.00		0.00		2.248e-02		-51.751		5.336e-03		8.637
5		0.00		-0.40		2.272e-02		-52.069		4.802e-03		8.282
5		0.00		-0.80		2.307e-02		-51.890		4.252e-03		7.951
5		0.00		-1.20		2.244e-02		-50.675		4.344e-03		8.900
5		0.00		-1.60		2.202e-02		-49.904		4.609e-03		9.671
5		0.00		-2.00		2.145e-02		-49.638		4.881e-03		10.880
5		0.00		-2.40		2.032e-02		-50.537		5.286e-03		11.971
5		0.00		-2.80		2.035e-02		-53.118		5.560e-03		11.312
5		0.00		-3.20		1.935e-02		-50.875		4.615e-03		9.079
5		0.00		-3.60		1.909e-02		-51.808		4.070e-03		8.506
5		0.00		-4.00		1.861e-02		-52.300		3.553e-03		8.141
5		0.00		-4.40		1.671e-02		-52.023		3.028e-03		9.832
5		0.00		-4.80		1.466e-02		-48.339		2.713e-03		10.582
5		0.00		-5.20		1.165e-02		-46.278		2.525e-03		11.404
5		0.00		-5.60		8.639e-03		-46.687		2.000e-03		11.175
5		0.00		-6.00		5.362e-03		-42.032		1.659e-03		18.342
5		0.00		-6.40		3.068e-03		-59.330		1.194e-03		33.980
5		0.00		-6.80		2.385e-03		87.817		9.797e-04		57.223
5		0.00		-7.20		4.897e-03		117.583		1.534e-03		21.377
5		0.00		-7.60		8.077e-03		124.208		1.877e-03		12.827
5		0.00		-8.00		1.012e-02		126.056		2.184e-03		11.904
5		0.00		-8.40		1.104e-02		126.509		2.496e-03		11.479
5		0.00		-8.80		1.262e-02		129.082		3.183e-03		12.541
5		0.00		-9.20		1.430e-02		124.930		4.015e-03		18.102
5		0.00		-9.60		1.599e-02		125.512		4.975e-03		15.921
5		0.00		-10.00		1.696e-02		125.771		4.897e-03		9.458
5		0.00		-9.60		1.692e-02		124.540		4.231e-03		8.522
5		0.00		-9.20		1.712e-02		126.454		3.970e-03		8.147
5		0.00		-8.80		1.666e-02		128.476		3.913e-03		9.119
5		0.00		-8.40		1.676e-02		127.858		3.890e-03		8.375
5		0.00		-8.00		1.638e-02		127.454		4.189e-03		12.218
5		0.00		-7.60		1.560e-02		127.331		4.411e-03		20.257
5		0.00		-7.20		1.470e-02		125.557		4.391e-03		19.908
5		0.00		-6.80		1.487e-02		126.226		3.818e-03		9.854
5		0.00		-6.40		1.491e-02		124.986		3.334e-03		9.291
5		0.00		-6.00		1.459e-02		127.272		2.830e-03		9.574
5		0.00		-5.60		1.396e-02		128.223		2.653e-03		9.257
5		0.00		-5.20		1.326e-02		128.190		2.551e-03		9.666
5		0.00		-4.80		1.273e-02		124.150		3.065e-03		11.898
5		0.00		-4.40		1.218e-02		128.336		2.887e-03		14.209
5		0.00		-4.00		1.177e-02		129.683		3.022e-03		13.828
5		0.00		-3.60		1.111e-02		126.986		2.702e-03		14.262
5		0.00		-3.20		1.103e-02		126.667		2.521e-03		11.744
5		0.00		-2.80		1.100e-02		126.741		2.351e-03		10.359
5		0.00		-2.40		1.041e-02		127.765		2.295e-03		11.229
5		0.00		-2.00		1.003e-02		127.864		2.287e-03		10.478
5		0.00		-1.60		9.708e-03		128.811		2.194e-03		11.386
5		0.00		-1.20		9.460e-03		124.655		2.421e-03		15.063
5		0.00		-0.80		8.759e-03		127.377		2.522e-03		18.268
5		0.00		-0.40		8.610e-03		127.171		2.509e-03		17.189
6		0.00		0.00		8.655e-03		129.351		2.218e-03		11.945
6		0.00		0.40		8.610e-03		125.228		2.014e-03		11.823
6		0.00		0.80		8.071e-03		131.032		1.839e-03		14.172
6		0.00		1.20		7.693e-03		128.864		1.991e-03		11.531
6		0.00		1.60		6.780e-03		127.862		1.738e-03		15.043
6		0.00		2.00		6.092e-03		126.353		1.944e-03		23.147
6		0.00		2.40		5.172e-03		125.713		1.601e-03		31.769
6		0.00		2.80		4.301e-03		122.224		1.328e-03		24.343
6		0.00		3.20		3.289e-03		108.733		1.226e-03		39.470
6		0.00		3.60		2.508e-03		90.049		1.023e-03		62.123
6		0.00		4.00		1.980e-03		45.175		8.812e-04		81.922
6		0.00		4.40		1.801e-03		-12.782		7.497e-04		83.445
6		0.00		4.80		1.739e-03		-41.074		6.472e-04		61.507
6		0.00		5.20		2.513e-03		-61.766		9.505e-04		40.736
6		0.00		5.60		3.646e-03		-51.721		1.246e-03		32.011
6		0.00		6.00		4.699e-03		-49.813		1.338e-03		21.076
6		0.00		6.40		5.690e-03		-59.129		1.558e-03		16.386
6		0.00		6.80		7.114e-03		-49.490		1.614e-03		14.913
6		0.00		7.20		8.717e-03		-52.324		2.086e-03		13.187
6		0.00		7.60		1.029e-02		-51.853		2.608e-03		13.642
6		0.00		8.00		1.173e-02		-51.311		3.185e-03		12.129
6		0.00		8.40		1.366e-02		-52.296		3.251e-03		10.936
6		0.00		8.80		1.532e-02		-51.683		3.301e-03		9.576
6		0.00		9.20		1.760e-02		-53.283		3.561e-03		10.393
6		0.00		9.60		1.979e-02		-52.390		4.270e-03		10.133
6		0.00		10.00		2.228e-02		-51.391		5.141e-03		11.698
6		0.00		9.60		2.363e-02		-52.771		5.769e-03		13.498
6		0.00		9.20		2.436e-02		-53.351		5.778e-03		10.846
6		0.00		8.80		2.511e-02		-52.505		5.101e-03		8.946
6		0.00		8.40		2.565e-02		-51.823		4.657e-03		7.758
6		0.00		8.00		2.605e-02		-52.548		4.386e-03		7.887
6		0.00		7.60		2.556e-02		-52.038		5.095e-03		9.113
6		0.00		7.20		2.473e-02		-52.038		5.548e-03		9.870
6		0.00		6.80		2.457e-02		-52.469		6.069e-03		9.296
6		0.00		6.40		2.451e-02		-52.503		6.157e-03		8.921
6		0.00		6.00		2.452e-02		-52.693		5.279e-03		8.039
6		0.00		5.60		2.437e-02		-51.722		4.749e-03		7.698
6		0.00		5.20		2.453e-02		-53.547		4.291e-03		7.556
6		0.00		4.80		2.350e-02		-51.423		4.779e-03		8.799
6		0.00		4.40		2.261e-02		-50.321		5.574e-03		11.532
6		0.00		4.00		2.258e-02		-49.799		6.068e-03		12.505
6		0.00		3.60		2.214e-02		-52.015		5.920e-03		10.739
6		0.00		3.20		2.278e-02		-52.021		4.906e-03		8.367
6		0.00		2.80		2.272e-02		-51.436		4.331e-03		8.620
6		0.00		2.40		2.295e-02		-52.062		4.305e-03		8.103
6		0.00		2.00		2.263e-02		-51.454		4.430e-03		9.340
6		0.00		1.60		2.178e-02		-52.506		4.858e-03		10.703
6		0.00		1.20		2.197e-02		-50.918		5.495e-03		10.214
6		0.00		0.80		2.202e-02		-52.696		5.023e-03		9.907
6		0.00		0.40		2.285e-02		-54.634		4.482e-03		8.435
6		0.00		0.00		2.308e-02		-52.743		4.090e-03		7.724
6		0.00		-0.40		2.238e-02		-51.354		4.428e-03		10.092
6		0.00		-0.80		2.266e-02		-51.181		4.194e-03		7.762
6		0.00		-1.20		2.184e-02		-50.912		4.679e-03		9.609
6		0.00		-1.60		2.154e-02		-50.743		5.146e-03		11.685
6		0.00		-2.00		2.170e-02		-52.723		5.287e-03		9.578
6		0.00		-2.40		2.094e-02		-52.138		4.552e-03		8.209
6		0.00		-2.80		2.064e-02		-52.722		3.857e-03		8.040
6		0.00		-3.20		1.938e-02		-52.115		3.954e-03		8.628
6		0.00		-3.60		1.825e-02		-49.892		4.115e-03		9.113
6		0.00		-4.00		1.664e-02		-52.559		4.182e-03		13.510
6		0.00		-4.40		1.577e-02		-51.493		4.165e-03		14.932
6		0.00		-4.80		1.395e-02		-49.968		4.064e-03		11.818
6		0.00		-5.20		1.225e-02		-49.373		3.097e-03		11.189
6		0.00		-5.60		1.020e-02		-52.007		2.156e-03		13.361
6		0.00		-6.00		7.803e-03		-51.310		1.625e-03		15.155
6		0.00		-6.40		5.352e-03		-49.360		1.522e-03		23.957
6		0.00		-6.80		3.089e-03		-54.232		1.196e-03		34.045
6		0.00		-7.20		2.838e-03		76.491		1.240e-03		68.687
6		0.00		-7.60		5.911e-03		115.876		1.738e-03		31.320
6		0.00		-8.00		8.811e-03		123.490		2.366e-03		12.429
6		0.00		-8.40		1.090e-02		126.785		2.515e-03		9.188
6		0.00		-8.80		1.290e-02		126.397		2.614e-03		10.696
6		0.00		-9.20		1.464e-02		128.741		2.979e-03		9.837
6		0.00		-9.60		1.588e-02		128.452		3.289e-03		9.944
6		0.00		-10.00		1.637e-02		125.806		3.656e-03		10.955
6		0.00		-9.60		1.648e-02		121.773		4.155e-03		16.662
6		0.00		-9.20		1.663e-02		124.557		4.279e-03		10.168
6		0.00		-8.80		1.654e-02		126.008		3.985e-03		10.865
6		0.00		-8.40		1.675e-02		126.214		3.629e-03		8.177
6		0.00		-8.00		1.704e-02		125.065		3.499e-03		9.884
6		0.00		-7.60		1.640e-02		128.821		3.636e-03		9.904
6		0.00		-7.20		1.602e-02		127.503		3.889e-03		13.048
6		0.00		-6.80		1.541e-02		123.985		4.033e-03		19.244
6		0.00		-6.40		1.497e-02		127.710		3.795e-03		10.421
6		0.00		-6.00		1.455e-02		127.473		3.489e-03		8.668
6		0.00		-5.60		1.460e-02		128.651		2.983e-03		8.458
6		0.00		-5.20		1.399e-02		127.606		2.850e-03		10.709
6		0.00		-4.80		1.383e-02		129.094		2.923e-03		8.378
6		0.00		-4.40		1.304e-02		124.736		3.007e-03		11.830
6		0.00		-4.00		1.237e-02		125.859		3.160e-03		17.393
6		0.00		-3.60		1.219e-02		129.615		3.124e-03		13.415
6		0.00		-3.20		1.145e-02		126.357		2.607e-03		11.699
6		0.00		-2.80		1.213e-02		128.897		2.391e-03		8.893
6		0.00		-2.40		1.122e-02		128.727		2.307e-03		10.772
6		0.00		-2.00		1.074e-02		127.905		2.137e-03		11.267
6		0.00		-1.60		1.043e-02		127.079		2.278e-03		11.679
6		0.00		-1.20		9.732e-03		127.579		2.506e-03		17.512
6		0.00		-0.80		9.074e-03		126.210		2.449e-03		11.929
6		0.00		-0.40		9.398e-03		125.671		2.507e-03		10.698
7		0.00		0.00		9.146e-03		128.925		2.351e-03		12.283
7		0.00		0.40		8.542e-03		127.963		2.147e-03		12.849
7		0.00		0.80		8.306e-03		127.569		2.333e-03		12.775
7		0.00		1.20		7.392e-03		128.051		2.348e-03		17.790
7		0.00		1.60		6.499e-03		123.446		1.956e-03		23.274
7		0.00		2.00		5.709e-03		123.872		1.858e-03		25.568
7		0.00		2.40		5.477e-03		120.555		1.670e-03		18.137
7		0.00		2.80		4.574e-03		121.916		1.456e-03		26.745
7		0.00		3.20		3.348e-03		116.556		1.214e-03		33.972
7		0.00		3.60		2.451e-03		84.193		9.428e-04		72.245
7		0.00		4.00		2.030e-03		54.435		9.022e-04		76.026
7		0.00		4.40		1.867e-03		12.692		7.468e-04		83.371
7		0.00		4.80		1.915e-03		-34.873		8.787e-04		68.632
7		0.00		5.20		2.489e-03		-44.766		1.042e-03		60.475
7		0.00		5.60		3.706e-03		-62.906		1.156e-03		23.738
7		0.00		6.00		4.986e-03		-56.517		1.335e-03		21.298
7		0.00		6.40		5.625e-03		-50.288		1.519e-03		15.841
7		0.00		6.80		7.267e-03		-58.802		1.987e-03		18.550
7		0.00		7.20		8.727e-03		-52.749		2.422e-03		17.483
7		0.00		7.60		1.030e-02		-55.607		2.648e-03		10.295
7		0.00		8.00		1.251e-02		-50.558		2.565e-03		10.714
7		0.00		8.40		1.426e-02		-53.439		2.535e-03		8.327
7		0.00		8.80		1.566e-02		-51.134		3.053e-03		9.899
7		0.00		9.20		1.732e-02		-50.945		3.719e-03		10.988
7		0.00		9.60		1.939e-02		-49.678		4.772e-03		12.765
7		0.00		10.00		2.243e-02		-51.712		5.864e-03		12.228
7		0.00		9.60		2.375e-02		-52.888		5.666e-03		8.696
7		0.00		9.20		2.523e-02		-52.149		4.773e-03		6.652
7		0.00		8.80		2.526e-02		-53.588		4.469e-03		8.717
7		0.00		8.40		2.518e-02		-51.395		4.820e-03		8.175
7		0.00		8.00		2.472e-02		-50.907		5.499e-03		9.140
7		0.00		7.60		2.510e-02		-52.813		5.705e-03		10.024
7		0.00		7.20		2.473e-02		-52.783		6.141e-03		11.907
7		0.00		6.80		2.446e-02		-52.471		5.525e-03		8.369
7		0.00		6.40		2.443e-02		-51.458		4.382e-03		7.543
7		0.00		6.00		2.435e-02		-54.873		4.225e-03		9.174
7		0.00		5.60		2.410e-02		-52.475		4.658e-03		8.801
7		0.00		5.20		2.332e-02		-52.293		5.012e-03		10.409
7		0.00		4.80		2.299e-02		-52.012		5.695e-03		13.255
7		0.00		4.40		2.257e-02		-51.367		5.777e-03		11.124
7		0.00		4.00		2.310e-02		-52.497		4.978e-03		7.643
7		0.00		3.60		2.284e-02		-51.884		4.240e-03		7.954
7		0.00		3.20		2.229e-02		-51.822		4.524e-03		8.635
7		0.00		2.80		2.212e-02		-52.324		4.997e-03		9.458
7		0.00		2.40		2.197e-02		-53.223		5.442e-03		13.144
7		0.00		2.00		2.182e-02		-51.828		6.002e-03		13.372
7		0.00		1.60		2.201e-02		-51.332		6.100e-03		9.621
7		0.00		1.20		2.186e-02		-53.519		4.889e-03		8.093
7		0.00		0.80		2.225e-02		-51.926		4.369e-03		7.895
7		0.00		0.40		2.267e-02		-52.513		4.054e-03		8.296
7		0.00		0.00		2.218e-02		-50.659		4.733e-03		9.120
7		0.00		-0.40		2.183e-02		-50.895		5.032e-03		13.450
7		0.00		-0.80		2.130e-02		-50.680		5.228e-03		11.712
7		0.00		-1.20		2.146e-02		-51.337		4.728e-03		8.763
7		0.00		-1.60		2.161e-02		-55.122		4.060e-03		8.094
7		0.00		-2.00		2.214e-02		-52.365		3.596e-03		7.340
7		0.00		-2.40		2.111e-02		-51.378		3.645e-03		7.988
7		0.00		-2.80		2.031e-02		-51.280		3.944e-03		8.933
7		0.00		-3.20		1.939e-02		-51.390		4.214e-03		13.477
7		0.00		-3.60		1.848e-02		-52.259		4.258e-03		12.289
7		0.00		-4.00		1.806e-02		-52.348		4.020e-03		8.439
7		0.00		-4.40		1.673e-02		-51.143		2.861e-03		8.901
7		0.00		-4.80		1.495e-02		-51.845		2.576e-03		9.370
7		0.00		-5.20		1.253e-02		-52.189		2.258e-03		10.662
7		0.00		-5.60		1.022e-02		-48.038		2.084e-03		11.425
7		0.00		-6.00		8.516e-03		-48.419		2.147e-03		15.933
7		0.00		-6.40		5.928e-03		-50.377		1.750e-03		20.713
7		0.00		-6.80		2.438e-03		-55.627		1.021e-03		50.780
7		0.00		-7.20		2.528e-03		79.368		9.199e-04		61.009
7		0.00		-7.60		4.977e-03		118.446		1.526e-03		21.257
7		0.00		-8.00		7.718e-03		124.252		2.048e-03		14.878
7		0.00		-8.40		9.724e-03		122.913		2.586e-03		16.087
7		0.00		-8.80		1.159e-02		124.351		2.911e-03		16.604
7		0.00		-9.20		1.312e-02		125.270		3.014e-03		10.481
7		0.00		-9.60		1.489e-02		123.881		3.049e-03		8.115
7		0.00		-10.00		1.595e-02		125.811		3.041e-03		8.444
7		0.00		-9.60		1.674e-02		126.926		3.335e-03		10.461
7		0.00		-9.20		1.660e-02		126.826		3.707e-03		11.715
7		0.00		-8.80		1.612e-02		127.066		3.896e-03		15.223
7		0.00		-8.40		1.621e-02		126.214		3.667e-03		11.039
7		0.00		-8.00		1.661e-02		126.717		3.378e-03		7.784
7		0.00		-7.60		1.644e-02		126.412		3.097e-03		8.376
7		0.00		-7.20		1.590e-02		126.716		2.960e-03		8.747
7		0.00		-6.80		1.480e-02		128.767		3.106e-03		9.881
7		0.00		-6.40		1.406e-02		124.387		3.719e-03		17.297
7		0.00		-6.00		1.355e-02		125.171		3.913e-03		14.035
7		0.00		-5.60		1.314e-02		126.545		3.370e-03		9.898
7		0.00		-5.20		1.343e-02		127.930		2.842e-03		9.125
7		0.00		-4.80		1.238e-02		126.230		2.295e-03		11.527
7		0.00		-4.40		1.213e-02		128.608		2.721e-03		9.003
7		0.00		-4.00		1.159e-02		127.528		2.980e-03		17.526
7		0.00		-3.60		1.095e-02		126.952		3.009e-03		17.185
7		0.00		-3.20		1.071e-02		124.661		3.007e-03		12.295
7		0.00		-2.80		1.042e-02		124.899		2.468e-03		10.942
7		0.00		-2.40		9.827e-03		124.923		2.153e-03		10.048
7		0.00		-2.00		1.012e-02		125.142		2.188e-03		13.134
7		0.00		-1.60		9.616e-03		126.551		2.441e-03		14.630
7		0.00		-1.20		8.922e-03		123.226		2.202e-03		16.619
7		0.00		-0.80		8.766e-03		124.523		2.416e-03		11.508
7		0.00		-0.40		8.502e-03		127.558		2.363e-03		15.053
8		0.00		0.00		8.682e-03		126.535		1.793e-03		12.150
8		0.00		0.40		8.299e-03		131.210		1.810e-03		14.181
8		0.00		0.80		7.520e-03		128.362		1.838e-03		10.444
8		0.00		1.20		7.481e-03		128.436		1.988e-03		19.445
8		0.00		1.60		6.762e-03		126.075		1.943e-03		19.797
8		0.00		2.00		5.973e-03		132.153		1.929e-03		16.358
8		0.00		2.40		5.403e-03		121.185		1.704e-03		24.746
8		0.00		2.80		4.510e-03		120.218		1.312e-03		41.425
8		0.00		3.20		3.404e-03		111.744		1.049e-03		53.648
8		0.00		3.60		2.796e-03		90.903		1.205e-03		74.306
8		0.00		4.00		2.037e-03		59.480		7.838e-04		69.986
8		0.00		4.40		1.989e-03		13.441		7.232e-04		87.403
8		0.00		4.80		1.788e-03		-27.279		7.120e-04		66.381
8		0.00		5.20		2.423e-03		-37.895		1.038e-03		38.259
8		0.00		5.60		3.383e-03		-57.303		9.742e-04		28.816
8		0.00		6.00		4.237e-03		-51.852		1.293e-03		24.300
8		0.00		6.40		5.486e-03		-53.072		1.796e-03		18.324
8		0.00		6.80		6.440e-03		-46.186		1.905e-03		17.723
8		0.00		7.20		8.140e-03		-52.601		1.811e-03		13.469
8		0.00		7.60		9.939e-03		-56.368		1.901e-03		12.439
8		0.00		8.00		1.150e-02		-50.962		2.085e-03		11.059
8		0.00		8.40		1.305e-02		-51.516		2.811e-03		12.304
8		0.00		8.80		1.472e-02		-50.771		3.435e-03		13.147
8		0.00		9.20		1.645e-02		-52.390		3.734e-03		12.267
8		0.00		9.60		1.923e-02		-53.390		3.848e-03		8.018
8		0.00		10.00		2.179e-02		-53.068		3.714e-03		8.502
8		0.00		9.60		2.298e-02		-52.195		4.411e-03		9.347
8		0.00		9.20		2.331e-02		-51.621		5.523e-03		8.903
8		0.00		8.80		2.288e-02		-51.945		5.933e-03		12.618
8		0.00		8.40		2.345e-02		-52.273		6.305e-03		9.522
8		0.00		8.00		2.371e-02		-51.558		4.971e-03		7.463
8		0.00		7.60		2.399e-02		-52.604		4.552e-03		7.589
8		0.00		7.20		2.331e-02		-51.993		5.012e-03		9.934
8		0.00		6.80		2.277e-02		-51.694		5.810e-03		11.159
8		0.00		6.40		2.279e-02		-51.251		6.162e-03		13.206
8		0.00		6.00		2.211e-02		-53.533		6.019e-03		9.692
8		0.00		5.60		2.241e-02		-53.391		4.913e-03		8.227
8		0.00		5.20		2.306e-02		-53.123		4.059e-03		7.983
8		0.00		4.80		2.213e-02		-52.129		4.133e-03		9.144
8		0.00		4.40		2.190e-02		-50.686		4.605e-03		10.109
8		0.00		4.00		2.117e-02		-50.977		5.264e-03		17.020
8		0.00		3.60		2.093e-02		-50.609		5.096e-03		8.653
8		0.00		3.20		2.137e-02		-51.012		4.031e-03		8.490
8		0.00		2.80		2.129e-02		-52.183		3.900e-03		8.977
8		0.00		2.40		2.073e-02		-51.949		3.919e-03		8.633
8		0.00		2.00		2.061e-02		-50.978		4.497e-03		12.126
8		0.00		1.60		2.005e-02		-51.143		5.060e-03		12.905
8		0.00		1.20		2.032e-02		-52.532		5.091e-03		8.333
8		0.00		0.80		2.007e-02		-51.889		4.274e-03		8.096
8		0.00		0.40		1.988e-02		-49.804		3.650e-03		9.031
8		0.00		0.00		1.941e-02		-52.675		4.055e-03		10.685
8		0.00		-0.40		1.935e-02		-53.897		4.852e-03		13.972
8		0.00		-0.80		1.901e-02		-50.041		5.256e-03		12.365
8		0.00		-1.20		1.918e-02		-51.920		4.829e-03		7.696
8		0.00		-1.60		1.971e-02		-53.693		4.047e-03		9.603
8		0.00		-2.00		1.942e-02		-52.388		3.573e-03		9.947
8		0.00		-2.40		1.867e-02		-51.911		4.315e-03		10.687
8		0.00		-2.80		1.748e-02		-50.482		4.474e-03		13.841
8		0.00		-3.20		1.721e-02		-50.863		4.692e-03		11.963
8		0.00		-3.60		1.708e-02		-55.360		3.639e-03		8.119
8		0.00		-4.00		1.635e-02		-49.513		2.915e-03		10.619
8		0.00		-4.40		1.473e-02		-51.218		3.042e-03		9.209
8		0.00		-4.80		1.283e-02		-51.023		2.957e-03		14.253
8		0.00		-5.20		1.069e-02		-51.271		2.686e-03		15.190
8		0.00		-5.60		9.034e-03		-52.547		2.327e-03		13.291
8		0.00		-6.00		6.895e-03		-51.224		1.550e-03		13.494
8		0.00		-6.40		4.829e-03		-55.337		1.385e-03		18.906
8		0.00		-6.80		2.216e-03		-26.205		9.780e-04		47.548
8		0.00		-7.20		2.687e-03		76.709		1.109e-03		58.531
8		0.00		-7.60		6.080e-03		120.154		1.986e-03		23.745
8		0.00		-8.00		8.609e-03		124.726		2.179e-03		16.434
8		0.00		-8.40		1.011e-02		124.215		2.492e-03		10.875
8		0.00		-8.80		1.169e-02		126.345		3.173e-03		15.012
8		0.00		-9.20		1.304e-02		123.877		4.088e-03		20.308
8		0.00		-9.60		1.437e-02		123.561		4.323e-03		12.662
8		0.00		-10.00		1.605e-02		124.889		4.235e-03		9.008
8		0.00		-9.60		1.641e-02		125.169		4.001e-03		9.572
8		0.00		-9.20		1.611e-02		125.705		4.262e-03		13.276
8		0.00		-8.80		1.564e-02		124.644		4.714e-03		20.863
8		0.00		-8.40		1.549e-02		121.995		4.838e-03		14.128
8		0.00		-8.00		1.624e-02		127.471		4.145e-03		8.903
8		0.00		-7.60		1.570e-02		125.989		3.452e-03		8.959
8		0.00		-7.20		1.515e-02		128.323		3.627e-03		11.480
8		0.00		-6.80		1.474e-02		127.466		3.715e-03		15.934
8		0.00		-6.40		1.388e-02		126.951		3.893e-03		13.429
8		0.00		-6.00		1.401e-02		126.293		3.231e-03		7.392
8		0.00		-5.60		1.373e-02		125.821		2.944e-03		9.308
8		0.00		-5.20		1.303e-02		131.497		2.794e-03		10.767
8		0.00		-4.80		1.264e-02		126.414		3.407e-03		14.272
8		0.00		-4.40		1.207e-02		124.221		3.424e-03		15.338
8		0.00		-4.00		1.175e-02		124.316		2.710e-03		8.687
8		0.00		-3.60		1.141e-02		128.578		2.481e-03		9.555
8		0.00		-3.20		1.107e-02		127.561		2.353e-03		10.988
8		0.00		-2.80		1.091e-02		125.353		2.780e-03		15.726
8		0.00		-2.40		1.008e-02		127.280		2.765e-03		16.248
8		0.00		-2.00		9.667e-03		124.012		2.850e-03		14.890
8		0.00		-1.60		9.677e-03		124.267		2.375e-03		11.735
8		0.00		-1.20		9.649e-03		126.001		2.199e-03		13.507
8		0.00		-0.80		9.166e-03		126.724		2.276e-03		12.672
8		0.00		-0.40		8.634e-03		122.654		2.285e-03		19.688
