# Date of analysis: 2023-11-20 16;19
# 
# Loop index	Read Volt (V)	Write Volt (V)	Amplitude (a.u)	Phase (deg)	Sigma Amp (a.u)	Sigma Pha (deg)	
1		0.00		0.00		1.260e-02		-47.544		3.141e-03		13.678
1		0.00		0.40		1.232e-02		-48.188		2.953e-03		9.777
1		0.00		0.80		1.277e-02		-49.920		3.053e-03		11.147
1		0.00		1.20		1.271e-02		-45.397		2.770e-03		11.207
1		0.00		1.60		1.261e-02		-47.033		2.678e-03		12.138
1		0.00		2.00		1.281e-02		-49.782		2.531e-03		12.113
1		0.00		2.40		1.311e-02		-48.332		2.795e-03		12.377
1		0.00		2.80		1.343e-02		-46.900		2.696e-03		12.957
1		0.00		3.20		1.409e-02		-48.108		2.851e-03		12.496
1		0.00		3.60		1.380e-02		-47.120		2.990e-03		11.796
1		0.00		4.00		1.385e-02		-46.979		3.429e-03		11.971
1		0.00		4.40		1.478e-02		-49.317		3.786e-03		14.079
1		0.00		4.80		1.523e-02		-52.483		4.022e-03		18.005
1		0.00		5.20		1.609e-02		-47.621		4.388e-03		14.977
1		0.00		5.60		1.632e-02		-48.774		4.515e-03		13.285
1		0.00		6.00		1.727e-02		-47.866		4.805e-03		12.467
1		0.00		6.40		1.764e-02		-50.503		4.712e-03		11.760
1		0.00		6.80		1.868e-02		-50.203		4.827e-03		11.391
1		0.00		7.20		1.975e-02		-51.814		4.472e-03		11.675
1		0.00		7.60		2.040e-02		-50.910		4.692e-03		12.843
1		0.00		8.00		2.199e-02		-52.779		4.685e-03		11.817
1		0.00		8.40		2.285e-02		-52.558		4.983e-03		12.045
1		0.00		8.80		2.446e-02		-52.259		5.282e-03		10.929
1		0.00		9.20		2.526e-02		-50.873		5.518e-03		10.597
1		0.00		9.60		2.656e-02		-50.465		5.637e-03		10.683
1		0.00		10.00		2.750e-02		-51.203		6.696e-03		14.786
1		0.00		9.60		2.884e-02		-49.495		6.886e-03		11.935
1		0.00		9.20		2.905e-02		-50.039		6.871e-03		9.900
1		0.00		8.80		2.932e-02		-50.870		6.894e-03		9.088
1		0.00		8.40		2.955e-02		-51.789		6.526e-03		10.378
1		0.00		8.00		3.001e-02		-51.188		6.021e-03		9.774
1		0.00		7.60		3.004e-02		-51.020		5.886e-03		9.735
1		0.00		7.20		3.053e-02		-51.124		5.708e-03		9.763
1		0.00		6.80		3.018e-02		-52.158		5.750e-03		10.406
1		0.00		6.40		2.995e-02		-51.982		5.644e-03		9.772
1		0.00		6.00		2.956e-02		-51.529		5.977e-03		10.896
1		0.00		5.60		2.867e-02		-49.735		6.544e-03		11.247
1		0.00		5.20		2.810e-02		-49.928		6.494e-03		14.459
1		0.00		4.80		2.783e-02		-50.660		6.775e-03		11.869
1		0.00		4.40		2.734e-02		-51.918		6.446e-03		10.675
1		0.00		4.00		2.770e-02		-50.719		5.824e-03		10.484
1		0.00		3.60		2.773e-02		-51.369		5.592e-03		10.621
1		0.00		3.20		2.831e-02		-50.553		5.151e-03		9.048
1		0.00		2.80		2.782e-02		-49.825		5.338e-03		9.766
1		0.00		2.40		2.792e-02		-50.243		5.059e-03		10.117
1		0.00		2.00		2.792e-02		-48.974		5.803e-03		9.683
1		0.00		1.60		2.678e-02		-49.293		5.628e-03		11.687
1		0.00		1.20		2.698e-02		-49.347		5.978e-03		10.423
1		0.00		0.80		2.701e-02		-48.856		6.152e-03		10.223
1		0.00		0.40		2.715e-02		-50.037		5.900e-03		10.581
1		0.00		0.00		2.667e-02		-50.615		5.788e-03		10.081
1		0.00		-0.40		2.651e-02		-48.611		5.404e-03		9.420
1		0.00		-0.80		2.650e-02		-52.006		5.592e-03		10.738
1		0.00		-1.20		2.605e-02		-49.886		5.682e-03		10.518
1		0.00		-1.60		2.521e-02		-51.433		5.860e-03		12.005
1		0.00		-2.00		2.521e-02		-50.495		5.759e-03		11.668
1		0.00		-2.40		2.381e-02		-51.536		6.407e-03		15.724
1		0.00		-2.80		2.350e-02		-49.959		6.524e-03		11.503
1		0.00		-3.20		2.301e-02		-49.809		6.221e-03		11.063
1		0.00		-3.60		2.215e-02		-50.213		5.321e-03		11.679
1		0.00		-4.00		2.234e-02		-50.896		5.097e-03		10.732
1		0.00		-4.40		2.188e-02		-52.309		4.673e-03		11.596
1		0.00		-4.80		2.088e-02		-48.310		3.916e-03		10.284
1		0.00		-5.20		1.961e-02		-49.134		4.035e-03		11.529
1		0.00		-5.60		1.845e-02		-48.468		4.214e-03		14.182
1		0.00		-6.00		1.717e-02		-47.863		3.820e-03		12.712
1		0.00		-6.40		1.636e-02		-47.313		3.934e-03		11.810
1		0.00		-6.80		1.505e-02		-47.358		3.136e-03		14.258
1		0.00		-7.20		1.368e-02		-46.051		2.767e-03		13.431
1		0.00		-7.60		1.190e-02		-43.340		2.556e-03		12.278
1		0.00		-8.00		9.371e-03		-42.699		2.025e-03		11.438
1		0.00		-8.40		6.263e-03		-41.575		1.590e-03		23.348
1		0.00		-8.80		3.900e-03		-34.157		1.197e-03		25.454
1		0.00		-9.20		2.180e-03		10.951		9.330e-04		53.720
1		0.00		-9.60		3.117e-03		70.587		1.299e-03		43.223
1		0.00		-10.00		4.623e-03		101.291		1.722e-03		34.871
1		0.00		-9.60		6.195e-03		114.065		2.050e-03		17.354
1		0.00		-9.20		6.544e-03		110.743		1.927e-03		21.646
1		0.00		-8.80		7.229e-03		116.995		2.139e-03		17.515
1		0.00		-8.40		6.995e-03		115.211		2.185e-03		19.441
1		0.00		-8.00		6.857e-03		109.968		2.189e-03		27.841
1		0.00		-7.60		6.395e-03		114.186		2.115e-03		22.673
1		0.00		-7.20		6.521e-03		114.338		2.169e-03		17.264
1		0.00		-6.80		6.750e-03		116.988		2.153e-03		19.152
1		0.00		-6.40		6.325e-03		108.957		1.979e-03		17.257
1		0.00		-6.00		6.108e-03		115.466		1.838e-03		16.844
1		0.00		-5.60		5.911e-03		113.192		1.696e-03		21.233
1		0.00		-5.20		5.641e-03		111.853		1.728e-03		28.412
1		0.00		-4.80		5.280e-03		111.052		1.746e-03		27.390
1		0.00		-4.40		5.158e-03		107.157		1.602e-03		18.070
1		0.00		-4.00		5.137e-03		115.043		1.756e-03		22.044
1		0.00		-3.60		5.151e-03		106.646		1.798e-03		20.290
1		0.00		-3.20		5.415e-03		108.427		1.555e-03		19.810
1		0.00		-2.80		4.513e-03		109.848		1.420e-03		30.565
1		0.00		-2.40		4.631e-03		101.633		1.690e-03		39.323
1		0.00		-2.00		4.596e-03		103.790		1.614e-03		34.480
1		0.00		-1.60		4.474e-03		100.556		1.625e-03		31.994
1		0.00		-1.20		4.540e-03		107.182		1.496e-03		22.894
1		0.00		-0.80		4.245e-03		104.191		1.505e-03		26.677
1		0.00		-0.40		4.342e-03		98.834		1.444e-03		33.929
2		0.00		0.00		3.852e-03		95.495		1.597e-03		36.380
2		0.00		0.40		4.019e-03		91.473		1.738e-03		44.248
2		0.00		0.80		3.964e-03		102.609		1.487e-03		35.333
2		0.00		1.20		3.426e-03		99.454		1.210e-03		39.888
2		0.00		1.60		3.447e-03		92.203		1.313e-03		42.223
2		0.00		2.00		2.752e-03		75.907		1.187e-03		46.727
2		0.00		2.40		2.436e-03		55.157		9.649e-04		71.448
2		0.00		2.80		1.939e-03		29.617		7.931e-04		61.369
2		0.00		3.20		1.966e-03		2.208		9.475e-04		47.833
2		0.00		3.60		2.692e-03		-33.835		9.693e-04		38.224
2		0.00		4.00		3.280e-03		-32.527		9.732e-04		28.414
2		0.00		4.40		4.321e-03		-36.668		1.236e-03		23.618
2		0.00		4.80		4.784e-03		-47.713		1.496e-03		24.474
2		0.00		5.20		5.443e-03		-36.441		1.513e-03		21.552
2		0.00		5.60		6.016e-03		-38.870		1.590e-03		18.926
2		0.00		6.00		6.527e-03		-41.892		1.911e-03		19.818
2		0.00		6.40		7.627e-03		-45.778		1.852e-03		14.465
2		0.00		6.80		8.864e-03		-51.289		1.883e-03		16.128
2		0.00		7.20		9.808e-03		-48.305		1.894e-03		13.379
2		0.00		7.60		1.073e-02		-46.845		2.375e-03		14.749
2		0.00		8.00		1.149e-02		-44.767		2.865e-03		12.084
2		0.00		8.40		1.264e-02		-49.253		3.085e-03		14.278
2		0.00		8.80		1.408e-02		-50.285		3.663e-03		10.417
2		0.00		9.20		1.691e-02		-51.583		3.831e-03		11.286
2		0.00		9.60		1.973e-02		-51.671		3.936e-03		10.267
2		0.00		10.00		2.193e-02		-53.157		4.434e-03		9.203
2		0.00		9.60		2.346e-02		-51.082		4.665e-03		9.451
2		0.00		9.20		2.424e-02		-50.666		4.947e-03		11.275
2		0.00		8.80		2.448e-02		-50.845		5.664e-03		13.283
2		0.00		8.40		2.431e-02		-50.696		5.648e-03		9.766
2		0.00		8.00		2.443e-02		-50.748		5.531e-03		9.385
2		0.00		7.60		2.488e-02		-51.719		4.863e-03		8.853
2		0.00		7.20		2.561e-02		-51.533		4.784e-03		9.466
2		0.00		6.80		2.490e-02		-49.682		4.797e-03		9.641
2		0.00		6.40		2.446e-02		-52.327		5.059e-03		9.476
2		0.00		6.00		2.372e-02		-52.498		5.503e-03		12.178
2		0.00		5.60		2.328e-02		-50.848		6.464e-03		14.605
2		0.00		5.20		2.267e-02		-50.633		6.385e-03		13.073
2		0.00		4.80		2.220e-02		-52.852		6.021e-03		11.224
2		0.00		4.40		2.269e-02		-52.181		5.467e-03		10.986
2		0.00		4.00		2.288e-02		-52.809		5.270e-03		12.668
2		0.00		3.60		2.275e-02		-51.722		5.243e-03		9.490
2		0.00		3.20		2.242e-02		-52.098		5.372e-03		10.125
2		0.00		2.80		2.202e-02		-50.333		5.300e-03		12.619
2		0.00		2.40		2.206e-02		-47.749		5.219e-03		14.387
2		0.00		2.00		2.213e-02		-48.746		5.129e-03		13.046
2		0.00		1.60		2.194e-02		-49.016		5.257e-03		10.530
2		0.00		1.20		2.208e-02		-49.540		4.896e-03		10.107
2		0.00		0.80		2.195e-02		-49.044		4.528e-03		9.114
2		0.00		0.40		2.173e-02		-49.245		4.338e-03		9.660
2		0.00		0.00		2.189e-02		-49.576		4.504e-03		10.309
2		0.00		-0.40		2.182e-02		-49.703		4.374e-03		10.062
2		0.00		-0.80		2.096e-02		-49.478		4.122e-03		13.320
2		0.00		-1.20		2.054e-02		-49.922		4.666e-03		12.282
2		0.00		-1.60		2.068e-02		-49.298		4.675e-03		10.777
2		0.00		-2.00		1.991e-02		-50.238		4.716e-03		10.975
2		0.00		-2.40		2.000e-02		-49.858		4.437e-03		10.471
2		0.00		-2.80		1.948e-02		-48.078		3.958e-03		10.988
2		0.00		-3.20		1.978e-02		-51.498		4.089e-03		10.459
2		0.00		-3.60		1.923e-02		-49.397		4.032e-03		10.033
2		0.00		-4.00		1.870e-02		-48.353		3.766e-03		10.684
2		0.00		-4.40		1.774e-02		-46.311		3.835e-03		10.223
2		0.00		-4.80		1.657e-02		-47.747		4.140e-03		13.634
2		0.00		-5.20		1.553e-02		-45.499		4.069e-03		12.119
2		0.00		-5.60		1.460e-02		-49.771		3.944e-03		12.254
2		0.00		-6.00		1.372e-02		-50.581		3.318e-03		13.240
2		0.00		-6.40		1.256e-02		-45.009		2.776e-03		12.049
2		0.00		-6.80		1.142e-02		-49.088		2.234e-03		13.839
2		0.00		-7.20		9.680e-03		-46.863		1.999e-03		14.338
2		0.00		-7.60		7.767e-03		-40.768		1.812e-03		14.089
2		0.00		-8.00		6.184e-03		-32.788		1.688e-03		19.696
2		0.00		-8.40		4.220e-03		-41.542		1.383e-03		19.986
2		0.00		-8.80		2.906e-03		-22.289		1.058e-03		30.784
2		0.00		-9.20		2.091e-03		34.034		7.520e-04		61.182
2		0.00		-9.60		3.626e-03		91.678		1.568e-03		40.283
2		0.00		-10.00		5.105e-03		111.348		1.649e-03		17.752
2		0.00		-9.60		6.950e-03		110.205		2.207e-03		28.865
2		0.00		-9.20		7.974e-03		119.939		2.245e-03		10.821
2		0.00		-8.80		7.832e-03		117.788		2.235e-03		13.990
2		0.00		-8.40		8.189e-03		118.557		2.541e-03		16.498
2		0.00		-8.00		7.636e-03		114.359		2.382e-03		21.063
2		0.00		-7.60		7.843e-03		114.184		2.488e-03		26.758
2		0.00		-7.20		7.143e-03		113.368		2.446e-03		28.340
2		0.00		-6.80		7.628e-03		120.045		2.480e-03		18.570
2		0.00		-6.40		7.246e-03		112.827		2.342e-03		25.995
2		0.00		-6.00		6.986e-03		115.154		2.229e-03		32.045
2		0.00		-5.60		6.739e-03		113.900		2.097e-03		20.658
2		0.00		-5.20		6.911e-03		113.955		2.099e-03		14.442
2		0.00		-4.80		6.403e-03		115.274		1.841e-03		18.285
2		0.00		-4.40		6.169e-03		118.054		1.849e-03		27.388
2		0.00		-4.00		5.960e-03		110.855		1.924e-03		32.306
2		0.00		-3.60		5.988e-03		116.719		1.915e-03		24.908
2		0.00		-3.20		5.823e-03		112.667		1.850e-03		22.215
2		0.00		-2.80		5.751e-03		114.395		1.812e-03		20.216
2		0.00		-2.40		5.863e-03		114.004		1.528e-03		17.557
2		0.00		-2.00		5.875e-03		111.805		1.845e-03		21.767
2		0.00		-1.60		5.645e-03		110.070		1.993e-03		28.836
2		0.00		-1.20		5.545e-03		119.206		1.651e-03		17.924
2		0.00		-0.80		5.272e-03		109.552		1.622e-03		25.576
2		0.00		-0.40		5.271e-03		104.420		1.829e-03		28.590
3		0.00		0.00		5.590e-03		113.750		1.934e-03		21.367
3		0.00		0.40		4.681e-03		111.560		1.347e-03		31.316
3		0.00		0.80		4.805e-03		107.777		1.421e-03		24.523
3		0.00		1.20		4.613e-03		107.715		1.617e-03		30.262
3		0.00		1.60		4.284e-03		111.308		1.654e-03		22.313
3		0.00		2.00		3.689e-03		111.946		1.305e-03		22.231
3		0.00		2.40		3.287e-03		99.055		1.156e-03		40.070
3		0.00		2.80		2.644e-03		60.371		1.125e-03		56.026
3		0.00		3.20		1.966e-03		43.229		7.220e-04		61.681
3		0.00		3.60		1.858e-03		16.350		8.337e-04		73.170
3		0.00		4.00		2.066e-03		-18.592		9.747e-04		53.118
3		0.00		4.40		2.689e-03		-36.042		9.585e-04		36.260
3		0.00		4.80		3.209e-03		-29.487		1.134e-03		32.813
3		0.00		5.20		3.642e-03		-30.395		1.313e-03		29.030
3		0.00		5.60		4.576e-03		-49.012		1.276e-03		17.810
3		0.00		6.00		5.674e-03		-45.371		1.377e-03		16.952
3		0.00		6.40		6.022e-03		-48.392		1.716e-03		22.316
3		0.00		6.80		6.690e-03		-45.272		1.876e-03		17.882
3		0.00		7.20		7.881e-03		-45.793		1.984e-03		11.961
3		0.00		7.60		8.989e-03		-51.076		2.042e-03		15.165
3		0.00		8.00		1.066e-02		-50.392		2.419e-03		14.355
3		0.00		8.40		1.203e-02		-52.151		2.633e-03		12.592
3		0.00		8.80		1.350e-02		-47.743		3.225e-03		14.059
3		0.00		9.20		1.494e-02		-50.016		3.940e-03		14.860
3		0.00		9.60		1.753e-02		-49.465		5.246e-03		16.203
3		0.00		10.00		1.971e-02		-51.866		5.362e-03		11.845
3		0.00		9.60		2.079e-02		-52.706		5.199e-03		11.011
3		0.00		9.20		2.230e-02		-51.484		5.089e-03		10.494
3		0.00		8.80		2.267e-02		-53.507		5.255e-03		12.801
3		0.00		8.40		2.302e-02		-49.135		5.014e-03		9.850
3		0.00		8.00		2.272e-02		-49.031		5.002e-03		12.746
3		0.00		7.60		2.275e-02		-50.223		5.341e-03		12.080
3		0.00		7.20		2.256e-02		-48.899		5.772e-03		11.955
3		0.00		6.80		2.287e-02		-51.687		5.501e-03		10.479
3		0.00		6.40		2.256e-02		-51.293		4.831e-03		9.792
3		0.00		6.00		2.258e-02		-49.609		4.985e-03		11.163
3		0.00		5.60		2.281e-02		-51.079		4.689e-03		9.065
3		0.00		5.20		2.155e-02		-49.058		4.888e-03		12.591
3		0.00		4.80		2.167e-02		-51.232		5.310e-03		14.451
3		0.00		4.40		2.122e-02		-51.330		5.967e-03		10.594
3		0.00		4.00		2.122e-02		-50.720		5.317e-03		9.803
3		0.00		3.60		2.142e-02		-51.283		4.789e-03		10.237
3		0.00		3.20		2.184e-02		-50.891		4.250e-03		9.410
3		0.00		2.80		2.104e-02		-50.402		4.466e-03		11.159
3		0.00		2.40		2.130e-02		-48.896		4.484e-03		12.049
3		0.00		2.00		2.070e-02		-50.516		5.141e-03		12.234
3		0.00		1.60		2.061e-02		-46.577		5.703e-03		12.289
3		0.00		1.20		2.047e-02		-47.505		5.564e-03		11.084
3		0.00		0.80		2.088e-02		-48.856		4.912e-03		11.519
3		0.00		0.40		2.063e-02		-48.886		4.389e-03		9.826
3		0.00		0.00		2.126e-02		-50.681		4.224e-03		10.169
3		0.00		-0.40		2.065e-02		-48.849		4.265e-03		9.493
3		0.00		-0.80		2.071e-02		-50.945		4.475e-03		9.370
3		0.00		-1.20		2.016e-02		-47.645		4.712e-03		13.197
3		0.00		-1.60		1.909e-02		-47.223		4.938e-03		11.968
3		0.00		-2.00		1.872e-02		-46.572		4.590e-03		9.238
3		0.00		-2.40		1.883e-02		-48.749		4.133e-03		11.296
3		0.00		-2.80		1.829e-02		-49.977		3.570e-03		9.993
3		0.00		-3.20		1.833e-02		-49.180		4.153e-03		11.133
3		0.00		-3.60		1.703e-02		-52.344		3.912e-03		11.745
3		0.00		-4.00		1.687e-02		-49.641		4.538e-03		13.888
3		0.00		-4.40		1.654e-02		-49.464		4.803e-03		15.549
3		0.00		-4.80		1.581e-02		-51.278		3.949e-03		9.010
3		0.00		-5.20		1.489e-02		-47.018		3.456e-03		12.785
3		0.00		-5.60		1.425e-02		-48.467		3.181e-03		12.205
3		0.00		-6.00		1.315e-02		-48.093		3.086e-03		11.631
3		0.00		-6.40		1.176e-02		-51.475		2.681e-03		13.402
3		0.00		-6.80		1.054e-02		-50.558		2.587e-03		15.409
3		0.00		-7.20		9.473e-03		-48.457		2.843e-03		15.173
3		0.00		-7.60		8.225e-03		-42.094		2.003e-03		15.338
3		0.00		-8.00		5.684e-03		-46.348		1.696e-03		26.902
3		0.00		-8.40		4.622e-03		-27.717		1.325e-03		21.626
3		0.00		-8.80		2.886e-03		-39.064		1.088e-03		35.440
3		0.00		-9.20		1.896e-03		-7.121		7.500e-04		58.926
3		0.00		-9.60		2.659e-03		66.321		1.180e-03		56.967
3		0.00		-10.00		3.723e-03		92.477		1.374e-03		39.842
3		0.00		-9.60		4.730e-03		92.331		1.737e-03		30.877
3		0.00		-9.20		6.051e-03		113.687		1.778e-03		23.995
3		0.00		-8.80		6.585e-03		115.414		1.834e-03		21.878
3		0.00		-8.40		6.809e-03		119.374		1.781e-03		14.836
3		0.00		-8.00		6.897e-03		116.519		2.248e-03		17.589
3		0.00		-7.60		6.750e-03		119.227		2.016e-03		15.245
3		0.00		-7.20		6.498e-03		112.648		1.909e-03		21.237
3		0.00		-6.80		6.248e-03		110.033		2.015e-03		27.655
3		0.00		-6.40		6.222e-03		119.307		1.753e-03		18.748
3		0.00		-6.00		6.328e-03		113.111		1.777e-03		28.204
3		0.00		-5.60		6.450e-03		116.190		1.868e-03		21.992
3		0.00		-5.20		5.897e-03		116.229		1.823e-03		21.199
3		0.00		-4.80		5.690e-03		117.564		1.859e-03		22.197
3		0.00		-4.40		5.915e-03		112.188		1.876e-03		20.323
3		0.00		-4.00		5.479e-03		111.010		1.740e-03		37.591
3		0.00		-3.60		5.652e-03		113.023		1.848e-03		21.042
3		0.00		-3.20		5.563e-03		112.586		1.525e-03		18.719
3		0.00		-2.80		5.465e-03		114.289		1.682e-03		25.222
3		0.00		-2.40		5.460e-03		119.491		1.584e-03		19.479
3		0.00		-2.00		5.374e-03		113.802		1.702e-03		19.498
3		0.00		-1.60		5.207e-03		109.966		1.443e-03		20.455
3		0.00		-1.20		5.374e-03		105.951		1.751e-03		29.817
3		0.00		-0.80		5.311e-03		107.905		1.722e-03		27.373
3		0.00		-0.40		5.008e-03		113.813		1.546e-03		19.979
4		0.00		0.00		4.978e-03		117.454		1.566e-03		22.900
4		0.00		0.40		4.627e-03		107.173		1.527e-03		35.884
4		0.00		0.80		4.695e-03		104.176		1.664e-03		24.340
4		0.00		1.20		4.372e-03		113.921		1.303e-03		24.467
4		0.00		1.60		3.963e-03		109.319		1.466e-03		34.393
4		0.00		2.00		3.582e-03		93.528		1.351e-03		39.891
4		0.00		2.40		2.795e-03		93.312		1.130e-03		52.859
4		0.00		2.80		2.482e-03		74.440		9.928e-04		53.170
4		0.00		3.20		2.121e-03		55.540		9.035e-04		65.316
4		0.00		3.60		2.030e-03		6.165		8.697e-04		64.827
4		0.00		4.00		2.114e-03		-27.988		8.655e-04		54.033
4		0.00		4.40		2.791e-03		-27.521		1.068e-03		40.854
4		0.00		4.80		3.453e-03		-36.744		1.095e-03		29.899
4		0.00		5.20		4.088e-03		-52.885		1.181e-03		27.822
4		0.00		5.60		4.671e-03		-49.966		1.337e-03		19.571
4		0.00		6.00		5.436e-03		-42.230		1.560e-03		24.075
4		0.00		6.40		6.539e-03		-40.225		1.528e-03		16.211
4		0.00		6.80		7.341e-03		-40.560		1.829e-03		18.616
4		0.00		7.20		8.299e-03		-41.202		2.341e-03		19.091
4		0.00		7.60		9.448e-03		-44.928		2.293e-03		13.831
4		0.00		8.00		1.099e-02		-47.311		2.503e-03		13.967
4		0.00		8.40		1.264e-02		-50.276		2.588e-03		10.481
4		0.00		8.80		1.401e-02		-50.934		2.887e-03		12.544
4		0.00		9.20		1.586e-02		-52.577		3.433e-03		11.028
4		0.00		9.60		1.848e-02		-49.778		3.905e-03		11.215
4		0.00		10.00		2.066e-02		-49.660		4.242e-03		9.738
4		0.00		9.60		2.135e-02		-51.795		5.135e-03		11.035
4		0.00		9.20		2.219e-02		-51.538		5.449e-03		11.241
4		0.00		8.80		2.235e-02		-49.520		5.693e-03		9.429
4		0.00		8.40		2.273e-02		-50.183		5.969e-03		9.196
4		0.00		8.00		2.266e-02		-51.547		5.408e-03		8.976
4		0.00		7.60		2.293e-02		-52.033		4.961e-03		8.298
4		0.00		7.20		2.315e-02		-54.214		4.922e-03		10.378
4		0.00		6.80		2.278e-02		-51.131		4.437e-03		10.241
4		0.00		6.40		2.230e-02		-49.784		4.652e-03		10.840
4		0.00		6.00		2.255e-02		-49.931		4.715e-03		11.131
4		0.00		5.60		2.187e-02		-49.022		5.091e-03		12.734
4		0.00		5.20		2.188e-02		-49.717		5.199e-03		9.614
4		0.00		4.80		2.190e-02		-50.211		5.144e-03		9.383
4		0.00		4.40		2.191e-02		-51.108		4.842e-03		10.565
4		0.00		4.00		2.201e-02		-51.195		4.161e-03		9.762
4		0.00		3.60		2.110e-02		-50.584		4.395e-03		11.157
4		0.00		3.20		2.123e-02		-50.603		4.813e-03		10.795
4		0.00		2.80		2.036e-02		-50.139		5.123e-03		14.066
4		0.00		2.40		1.967e-02		-51.452		5.403e-03		13.777
4		0.00		2.00		1.952e-02		-48.670		5.513e-03		12.286
4		0.00		1.60		2.020e-02		-49.788		5.376e-03		9.865
4		0.00		1.20		1.967e-02		-51.372		4.777e-03		11.403
4		0.00		0.80		1.969e-02		-50.400		4.444e-03		12.164
4		0.00		0.40		2.021e-02		-51.848		4.543e-03		10.527
4		0.00		0.00		1.966e-02		-49.783		4.679e-03		11.968
4		0.00		-0.40		1.867e-02		-49.718		4.830e-03		15.015
4		0.00		-0.80		1.924e-02		-48.993		5.310e-03		13.086
4		0.00		-1.20		1.919e-02		-46.528		4.957e-03		11.312
4		0.00		-1.60		1.898e-02		-50.312		4.628e-03		11.661
4		0.00		-2.00		1.862e-02		-50.265		3.894e-03		9.633
4		0.00		-2.40		1.911e-02		-49.463		3.647e-03		8.464
4		0.00		-2.80		1.872e-02		-48.805		3.704e-03		11.627
4		0.00		-3.20		1.795e-02		-47.632		3.681e-03		10.672
4		0.00		-3.60		1.729e-02		-46.873		3.862e-03		11.225
4		0.00		-4.00		1.654e-02		-46.352		4.137e-03		12.062
4		0.00		-4.40		1.633e-02		-48.713		4.017e-03		11.084
4		0.00		-4.80		1.592e-02		-49.258		3.411e-03		9.001
4		0.00		-5.20		1.553e-02		-49.328		3.281e-03		10.469
4		0.00		-5.60		1.458e-02		-48.370		2.774e-03		9.971
4		0.00		-6.00		1.371e-02		-47.331		2.766e-03		13.592
4		0.00		-6.40		1.195e-02		-51.189		2.527e-03		13.056
4		0.00		-6.80		1.032e-02		-43.708		2.340e-03		14.067
4		0.00		-7.20		9.583e-03		-44.797		2.444e-03		15.983
4		0.00		-7.60		8.106e-03		-41.532		2.186e-03		14.432
4		0.00		-8.00		6.543e-03		-42.048		1.858e-03		20.453
4		0.00		-8.40		5.111e-03		-36.037		1.537e-03		18.261
4		0.00		-8.80		3.476e-03		-49.422		1.188e-03		28.462
4		0.00		-9.20		2.321e-03		-20.841		9.904e-04		42.476
4		0.00		-9.60		1.940e-03		29.023		9.173e-04		65.010
4		0.00		-10.00		3.214e-03		75.397		1.223e-03		39.634
4		0.00		-9.60		3.907e-03		109.743		1.253e-03		24.887
4		0.00		-9.20		4.952e-03		111.850		1.586e-03		25.262
4		0.00		-8.80		5.283e-03		109.887		1.760e-03		24.880
4		0.00		-8.40		6.334e-03		109.828		1.809e-03		23.640
4		0.00		-8.00		7.301e-03		117.014		1.913e-03		12.411
4		0.00		-7.60		7.086e-03		119.501		1.979e-03		16.409
4		0.00		-7.20		7.106e-03		117.754		1.732e-03		18.188
4		0.00		-6.80		6.908e-03		114.013		2.054e-03		18.136
4		0.00		-6.40		6.220e-03		113.293		1.810e-03		20.794
4		0.00		-6.00		6.382e-03		112.408		2.058e-03		24.629
4		0.00		-5.60		5.980e-03		110.987		1.903e-03		21.319
4		0.00		-5.20		5.972e-03		119.649		2.077e-03		19.512
4		0.00		-4.80		5.770e-03		112.308		1.756e-03		19.852
4		0.00		-4.40		5.836e-03		115.832		1.924e-03		18.642
4		0.00		-4.00		6.018e-03		116.040		1.892e-03		19.426
4		0.00		-3.60		5.672e-03		115.387		1.766e-03		20.804
4		0.00		-3.20		5.251e-03		107.816		1.870e-03		30.391
4		0.00		-2.80		4.946e-03		109.075		1.922e-03		33.735
4		0.00		-2.40		5.078e-03		112.019		1.649e-03		22.147
4		0.00		-2.00		5.302e-03		114.911		1.550e-03		23.754
4		0.00		-1.60		5.381e-03		113.338		1.542e-03		18.454
4		0.00		-1.20		5.589e-03		110.577		1.437e-03		20.073
4		0.00		-0.80		5.100e-03		113.863		1.300e-03		20.015
4		0.00		-0.40		5.068e-03		114.085		1.510e-03		23.417
5		0.00		0.00		4.912e-03		110.334		1.520e-03		25.050
5		0.00		0.40		4.490e-03		115.755		1.586e-03		29.174
5		0.00		0.80		4.738e-03		100.698		1.372e-03		21.242
5		0.00		1.20		4.802e-03		108.354		1.501e-03		23.405
5		0.00		1.60		4.335e-03		107.168		1.588e-03		26.069
5		0.00		2.00		3.940e-03		106.579		1.366e-03		28.440
5		0.00		2.40		2.970e-03		95.743		1.085e-03		30.373
5		0.00		2.80		2.708e-03		78.918		1.129e-03		56.726
5		0.00		3.20		2.137e-03		44.646		8.266e-04		64.504
5		0.00		3.60		1.753e-03		21.691		7.826e-04		71.414
5		0.00		4.00		1.874e-03		-7.834		8.015e-04		64.660
5		0.00		4.40		2.275e-03		-28.909		9.792e-04		41.942
5		0.00		4.80		2.906e-03		-48.038		1.079e-03		31.397
5		0.00		5.20		3.865e-03		-39.910		1.393e-03		25.776
5		0.00		5.60		4.116e-03		-42.091		1.308e-03		24.653
5		0.00		6.00		4.822e-03		-43.792		1.352e-03		24.884
5		0.00		6.40		5.770e-03		-44.095		1.587e-03		16.641
5		0.00		6.80		6.690e-03		-43.609		1.627e-03		18.279
5		0.00		7.20		7.329e-03		-45.188		1.711e-03		15.553
5		0.00		7.60		8.743e-03		-49.990		1.706e-03		13.599
5		0.00		8.00		9.634e-03		-46.403		2.065e-03		12.829
5		0.00		8.40		1.098e-02		-46.382		2.341e-03		13.994
5		0.00		8.80		1.266e-02		-47.658		2.614e-03		12.282
5		0.00		9.20		1.428e-02		-50.106		3.180e-03		11.338
5		0.00		9.60		1.592e-02		-51.490		3.898e-03		15.874
5		0.00		10.00		1.830e-02		-49.029		4.706e-03		10.954
5		0.00		9.60		2.018e-02		-50.169		5.014e-03		8.539
5		0.00		9.20		2.059e-02		-52.841		4.684e-03		9.542
5		0.00		8.80		2.139e-02		-50.483		4.712e-03		10.162
5		0.00		8.40		2.163e-02		-52.243		4.861e-03		12.035
5		0.00		8.00		2.161e-02		-51.296		4.904e-03		10.650
5		0.00		7.60		2.107e-02		-48.588		5.537e-03		13.983
5		0.00		7.20		2.069e-02		-48.126		5.905e-03		14.651
5		0.00		6.80		2.065e-02		-49.298		5.806e-03		11.335
5		0.00		6.40		2.123e-02		-51.046		5.423e-03		9.483
5		0.00		6.00		2.109e-02		-50.718		4.853e-03		10.414
5		0.00		5.60		2.105e-02		-50.933		4.170e-03		10.241
5		0.00		5.20		2.093e-02		-49.153		4.281e-03		11.439
5		0.00		4.80		2.103e-02		-50.263		4.131e-03		11.374
5		0.00		4.40		2.032e-02		-48.721		4.870e-03		11.570
5		0.00		4.00		2.035e-02		-49.671		5.042e-03		10.807
5		0.00		3.60		2.025e-02		-49.610		4.803e-03		10.054
5		0.00		3.20		2.075e-02		-50.500		4.365e-03		9.216
5		0.00		2.80		2.030e-02		-49.430		3.897e-03		10.710
5		0.00		2.40		2.048e-02		-50.145		3.904e-03		9.191
5		0.00		2.00		2.025e-02		-48.674		4.167e-03		10.858
5		0.00		1.60		1.962e-02		-49.815		4.217e-03		10.379
5		0.00		1.20		1.929e-02		-49.992		4.555e-03		10.252
5		0.00		0.80		1.902e-02		-48.188		4.742e-03		9.822
5		0.00		0.40		1.936e-02		-48.818		5.112e-03		8.779
5		0.00		0.00		1.905e-02		-48.758		4.396e-03		8.887
5		0.00		-0.40		1.942e-02		-49.721		4.077e-03		10.010
5		0.00		-0.80		1.915e-02		-50.192		3.632e-03		10.863
5		0.00		-1.20		1.922e-02		-49.610		3.587e-03		9.000
5		0.00		-1.60		1.811e-02		-47.938		4.140e-03		11.121
5		0.00		-2.00		1.827e-02		-51.077		4.063e-03		12.321
5		0.00		-2.40		1.736e-02		-50.765		4.099e-03		14.112
5		0.00		-2.80		1.745e-02		-50.603		4.249e-03		13.260
5		0.00		-3.20		1.717e-02		-49.554		4.106e-03		10.713
5		0.00		-3.60		1.707e-02		-48.447		3.875e-03		10.972
5		0.00		-4.00		1.660e-02		-49.874		3.216e-03		10.948
5		0.00		-4.40		1.651e-02		-50.083		3.142e-03		9.755
5		0.00		-4.80		1.600e-02		-48.542		3.086e-03		11.516
5		0.00		-5.20		1.525e-02		-48.716		3.003e-03		10.689
5		0.00		-5.60		1.390e-02		-50.712		2.791e-03		13.696
5		0.00		-6.00		1.292e-02		-49.863		3.044e-03		14.150
5		0.00		-6.40		1.153e-02		-46.187		2.932e-03		12.069
5		0.00		-6.80		1.058e-02		-49.255		2.913e-03		13.619
5		0.00		-7.20		8.834e-03		-40.935		2.389e-03		15.310
5		0.00		-7.60		8.070e-03		-45.021		2.113e-03		13.852
5		0.00		-8.00		6.246e-03		-46.642		1.540e-03		22.464
5		0.00		-8.40		4.985e-03		-37.204		1.416e-03		25.601
5		0.00		-8.80		3.683e-03		-36.768		1.318e-03		26.679
5		0.00		-9.20		2.257e-03		-8.502		8.891e-04		54.565
5		0.00		-9.60		2.123e-03		41.837		9.995e-04		61.868
5		0.00		-10.00		3.525e-03		83.427		1.542e-03		48.410
5		0.00		-9.60		5.001e-03		106.969		1.666e-03		29.377
5		0.00		-9.20		5.571e-03		110.326		1.955e-03		35.374
5		0.00		-8.80		5.786e-03		111.430		1.602e-03		22.911
5		0.00		-8.40		6.415e-03		106.524		1.644e-03		18.934
5		0.00		-8.00		6.702e-03		115.136		2.011e-03		27.156
5		0.00		-7.60		6.089e-03		113.384		2.064e-03		22.930
5		0.00		-7.20		6.191e-03		122.207		1.753e-03		19.229
5		0.00		-6.80		5.635e-03		112.593		1.824e-03		26.025
5		0.00		-6.40		5.607e-03		114.469		1.965e-03		29.789
5		0.00		-6.00		5.985e-03		115.999		1.946e-03		22.354
5		0.00		-5.60		5.686e-03		109.595		1.720e-03		22.828
5		0.00		-5.20		5.708e-03		113.470		1.886e-03		26.981
5		0.00		-4.80		5.406e-03		114.282		1.561e-03		19.266
5		0.00		-4.40		5.373e-03		117.414		1.526e-03		20.493
5		0.00		-4.00		5.633e-03		110.993		1.610e-03		20.579
5		0.00		-3.60		5.408e-03		115.583		1.639e-03		18.187
5		0.00		-3.20		5.078e-03		110.384		1.481e-03		20.451
5		0.00		-2.80		4.988e-03		103.899		1.778e-03		42.424
5		0.00		-2.40		5.043e-03		110.329		1.718e-03		28.746
5		0.00		-2.00		5.218e-03		111.981		1.840e-03		19.875
5		0.00		-1.60		4.866e-03		113.325		1.507e-03		18.303
5		0.00		-1.20		5.305e-03		116.864		1.669e-03		16.066
5		0.00		-0.80		5.085e-03		114.308		1.563e-03		17.556
5		0.00		-0.40		5.031e-03		117.155		1.533e-03		18.062
6		0.00		0.00		4.929e-03		115.832		1.422e-03		18.645
6		0.00		0.40		4.908e-03		110.037		1.424e-03		22.531
6		0.00		0.80		4.981e-03		106.764		1.542e-03		37.674
6		0.00		1.20		4.696e-03		104.240		1.433e-03		21.657
6		0.00		1.60		4.340e-03		105.912		1.562e-03		25.496
6		0.00		2.00		3.920e-03		105.021		1.396e-03		34.078
6		0.00		2.40		3.502e-03		95.810		1.100e-03		34.870
6		0.00		2.80		2.849e-03		98.721		1.013e-03		38.633
6		0.00		3.20		2.047e-03		53.578		9.534e-04		73.352
6		0.00		3.60		1.948e-03		34.261		8.029e-04		61.411
6		0.00		4.00		1.871e-03		-14.801		8.748e-04		60.252
6		0.00		4.40		2.307e-03		-22.234		8.673e-04		39.914
6		0.00		4.80		2.675e-03		-41.551		1.077e-03		37.310
6		0.00		5.20		3.643e-03		-25.466		1.295e-03		34.822
6		0.00		5.60		4.260e-03		-47.133		1.311e-03		26.857
6		0.00		6.00		4.958e-03		-54.677		1.531e-03		20.172
6		0.00		6.40		6.085e-03		-46.724		1.626e-03		14.985
6		0.00		6.80		6.973e-03		-53.455		1.586e-03		13.195
6		0.00		7.20		7.427e-03		-47.527		1.653e-03		16.263
6		0.00		7.60		8.372e-03		-47.800		2.018e-03		16.769
6		0.00		8.00		9.880e-03		-48.348		2.233e-03		14.411
6		0.00		8.40		1.044e-02		-51.070		2.616e-03		17.309
6		0.00		8.80		1.214e-02		-48.690		2.994e-03		15.425
6		0.00		9.20		1.405e-02		-49.440		3.628e-03		12.753
6		0.00		9.60		1.581e-02		-47.551		3.867e-03		10.714
6		0.00		10.00		1.797e-02		-49.850		4.005e-03		9.742
6		0.00		9.60		1.911e-02		-52.338		3.917e-03		9.730
6		0.00		9.20		2.023e-02		-51.360		4.060e-03		8.028
6		0.00		8.80		2.078e-02		-50.179		4.278e-03		8.770
6		0.00		8.40		2.112e-02		-50.758		4.127e-03		11.048
6		0.00		8.00		2.119e-02		-49.715		4.498e-03		10.565
6		0.00		7.60		2.078e-02		-48.869		4.901e-03		11.603
6		0.00		7.20		2.118e-02		-49.712		4.868e-03		11.852
6		0.00		6.80		2.068e-02		-49.436		4.984e-03		9.029
6		0.00		6.40		2.044e-02		-50.973		5.068e-03		10.397
6		0.00		6.00		2.035e-02		-49.691		4.626e-03		9.742
6		0.00		5.60		2.044e-02		-50.664		4.275e-03		10.584
6		0.00		5.20		2.069e-02		-52.808		3.891e-03		8.746
6		0.00		4.80		2.012e-02		-50.449		4.145e-03		8.743
6		0.00		4.40		2.016e-02		-50.686		3.808e-03		9.583
6		0.00		4.00		1.902e-02		-48.412		4.260e-03		10.297
6		0.00		3.60		1.911e-02		-49.102		4.084e-03		11.983
6		0.00		3.20		1.930e-02		-49.626		4.248e-03		12.450
6		0.00		2.80		1.929e-02		-48.559		4.558e-03		13.520
6		0.00		2.40		1.930e-02		-47.944		4.414e-03		10.631
6		0.00		2.00		1.932e-02		-50.224		4.083e-03		9.914
6		0.00		1.60		1.940e-02		-49.187		3.921e-03		9.939
6		0.00		1.20		1.974e-02		-50.664		3.736e-03		9.702
6		0.00		0.80		1.933e-02		-49.085		3.654e-03		9.709
6		0.00		0.40		1.913e-02		-50.063		3.807e-03		9.326
6		0.00		0.00		1.869e-02		-49.291		3.690e-03		9.234
6		0.00		-0.40		1.851e-02		-47.528		4.254e-03		10.584
6		0.00		-0.80		1.821e-02		-48.558		4.801e-03		11.766
6		0.00		-1.20		1.808e-02		-51.702		4.725e-03		13.474
6		0.00		-1.60		1.746e-02		-48.807		4.824e-03		13.870
6		0.00		-2.00		1.695e-02		-47.692		4.306e-03		9.925
6		0.00		-2.40		1.729e-02		-49.273		4.098e-03		12.893
6		0.00		-2.80		1.681e-02		-48.437		3.675e-03		10.392
6		0.00		-3.20		1.643e-02		-48.837		3.401e-03		10.489
6		0.00		-3.60		1.633e-02		-51.233		3.263e-03		12.613
6		0.00		-4.00		1.602e-02		-47.243		3.304e-03		12.724
6		0.00		-4.40		1.534e-02		-48.393		2.972e-03		11.410
6		0.00		-4.80		1.484e-02		-48.845		3.040e-03		12.929
6		0.00		-5.20		1.354e-02		-50.152		3.184e-03		13.838
6		0.00		-5.60		1.279e-02		-45.188		3.249e-03		12.996
6		0.00		-6.00		1.182e-02		-51.346		2.679e-03		12.249
6		0.00		-6.40		1.076e-02		-45.500		2.581e-03		13.513
6		0.00		-6.80		9.828e-03		-46.727		2.291e-03		13.998
6		0.00		-7.20		8.387e-03		-45.725		1.982e-03		15.625
6		0.00		-7.60		7.160e-03		-42.161		1.889e-03		16.369
6		0.00		-8.00		5.901e-03		-50.145		1.469e-03		25.349
6		0.00		-8.40		4.642e-03		-41.766		1.398e-03		24.574
6		0.00		-8.80		3.362e-03		-20.169		1.144e-03		27.174
6		0.00		-9.20		2.242e-03		-29.551		1.078e-03		47.567
6		0.00		-9.60		2.021e-03		33.033		9.912e-04		67.255
6		0.00		-10.00		3.970e-03		96.020		1.266e-03		37.144
6		0.00		-9.60		4.685e-03		108.590		1.681e-03		30.631
6		0.00		-9.20		5.193e-03		111.715		1.378e-03		25.419
6		0.00		-8.80		6.325e-03		121.930		1.624e-03		15.285
6		0.00		-8.40		6.877e-03		117.520		1.764e-03		17.418
6		0.00		-8.00		6.825e-03		116.518		1.820e-03		16.172
6		0.00		-7.60		6.830e-03		116.660		1.885e-03		19.741
6		0.00		-7.20		6.690e-03		117.160		2.120e-03		19.898
6		0.00		-6.80		6.538e-03		116.609		1.817e-03		23.143
6		0.00		-6.40		5.979e-03		115.034		1.660e-03		20.091
6		0.00		-6.00		6.453e-03		117.065		1.849e-03		14.784
6		0.00		-5.60		6.162e-03		115.463		1.437e-03		12.787
6		0.00		-5.20		6.286e-03		116.700		1.626e-03		19.419
6		0.00		-4.80		5.866e-03		115.483		1.635e-03		15.104
6		0.00		-4.40		5.801e-03		118.009		1.377e-03		15.786
6		0.00		-4.00		5.620e-03		113.598		1.675e-03		20.851
6		0.00		-3.60		5.542e-03		104.862		1.649e-03		27.399
6		0.00		-3.20		5.621e-03		114.278		1.755e-03		19.769
6		0.00		-2.80		5.471e-03		110.588		1.664e-03		20.613
6		0.00		-2.40		5.214e-03		103.546		1.606e-03		16.957
6		0.00		-2.00		5.364e-03		107.901		1.578e-03		32.119
6		0.00		-1.60		5.621e-03		113.198		1.656e-03		21.619
6		0.00		-1.20		5.335e-03		112.523		1.332e-03		16.441
6		0.00		-0.80		5.273e-03		108.678		1.679e-03		35.331
6		0.00		-0.40		5.113e-03		111.863		1.476e-03		25.480
7		0.00		0.00		4.783e-03		110.118		1.571e-03		27.827
7		0.00		0.40		4.982e-03		111.118		1.654e-03		22.063
7		0.00		0.80		4.807e-03		115.840		1.565e-03		21.877
7		0.00		1.20		4.524e-03		108.442		1.497e-03		23.354
7		0.00		1.60		4.342e-03		114.938		1.306e-03		28.582
7		0.00		2.00		3.721e-03		104.695		1.308e-03		24.737
7		0.00		2.40		3.281e-03		110.030		1.190e-03		31.045
7		0.00		2.80		2.624e-03		96.241		1.021e-03		44.426
7		0.00		3.20		2.081e-03		53.019		7.242e-04		54.329
7		0.00		3.60		1.929e-03		29.569		8.051e-04		63.518
7		0.00		4.00		1.806e-03		3.876		6.781e-04		58.474
7		0.00		4.40		2.220e-03		-20.641		9.552e-04		38.609
7		0.00		4.80		2.571e-03		-40.046		1.057e-03		38.601
7		0.00		5.20		3.560e-03		-43.924		1.213e-03		29.841
7		0.00		5.60		4.284e-03		-30.884		1.139e-03		24.676
7		0.00		6.00		4.786e-03		-50.709		1.213e-03		18.789
7		0.00		6.40		5.846e-03		-43.947		1.380e-03		18.105
7		0.00		6.80		6.952e-03		-46.531		1.651e-03		17.652
7		0.00		7.20		7.809e-03		-46.883		1.848e-03		13.435
7		0.00		7.60		8.180e-03		-46.494		1.936e-03		15.712
7		0.00		8.00		9.143e-03		-45.757		2.281e-03		15.914
7		0.00		8.40		1.023e-02		-48.105		2.570e-03		13.626
7		0.00		8.80		1.161e-02		-47.652		2.907e-03		15.157
7		0.00		9.20		1.377e-02		-47.850		3.210e-03		10.662
7		0.00		9.60		1.601e-02		-48.475		3.607e-03		9.853
7		0.00		10.00		1.864e-02		-50.776		3.816e-03		10.555
7		0.00		9.60		1.957e-02		-48.703		3.627e-03		10.238
7		0.00		9.20		2.043e-02		-50.200		3.874e-03		9.604
7		0.00		8.80		2.062e-02		-50.074		4.259e-03		10.217
7		0.00		8.40		2.140e-02		-49.527		4.029e-03		10.434
7		0.00		8.00		2.123e-02		-49.255		4.094e-03		9.359
7		0.00		7.60		2.043e-02		-52.853		4.696e-03		13.506
7		0.00		7.20		2.043e-02		-50.390		5.168e-03		14.173
7		0.00		6.80		2.031e-02		-51.551		5.359e-03		12.755
7		0.00		6.40		1.990e-02		-48.644		5.254e-03		13.077
7		0.00		6.00		1.989e-02		-51.040		5.529e-03		10.282
7		0.00		5.60		1.907e-02		-49.903		4.948e-03		10.296
7		0.00		5.20		1.967e-02		-52.250		4.575e-03		10.010
7		0.00		4.80		1.985e-02		-50.796		4.063e-03		10.433
7		0.00		4.40		1.964e-02		-52.212		4.150e-03		9.412
7		0.00		4.00		1.967e-02		-50.623		4.052e-03		10.691
7		0.00		3.60		1.931e-02		-50.822		4.356e-03		12.014
7		0.00		3.20		1.924e-02		-49.829		4.026e-03		11.026
7		0.00		2.80		1.887e-02		-46.125		3.905e-03		11.027
7		0.00		2.40		1.866e-02		-48.866		4.290e-03		13.645
7		0.00		2.00		1.875e-02		-48.911		4.584e-03		12.542
7		0.00		1.60		1.863e-02		-48.211		4.384e-03		11.646
7		0.00		1.20		1.883e-02		-47.968		4.543e-03		10.706
7		0.00		0.80		1.857e-02		-49.688		4.160e-03		9.706
7		0.00		0.40		1.873e-02		-50.335		4.160e-03		9.478
7		0.00		0.00		1.893e-02		-49.025		3.947e-03		9.909
7		0.00		-0.40		1.926e-02		-49.556		3.722e-03		10.028
7		0.00		-0.80		1.919e-02		-49.789		3.661e-03		10.219
7		0.00		-1.20		1.916e-02		-49.424		3.652e-03		8.920
7		0.00		-1.60		1.822e-02		-50.911		3.547e-03		9.830
7		0.00		-2.00		1.764e-02		-47.311		3.921e-03		12.413
7		0.00		-2.40		1.754e-02		-48.911		4.197e-03		11.509
7		0.00		-2.80		1.665e-02		-47.988		3.933e-03		11.047
7		0.00		-3.20		1.603e-02		-49.753		4.371e-03		14.639
7		0.00		-3.60		1.538e-02		-47.390		4.040e-03		10.144
7		0.00		-4.00		1.498e-02		-49.509		3.963e-03		10.645
7		0.00		-4.40		1.478e-02		-46.285		3.127e-03		10.779
7		0.00		-4.80		1.500e-02		-49.386		3.127e-03		9.578
7		0.00		-5.20		1.407e-02		-50.308		2.840e-03		9.228
7		0.00		-5.60		1.320e-02		-47.689		2.415e-03		8.633
7		0.00		-6.00		1.318e-02		-48.158		2.458e-03		10.022
7		0.00		-6.40		1.143e-02		-50.785		2.467e-03		14.824
7		0.00		-6.80		9.972e-03		-43.257		2.089e-03		10.405
7		0.00		-7.20		8.472e-03		-40.508		1.796e-03		12.278
7		0.00		-7.60		7.141e-03		-46.792		1.744e-03		14.844
7		0.00		-8.00		5.394e-03		-46.507		1.467e-03		16.798
7		0.00		-8.40		4.281e-03		-31.858		1.574e-03		29.639
7		0.00		-8.80		2.966e-03		-13.537		1.149e-03		35.639
7		0.00		-9.20		2.277e-03		-15.210		1.174e-03		51.563
7		0.00		-9.60		1.983e-03		12.206		8.365e-04		59.202
7		0.00		-10.00		2.697e-03		77.800		1.002e-03		47.141
7		0.00		-9.60		3.776e-03		99.135		1.371e-03		27.608
7		0.00		-9.20		4.579e-03		107.868		1.422e-03		37.539
7		0.00		-8.80		4.823e-03		107.846		1.563e-03		24.013
7		0.00		-8.40		5.844e-03		115.450		1.519e-03		20.753
7		0.00		-8.00		5.558e-03		114.068		1.857e-03		25.964
7		0.00		-7.60		5.511e-03		113.178		1.909e-03		19.476
7		0.00		-7.20		5.643e-03		114.031		1.540e-03		19.864
7		0.00		-6.80		5.057e-03		111.818		1.639e-03		29.125
7		0.00		-6.40		5.116e-03		107.729		1.474e-03		22.459
7		0.00		-6.00		4.946e-03		111.943		1.640e-03		26.983
7		0.00		-5.60		4.748e-03		113.987		1.545e-03		25.815
7		0.00		-5.20		4.677e-03		109.270		1.486e-03		30.150
7		0.00		-4.80		4.887e-03		112.709		1.517e-03		19.387
7		0.00		-4.40		4.798e-03		116.477		1.699e-03		20.867
7		0.00		-4.00		4.484e-03		105.129		1.435e-03		22.828
7		0.00		-3.60		4.450e-03		106.532		1.447e-03		24.724
7		0.00		-3.20		4.667e-03		108.558		1.469e-03		24.535
7		0.00		-2.80		4.370e-03		99.697		1.338e-03		25.958
7		0.00		-2.40		4.690e-03		112.206		1.460e-03		20.531
7		0.00		-2.00		4.687e-03		109.945		1.499e-03		20.546
7		0.00		-1.60		4.599e-03		113.463		1.340e-03		42.051
7		0.00		-1.20		4.614e-03		110.360		1.474e-03		28.275
7		0.00		-0.80		4.268e-03		100.917		1.313e-03		29.805
7		0.00		-0.40		4.375e-03		107.803		1.579e-03		38.064
8		0.00		0.00		4.440e-03		112.401		1.341e-03		18.376
8		0.00		0.40		4.549e-03		104.050		1.611e-03		30.666
8		0.00		0.80		4.374e-03		107.753		1.438e-03		28.261
8		0.00		1.20		4.008e-03		105.444		1.422e-03		33.349
8		0.00		1.60		3.854e-03		105.242		1.384e-03		41.917
8		0.00		2.00		3.181e-03		98.914		1.307e-03		48.596
8		0.00		2.40		2.913e-03		91.173		1.132e-03		36.421
8		0.00		2.80		2.381e-03		67.543		1.020e-03		44.549
8		0.00		3.20		1.871e-03		46.385		7.779e-04		52.072
8		0.00		3.60		1.740e-03		2.809		8.104e-04		74.085
8		0.00		4.00		2.132e-03		-27.854		9.197e-04		46.679
8		0.00		4.40		3.091e-03		-51.402		1.118e-03		39.081
8		0.00		4.80		3.097e-03		-54.411		1.266e-03		30.774
8		0.00		5.20		3.652e-03		-34.570		1.201e-03		25.027
8		0.00		5.60		4.581e-03		-53.014		1.380e-03		21.212
8		0.00		6.00		5.138e-03		-42.741		1.653e-03		20.251
8		0.00		6.40		5.808e-03		-44.778		1.609e-03		15.794
8		0.00		6.80		6.713e-03		-52.487		1.894e-03		13.004
8		0.00		7.20		7.415e-03		-46.442		1.994e-03		15.206
8		0.00		7.60		8.831e-03		-47.106		2.025e-03		15.109
8		0.00		8.00		9.794e-03		-52.119		1.962e-03		12.896
8		0.00		8.40		1.080e-02		-51.981		2.133e-03		14.088
8		0.00		8.80		1.226e-02		-51.092		2.204e-03		12.231
8		0.00		9.20		1.387e-02		-52.006		2.728e-03		13.176
8		0.00		9.60		1.595e-02		-47.501		3.263e-03		12.452
8		0.00		10.00		1.763e-02		-48.221		3.616e-03		11.972
8		0.00		9.60		1.902e-02		-50.534		4.381e-03		11.613
8		0.00		9.20		1.992e-02		-49.510		4.662e-03		11.148
8		0.00		8.80		2.061e-02		-52.310		4.381e-03		8.613
8		0.00		8.40		2.085e-02		-50.683		4.303e-03		9.005
8		0.00		8.00		2.128e-02		-50.088		3.963e-03		10.102
8		0.00		7.60		2.086e-02		-49.491		3.760e-03		9.120
8		0.00		7.20		2.069e-02		-50.101		3.976e-03		9.634
8		0.00		6.80		2.081e-02		-48.832		4.402e-03		10.138
8		0.00		6.40		2.075e-02		-50.694		4.369e-03		10.379
8		0.00		6.00		2.021e-02		-50.778		4.719e-03		12.446
8		0.00		5.60		1.971e-02		-51.396		4.941e-03		11.766
8		0.00		5.20		1.974e-02		-49.181		4.681e-03		10.397
8		0.00		4.80		1.930e-02		-52.997		4.515e-03		10.177
8		0.00		4.40		1.980e-02		-49.877		3.855e-03		9.913
8		0.00		4.00		1.976e-02		-48.999		4.017e-03		10.069
8		0.00		3.60		1.998e-02		-48.251		3.685e-03		9.474
8		0.00		3.20		1.974e-02		-50.248		3.778e-03		9.819
8		0.00		2.80		1.955e-02		-49.370		3.687e-03		10.287
8		0.00		2.40		1.947e-02		-46.525		3.839e-03		9.092
8		0.00		2.00		1.872e-02		-49.506		4.228e-03		12.617
8		0.00		1.60		1.889e-02		-47.564		4.484e-03		9.579
8		0.00		1.20		1.906e-02		-48.818		4.183e-03		10.180
8		0.00		0.80		1.925e-02		-48.754		3.850e-03		8.275
8		0.00		0.40		1.940e-02		-50.430		3.350e-03		10.716
8		0.00		0.00		1.941e-02		-48.222		3.250e-03		9.566
8		0.00		-0.40		1.934e-02		-49.073		3.119e-03		9.629
8		0.00		-0.80		1.892e-02		-46.648		3.614e-03		9.221
8		0.00		-1.20		1.849e-02		-48.368		3.895e-03		9.487
8		0.00		-1.60		1.815e-02		-49.546		4.208e-03		10.361
8		0.00		-2.00		1.753e-02		-49.240		4.487e-03		12.593
8		0.00		-2.40		1.730e-02		-48.372		4.637e-03		9.973
8		0.00		-2.80		1.715e-02		-48.103		3.890e-03		8.493
8		0.00		-3.20		1.701e-02		-48.085		3.489e-03		10.928
8		0.00		-3.60		1.613e-02		-48.408		3.287e-03		10.057
8		0.00		-4.00		1.551e-02		-48.171		3.030e-03		9.342
8		0.00		-4.40		1.514e-02		-48.111		3.149e-03		10.947
8		0.00		-4.80		1.453e-02		-48.448		3.325e-03		12.845
8		0.00		-5.20		1.344e-02		-49.273		3.189e-03		13.367
8		0.00		-5.60		1.295e-02		-48.840		3.171e-03		12.859
8		0.00		-6.00		1.198e-02		-46.198		2.888e-03		10.414
8		0.00		-6.40		1.123e-02		-46.545		2.301e-03		12.870
8		0.00		-6.80		9.803e-03		-46.312		1.787e-03		11.568
8		0.00		-7.20		8.932e-03		-43.935		1.697e-03		11.294
8		0.00		-7.60		7.257e-03		-48.434		1.626e-03		13.703
8		0.00		-8.00		6.185e-03		-42.966		1.676e-03		15.544
8		0.00		-8.40		4.692e-03		-43.060		1.266e-03		21.538
8		0.00		-8.80		3.240e-03		-28.906		1.221e-03		35.983
8		0.00		-9.20		2.630e-03		-26.326		1.109e-03		46.012
8		0.00		-9.60		1.938e-03		-9.348		7.519e-04		58.455
8		0.00		-10.00		2.529e-03		69.740		1.037e-03		46.740
8		0.00		-9.60		3.683e-03		95.418		1.391e-03		39.906
8		0.00		-9.20		4.280e-03		106.816		1.460e-03		38.817
8		0.00		-8.80		4.814e-03		116.574		1.348e-03		16.597
8		0.00		-8.40		4.986e-03		117.782		1.345e-03		22.847
8		0.00		-8.00		4.897e-03		113.363		1.506e-03		20.466
8		0.00		-7.60		4.960e-03		103.794		1.785e-03		31.760
8		0.00		-7.20		4.658e-03		113.658		1.411e-03		23.944
8		0.00		-6.80		4.709e-03		108.082		1.481e-03		23.122
8		0.00		-6.40		4.867e-03		114.474		1.638e-03		21.906
8		0.00		-6.00		4.539e-03		118.282		1.299e-03		20.018
8		0.00		-5.60		4.634e-03		111.592		1.606e-03		22.914
8		0.00		-5.20		4.506e-03		104.814		1.448e-03		24.938
8		0.00		-4.80		4.460e-03		107.034		1.447e-03		20.693
8		0.00		-4.40		4.403e-03		108.041		1.378e-03		25.308
8		0.00		-4.00		4.497e-03		115.520		1.289e-03		18.364
8		0.00		-3.60		4.099e-03		112.136		1.552e-03		28.276
8		0.00		-3.20		4.316e-03		111.243		1.452e-03		23.355
8		0.00		-2.80		4.377e-03		113.849		1.176e-03		17.808
8		0.00		-2.40		4.327e-03		109.526		1.497e-03		26.968
8		0.00		-2.00		4.395e-03		109.636		1.307e-03		27.667
8		0.00		-1.60		4.307e-03		112.959		1.472e-03		28.578
8		0.00		-1.20		4.329e-03		103.752		1.505e-03		25.092
8		0.00		-0.80		4.310e-03		112.356		1.315e-03		21.634
8		0.00		-0.40		4.239e-03		108.207		1.361e-03		28.147
