# Date of analysis: 2024-03-08 10;59
# Segment other properties: height: -55.39713458697317, diff height: 525.4288423537024, deflection: 33.738072230492094, deflection error: 2.6147768663651547, adhesion: 37.3075128777573, phase offset: 0
# 
# Loop index	Read Volt (V)	Write Volt (V)	Amplitude (a.u)	Phase (deg)	Sigma Amp (a.u)	Sigma Pha (deg)	
1		0.00		0.00		2.540e-03		30.148		1.020e-03		30.344
1		0.00		0.40		6.901e-03		-47.998		1.475e-03		21.420
1		0.00		0.80		6.453e-03		-49.685		1.549e-03		20.747
1		0.00		1.20		6.626e-03		-43.567		1.763e-03		18.738
1		0.00		1.60		7.130e-03		-50.215		1.699e-03		18.404
1		0.00		2.00		7.091e-03		-51.908		1.545e-03		16.306
1		0.00		2.40		6.715e-03		-45.707		1.692e-03		17.293
1		0.00		2.80		7.385e-03		-49.433		1.852e-03		20.114
1		0.00		3.20		7.629e-03		-46.007		2.010e-03		20.397
1		0.00		3.60		8.036e-03		-44.884		1.809e-03		15.465
1		0.00		4.00		8.502e-03		-50.717		2.201e-03		16.169
1		0.00		4.40		9.132e-03		-47.778		2.266e-03		17.368
1		0.00		4.80		9.994e-03		-45.251		2.706e-03		18.110
1		0.00		5.20		1.070e-02		-46.233		2.785e-03		17.924
1		0.00		5.60		1.155e-02		-47.971		2.984e-03		15.164
1		0.00		6.00		1.248e-02		-49.538		3.284e-03		15.445
1		0.00		6.40		1.281e-02		-51.601		3.527e-03		14.754
1		0.00		6.80		1.406e-02		-49.568		3.605e-03		12.558
1		0.00		7.20		1.477e-02		-51.590		3.756e-03		11.643
1		0.00		7.60		1.613e-02		-50.477		4.076e-03		11.924
1		0.00		8.00		1.685e-02		-52.331		4.038e-03		11.489
1		0.00		8.40		1.885e-02		-52.765		4.458e-03		12.636
1		0.00		8.80		1.983e-02		-52.894		4.517e-03		10.631
1		0.00		9.20		2.180e-02		-52.034		4.853e-03		9.920
1		0.00		9.60		2.478e-02		-52.672		4.762e-03		10.415
1		0.00		10.00		2.608e-02		-52.264		4.925e-03		10.778
1		0.00		9.60		2.674e-02		-52.080		5.443e-03		9.810
1		0.00		9.20		2.779e-02		-51.935		5.457e-03		9.560
1		0.00		8.80		2.776e-02		-50.235		5.635e-03		9.576
1		0.00		8.40		2.744e-02		-49.878		5.730e-03		9.708
1		0.00		8.00		2.723e-02		-50.293		5.872e-03		9.860
1		0.00		7.60		2.632e-02		-50.268		5.936e-03		11.686
1		0.00		7.20		2.624e-02		-50.662		6.185e-03		12.645
1		0.00		6.80		2.655e-02		-50.500		6.366e-03		10.204
1		0.00		6.40		2.616e-02		-49.241		6.205e-03		11.290
1		0.00		6.00		2.631e-02		-50.478		6.627e-03		10.999
1		0.00		5.60		2.565e-02		-50.130		6.750e-03		9.627
1		0.00		5.20		2.504e-02		-49.593		6.720e-03		10.609
1		0.00		4.80		2.514e-02		-50.979		6.220e-03		9.742
1		0.00		4.40		2.496e-02		-52.123		6.268e-03		11.343
1		0.00		4.00		2.501e-02		-52.946		5.538e-03		10.409
1		0.00		3.60		2.482e-02		-52.822		5.575e-03		10.420
1		0.00		3.20		2.466e-02		-53.002		5.432e-03		10.991
1		0.00		2.80		2.413e-02		-51.238		5.305e-03		12.869
1		0.00		2.40		2.400e-02		-52.961		5.147e-03		10.696
1		0.00		2.00		2.341e-02		-50.904		5.122e-03		11.091
1		0.00		1.60		2.345e-02		-50.686		4.780e-03		10.500
1		0.00		1.20		2.350e-02		-50.102		4.775e-03		11.014
1		0.00		0.80		2.281e-02		-50.422		5.289e-03		12.221
1		0.00		0.40		2.249e-02		-49.826		5.204e-03		14.565
1		0.00		0.00		2.216e-02		-49.958		5.521e-03		16.335
1		0.00		-0.40		2.185e-02		-48.870		5.411e-03		12.318
1		0.00		-0.80		2.154e-02		-48.656		5.521e-03		10.008
1		0.00		-1.20		2.133e-02		-50.390		5.408e-03		10.415
1		0.00		-1.60		2.111e-02		-49.785		4.898e-03		12.353
1		0.00		-2.00		2.088e-02		-50.331		4.829e-03		10.455
1		0.00		-2.40		2.087e-02		-50.048		4.753e-03		10.237
1		0.00		-2.80		2.052e-02		-49.940		4.240e-03		10.308
1		0.00		-3.20		1.998e-02		-48.844		3.956e-03		10.875
1		0.00		-3.60		1.956e-02		-50.595		3.913e-03		10.623
1		0.00		-4.00		1.867e-02		-51.650		3.841e-03		12.515
1		0.00		-4.40		1.817e-02		-49.313		3.353e-03		11.014
1		0.00		-4.80		1.676e-02		-50.239		3.435e-03		11.821
1		0.00		-5.20		1.596e-02		-49.454		3.333e-03		12.290
1		0.00		-5.60		1.502e-02		-48.615		3.540e-03		12.213
1		0.00		-6.00		1.360e-02		-48.412		2.846e-03		12.951
1		0.00		-6.40		1.295e-02		-48.538		2.715e-03		12.208
1		0.00		-6.80		1.069e-02		-50.708		2.396e-03		13.735
1		0.00		-7.20		8.046e-03		-40.514		1.915e-03		16.209
1		0.00		-7.60		5.269e-03		-48.946		1.484e-03		21.602
1		0.00		-8.00		2.908e-03		-39.351		1.140e-03		37.712
1		0.00		-8.40		1.889e-03		-3.924		7.641e-04		63.741
1		0.00		-8.80		2.765e-03		78.783		1.129e-03		56.088
1		0.00		-9.20		3.820e-03		103.611		1.590e-03		32.114
1		0.00		-9.60		5.285e-03		115.390		1.896e-03		36.464
1		0.00		-10.00		7.630e-03		113.781		2.307e-03		23.102
1		0.00		-9.60		8.443e-03		119.312		2.886e-03		21.684
1		0.00		-9.20		9.093e-03		118.032		3.018e-03		25.730
1		0.00		-8.80		9.623e-03		122.005		3.298e-03		14.094
1		0.00		-8.40		9.758e-03		120.063		3.213e-03		13.201
1		0.00		-8.00		9.968e-03		118.956		3.176e-03		18.095
1		0.00		-7.60		9.423e-03		119.362		2.943e-03		12.790
1		0.00		-7.20		9.315e-03		122.475		2.721e-03		12.972
1		0.00		-6.80		9.200e-03		120.304		2.756e-03		20.006
1		0.00		-6.40		9.036e-03		121.794		2.822e-03		13.323
1		0.00		-6.00		9.186e-03		118.846		2.735e-03		13.861
1		0.00		-5.60		8.658e-03		122.956		2.508e-03		18.869
1		0.00		-5.20		8.577e-03		123.826		2.700e-03		19.641
1		0.00		-4.80		8.091e-03		120.873		2.298e-03		21.973
1		0.00		-4.40		7.817e-03		119.574		2.608e-03		27.074
1		0.00		-4.00		7.281e-03		118.990		2.301e-03		27.925
1		0.00		-3.60		7.590e-03		119.480		2.416e-03		28.307
1		0.00		-3.20		7.551e-03		118.687		2.345e-03		22.486
1		0.00		-2.80		7.594e-03		112.483		2.396e-03		28.929
1		0.00		-2.40		6.982e-03		114.301		2.058e-03		22.235
1		0.00		-2.00		6.966e-03		118.278		2.482e-03		22.654
1		0.00		-1.60		6.900e-03		113.348		2.412e-03		27.425
1		0.00		-1.20		6.803e-03		120.999		2.289e-03		22.015
1		0.00		-0.80		6.435e-03		119.400		2.302e-03		37.784
1		0.00		-0.40		6.024e-03		112.734		2.174e-03		27.623
2		0.00		0.00		5.959e-03		114.732		2.165e-03		29.315
2		0.00		0.40		6.128e-03		118.819		1.900e-03		18.871
2		0.00		0.80		5.834e-03		118.736		1.914e-03		19.203
2		0.00		1.20		5.563e-03		117.430		1.796e-03		25.824
2		0.00		1.60		4.960e-03		117.557		1.799e-03		27.497
2		0.00		2.00		4.625e-03		107.735		1.815e-03		35.853
2		0.00		2.40		3.823e-03		110.481		1.605e-03		35.493
2		0.00		2.80		3.055e-03		93.949		1.425e-03		50.853
2		0.00		3.20		2.701e-03		83.528		1.125e-03		63.025
2		0.00		3.60		2.118e-03		37.651		8.291e-04		74.235
2		0.00		4.00		1.849e-03		16.876		8.495e-04		73.469
2		0.00		4.40		2.097e-03		-20.153		8.554e-04		60.646
2		0.00		4.80		2.216e-03		-34.372		9.900e-04		47.999
2		0.00		5.20		2.954e-03		-39.396		1.238e-03		37.062
2		0.00		5.60		3.658e-03		-50.872		1.150e-03		20.542
2		0.00		6.00		3.925e-03		-44.847		1.306e-03		28.734
2		0.00		6.40		4.610e-03		-50.482		1.296e-03		20.109
2		0.00		6.80		4.801e-03		-49.208		1.181e-03		20.842
2		0.00		7.20		5.790e-03		-53.673		1.677e-03		18.942
2		0.00		7.60		7.439e-03		-55.431		1.753e-03		18.564
2		0.00		8.00		8.450e-03		-51.556		2.047e-03		18.408
2		0.00		8.40		9.958e-03		-52.956		2.602e-03		17.739
2		0.00		8.80		1.079e-02		-53.114		2.831e-03		14.976
2		0.00		9.20		1.256e-02		-51.107		3.248e-03		16.335
2		0.00		9.60		1.485e-02		-53.265		3.889e-03		15.562
2		0.00		10.00		1.749e-02		-50.665		4.759e-03		14.554
2		0.00		9.60		1.864e-02		-54.642		4.842e-03		11.332
2		0.00		9.20		1.993e-02		-50.851		5.069e-03		12.183
2		0.00		8.80		2.081e-02		-50.905		5.124e-03		9.191
2		0.00		8.40		2.106e-02		-52.103		4.827e-03		10.479
2		0.00		8.00		2.180e-02		-49.617		4.813e-03		10.585
2		0.00		7.60		2.178e-02		-52.219		4.898e-03		11.578
2		0.00		7.20		2.149e-02		-52.342		4.772e-03		11.240
2		0.00		6.80		2.137e-02		-51.710		4.688e-03		12.715
2		0.00		6.40		2.162e-02		-50.426		4.464e-03		11.292
2		0.00		6.00		2.132e-02		-51.597		4.487e-03		9.588
2		0.00		5.60		2.082e-02		-50.457		5.169e-03		14.087
2		0.00		5.20		2.080e-02		-52.321		5.261e-03		15.260
2		0.00		4.80		2.013e-02		-49.927		5.294e-03		14.689
2		0.00		4.40		1.973e-02		-50.045		5.310e-03		11.550
2		0.00		4.00		1.995e-02		-48.421		5.330e-03		11.436
2		0.00		3.60		2.004e-02		-48.920		5.412e-03		11.489
2		0.00		3.20		1.953e-02		-52.360		4.959e-03		9.725
2		0.00		2.80		1.920e-02		-49.383		4.508e-03		10.748
2		0.00		2.40		2.030e-02		-51.272		4.211e-03		11.629
2		0.00		2.00		2.086e-02		-49.763		4.126e-03		9.629
2		0.00		1.60		2.026e-02		-52.316		4.053e-03		8.973
2		0.00		1.20		2.004e-02		-50.665		3.987e-03		9.405
2		0.00		0.80		2.004e-02		-51.460		3.886e-03		10.689
2		0.00		0.40		1.948e-02		-48.619		4.012e-03		9.866
2		0.00		0.00		1.976e-02		-50.792		4.053e-03		10.693
2		0.00		-0.40		1.898e-02		-48.795		4.009e-03		12.193
2		0.00		-0.80		1.928e-02		-50.092		4.103e-03		12.081
2		0.00		-1.20		1.876e-02		-49.136		3.935e-03		13.492
2		0.00		-1.60		1.790e-02		-48.367		3.937e-03		13.325
2		0.00		-2.00		1.806e-02		-48.045		4.404e-03		14.220
2		0.00		-2.40		1.751e-02		-51.028		4.460e-03		15.740
2		0.00		-2.80		1.676e-02		-49.892		4.181e-03		11.945
2		0.00		-3.20		1.626e-02		-48.758		4.325e-03		10.709
2		0.00		-3.60		1.547e-02		-50.257		4.240e-03		12.381
2		0.00		-4.00		1.457e-02		-50.803		3.728e-03		12.388
2		0.00		-4.40		1.398e-02		-50.409		3.428e-03		10.473
2		0.00		-4.80		1.322e-02		-51.783		3.081e-03		12.333
2		0.00		-5.20		1.235e-02		-51.357		2.603e-03		11.343
2		0.00		-5.60		1.115e-02		-47.507		2.135e-03		12.836
2		0.00		-6.00		1.053e-02		-50.406		2.152e-03		10.533
2		0.00		-6.40		9.166e-03		-45.508		1.907e-03		13.929
2		0.00		-6.80		7.565e-03		-49.212		1.841e-03		16.966
2		0.00		-7.20		6.065e-03		-42.738		1.515e-03		17.247
2		0.00		-7.60		3.802e-03		-45.418		1.236e-03		24.879
2		0.00		-8.00		2.427e-03		-44.734		9.266e-04		45.146
2		0.00		-8.40		1.952e-03		12.771		8.997e-04		67.126
2		0.00		-8.80		2.772e-03		64.351		1.181e-03		58.147
2		0.00		-9.20		4.478e-03		109.904		1.521e-03		32.082
2		0.00		-9.60		6.119e-03		120.381		1.792e-03		26.581
2		0.00		-10.00		7.424e-03		119.761		2.323e-03		18.823
2		0.00		-9.60		8.441e-03		123.692		2.823e-03		22.689
2		0.00		-9.20		9.594e-03		119.458		2.735e-03		19.479
2		0.00		-8.80		9.706e-03		120.970		2.905e-03		19.678
2		0.00		-8.40		9.901e-03		120.246		2.778e-03		18.030
2		0.00		-8.00		9.882e-03		123.207		2.818e-03		16.361
2		0.00		-7.60		9.818e-03		120.999		2.904e-03		14.792
2		0.00		-7.20		9.167e-03		118.094		2.633e-03		16.574
2		0.00		-6.80		9.663e-03		123.556		2.713e-03		12.750
2		0.00		-6.40		9.676e-03		124.389		2.482e-03		11.210
2		0.00		-6.00		9.495e-03		121.313		2.483e-03		12.925
2		0.00		-5.60		9.204e-03		119.881		2.372e-03		13.081
2		0.00		-5.20		9.068e-03		122.524		2.604e-03		13.143
2		0.00		-4.80		9.204e-03		119.991		2.220e-03		13.741
2		0.00		-4.40		8.780e-03		123.533		2.233e-03		16.546
2		0.00		-4.00		8.377e-03		123.396		2.015e-03		13.286
2		0.00		-3.60		8.547e-03		120.218		2.320e-03		17.184
2		0.00		-3.20		8.439e-03		125.664		1.985e-03		14.293
2		0.00		-2.80		8.400e-03		125.518		2.182e-03		12.571
2		0.00		-2.40		8.056e-03		122.285		1.974e-03		12.375
2		0.00		-2.00		8.298e-03		123.840		2.175e-03		14.439
2		0.00		-1.60		7.763e-03		121.739		2.273e-03		16.489
2		0.00		-1.20		7.534e-03		120.175		2.302e-03		19.583
2		0.00		-0.80		7.660e-03		123.006		2.138e-03		15.805
2		0.00		-0.40		7.314e-03		119.907		2.278e-03		23.928
3		0.00		0.00		7.194e-03		114.756		2.135e-03		23.300
3		0.00		0.40		6.793e-03		120.104		2.174e-03		28.269
3		0.00		0.80		6.077e-03		111.702		1.941e-03		31.339
3		0.00		1.20		6.018e-03		122.657		1.727e-03		25.020
3		0.00		1.60		5.761e-03		117.976		1.970e-03		35.603
3		0.00		2.00		5.609e-03		116.541		1.823e-03		40.990
3		0.00		2.40		4.703e-03		113.082		1.662e-03		35.677
3		0.00		2.80		3.865e-03		111.686		1.491e-03		41.129
3		0.00		3.20		3.171e-03		95.158		1.358e-03		40.706
3		0.00		3.60		2.465e-03		84.100		1.128e-03		48.487
3		0.00		4.00		2.049e-03		41.295		8.075e-04		76.912
3		0.00		4.40		1.973e-03		4.600		8.250e-04		70.077
3		0.00		4.80		2.031e-03		-34.531		8.778e-04		53.429
3		0.00		5.20		2.750e-03		-33.652		1.039e-03		38.336
3		0.00		5.60		3.330e-03		-51.887		1.024e-03		27.552
3		0.00		6.00		3.984e-03		-48.391		1.208e-03		24.859
3		0.00		6.40		4.718e-03		-49.640		1.400e-03		22.470
3		0.00		6.80		5.267e-03		-41.689		1.532e-03		18.125
3		0.00		7.20		6.444e-03		-56.103		1.380e-03		19.215
3		0.00		7.60		7.589e-03		-51.505		1.778e-03		15.424
3		0.00		8.00		8.961e-03		-49.493		1.995e-03		13.867
3		0.00		8.40		1.019e-02		-48.237		2.013e-03		12.836
3		0.00		8.80		1.190e-02		-53.488		2.353e-03		11.423
3		0.00		9.20		1.355e-02		-49.124		2.658e-03		13.588
3		0.00		9.60		1.591e-02		-50.919		3.236e-03		10.077
3		0.00		10.00		1.811e-02		-55.137		3.427e-03		11.837
3		0.00		9.60		1.966e-02		-51.260		3.983e-03		10.737
3		0.00		9.20		2.067e-02		-50.553		4.166e-03		10.939
3		0.00		8.80		2.073e-02		-52.631		4.638e-03		10.961
3		0.00		8.40		2.136e-02		-51.612		4.589e-03		10.892
3		0.00		8.00		2.110e-02		-50.824		4.597e-03		11.444
3		0.00		7.60		2.172e-02		-50.152		4.429e-03		10.320
3		0.00		7.20		2.108e-02		-50.484		4.799e-03		10.708
3		0.00		6.80		2.082e-02		-50.547		4.779e-03		11.564
3		0.00		6.40		2.020e-02		-50.169		4.872e-03		11.698
3		0.00		6.00		2.005e-02		-51.618		4.957e-03		13.091
3		0.00		5.60		2.041e-02		-52.020		5.106e-03		11.612
3		0.00		5.20		1.964e-02		-51.213		4.933e-03		13.631
3		0.00		4.80		1.943e-02		-50.865		4.985e-03		13.471
3		0.00		4.40		1.925e-02		-50.380		4.845e-03		14.304
3		0.00		4.00		1.934e-02		-52.904		5.055e-03		14.156
3		0.00		3.60		1.907e-02		-52.557		4.786e-03		13.490
3		0.00		3.20		1.896e-02		-50.055		4.790e-03		12.185
3		0.00		2.80		1.948e-02		-49.013		4.591e-03		13.260
3		0.00		2.40		1.840e-02		-50.108		4.636e-03		16.285
3		0.00		2.00		1.833e-02		-49.944		4.706e-03		14.731
3		0.00		1.60		1.816e-02		-47.199		4.455e-03		13.902
3		0.00		1.20		1.813e-02		-49.998		4.438e-03		11.931
3		0.00		0.80		1.842e-02		-50.775		4.547e-03		11.241
3		0.00		0.40		1.794e-02		-47.612		4.538e-03		11.465
3		0.00		0.00		1.836e-02		-50.279		4.762e-03		11.602
3		0.00		-0.40		1.785e-02		-48.123		4.355e-03		11.080
3		0.00		-0.80		1.795e-02		-45.612		4.305e-03		9.626
3		0.00		-1.20		1.723e-02		-49.097		4.398e-03		10.396
3		0.00		-1.60		1.722e-02		-48.805		4.307e-03		10.465
3		0.00		-2.00		1.671e-02		-49.107		4.075e-03		10.064
3		0.00		-2.40		1.658e-02		-47.962		3.802e-03		12.402
3		0.00		-2.80		1.636e-02		-48.740		3.599e-03		10.363
3		0.00		-3.20		1.594e-02		-51.273		3.384e-03		11.359
3		0.00		-3.60		1.497e-02		-48.472		3.299e-03		9.448
3		0.00		-4.00		1.486e-02		-50.712		3.119e-03		10.683
3		0.00		-4.40		1.384e-02		-50.449		2.982e-03		10.758
3		0.00		-4.80		1.318e-02		-49.732		2.811e-03		13.320
3		0.00		-5.20		1.249e-02		-51.669		2.497e-03		12.940
3		0.00		-5.60		1.073e-02		-51.335		2.033e-03		12.444
3		0.00		-6.00		9.544e-03		-49.401		1.721e-03		14.148
3		0.00		-6.40		8.547e-03		-46.371		1.619e-03		12.661
3		0.00		-6.80		6.632e-03		-48.062		1.365e-03		15.562
3		0.00		-7.20		5.212e-03		-51.526		1.301e-03		24.062
3		0.00		-7.60		4.221e-03		-42.491		1.274e-03		30.715
3		0.00		-8.00		2.077e-03		-31.657		8.810e-04		47.563
3		0.00		-8.40		1.849e-03		22.372		7.647e-04		72.276
3		0.00		-8.80		2.492e-03		65.394		1.251e-03		59.601
3		0.00		-9.20		4.192e-03		104.096		1.494e-03		32.758
3		0.00		-9.60		5.404e-03		112.503		1.817e-03		32.675
3		0.00		-10.00		6.634e-03		119.679		2.143e-03		25.957
3		0.00		-9.60		7.550e-03		114.094		2.555e-03		33.031
3		0.00		-9.20		8.314e-03		120.781		2.506e-03		18.704
3		0.00		-8.80		8.091e-03		116.867		2.597e-03		20.356
3		0.00		-8.40		8.517e-03		122.488		2.690e-03		21.588
3		0.00		-8.00		8.373e-03		122.164		2.900e-03		28.061
3		0.00		-7.60		8.602e-03		121.385		2.650e-03		19.134
3		0.00		-7.20		8.496e-03		119.648		2.826e-03		24.834
3		0.00		-6.80		8.600e-03		124.106		2.712e-03		21.078
3		0.00		-6.40		8.521e-03		119.886		2.314e-03		18.460
3		0.00		-6.00		8.351e-03		121.746		2.441e-03		16.744
3		0.00		-5.60		8.359e-03		122.191		2.449e-03		17.363
3		0.00		-5.20		8.055e-03		122.511		2.395e-03		17.239
3		0.00		-4.80		7.678e-03		123.571		2.630e-03		15.132
3		0.00		-4.40		7.490e-03		118.973		2.306e-03		17.976
3		0.00		-4.00		7.689e-03		117.129		2.345e-03		25.812
3		0.00		-3.60		7.578e-03		119.987		2.505e-03		21.612
3		0.00		-3.20		7.489e-03		121.253		2.044e-03		15.988
3		0.00		-2.80		7.334e-03		121.037		2.260e-03		20.382
3		0.00		-2.40		7.317e-03		125.852		2.146e-03		15.831
3		0.00		-2.00		7.293e-03		116.152		2.023e-03		17.217
3		0.00		-1.60		7.434e-03		121.907		2.127e-03		15.905
3		0.00		-1.20		7.364e-03		122.804		2.226e-03		18.263
3		0.00		-0.80		7.469e-03		120.928		2.140e-03		18.605
3		0.00		-0.40		6.982e-03		123.538		2.035e-03		17.560
4		0.00		0.00		6.970e-03		120.496		1.813e-03		16.695
4		0.00		0.40		6.487e-03		115.403		1.889e-03		22.340
4		0.00		0.80		6.387e-03		121.713		1.710e-03		15.177
4		0.00		1.20		6.242e-03		122.217		1.936e-03		17.422
4		0.00		1.60		5.756e-03		119.829		1.818e-03		17.338
4		0.00		2.00		5.739e-03		117.218		1.631e-03		17.051
4		0.00		2.40		4.914e-03		113.932		1.555e-03		31.039
4		0.00		2.80		4.196e-03		108.774		1.476e-03		39.789
4		0.00		3.20		2.842e-03		97.555		1.112e-03		50.406
4		0.00		3.60		2.306e-03		83.334		9.437e-04		59.705
4		0.00		4.00		1.842e-03		40.766		8.205e-04		60.143
4		0.00		4.40		1.743e-03		18.218		7.589e-04		70.427
4		0.00		4.80		1.883e-03		-13.537		7.134e-04		63.980
4		0.00		5.20		2.279e-03		-36.611		9.719e-04		49.658
4		0.00		5.60		2.875e-03		-45.708		1.106e-03		37.447
4		0.00		6.00		3.901e-03		-45.815		1.359e-03		28.414
4		0.00		6.40		3.789e-03		-42.252		1.330e-03		29.704
4		0.00		6.80		4.894e-03		-50.950		1.531e-03		19.826
4		0.00		7.20		5.771e-03		-45.067		1.773e-03		26.114
4		0.00		7.60		6.345e-03		-52.398		1.744e-03		18.301
4		0.00		8.00		7.570e-03		-52.391		2.096e-03		17.260
4		0.00		8.40		9.161e-03		-48.908		2.139e-03		12.998
4		0.00		8.80		1.044e-02		-50.468		2.361e-03		14.440
4		0.00		9.20		1.214e-02		-51.885		2.450e-03		11.696
4		0.00		9.60		1.400e-02		-50.714		2.705e-03		10.689
4		0.00		10.00		1.680e-02		-50.216		3.161e-03		9.983
4		0.00		9.60		1.836e-02		-51.854		3.984e-03		11.040
4		0.00		9.20		1.967e-02		-52.100		3.926e-03		10.662
4		0.00		8.80		2.078e-02		-50.178		4.188e-03		10.940
4		0.00		8.40		2.072e-02		-50.613		4.166e-03		10.962
4		0.00		8.00		2.046e-02		-50.353		4.158e-03		10.236
4		0.00		7.60		2.071e-02		-48.785		4.508e-03		11.726
4		0.00		7.20		2.064e-02		-51.077		4.670e-03		13.249
4		0.00		6.80		2.020e-02		-49.425		4.678e-03		11.243
4		0.00		6.40		2.024e-02		-49.520		4.887e-03		11.075
4		0.00		6.00		1.980e-02		-49.178		4.599e-03		13.673
4		0.00		5.60		1.976e-02		-49.065		4.957e-03		9.320
4		0.00		5.20		1.917e-02		-50.335		4.695e-03		10.076
4		0.00		4.80		1.932e-02		-50.764		4.633e-03		11.265
4		0.00		4.40		1.905e-02		-51.498		4.253e-03		11.455
4		0.00		4.00		1.899e-02		-50.625		3.687e-03		10.945
4		0.00		3.60		1.916e-02		-51.794		3.768e-03		9.818
4		0.00		3.20		1.950e-02		-50.442		3.592e-03		9.833
4		0.00		2.80		1.965e-02		-50.326		3.594e-03		8.592
4		0.00		2.40		1.961e-02		-52.567		3.134e-03		9.543
4		0.00		2.00		1.953e-02		-50.247		3.433e-03		9.957
4		0.00		1.60		1.878e-02		-48.692		3.255e-03		10.655
4		0.00		1.20		1.932e-02		-51.169		3.415e-03		10.069
4		0.00		0.80		1.883e-02		-52.248		3.449e-03		10.044
4		0.00		0.40		1.821e-02		-50.505		3.569e-03		11.331
4		0.00		0.00		1.861e-02		-45.625		3.296e-03		10.416
4		0.00		-0.40		1.780e-02		-49.738		3.566e-03		12.065
4		0.00		-0.80		1.761e-02		-49.890		3.967e-03		14.569
4		0.00		-1.20		1.748e-02		-49.641		4.234e-03		11.837
4		0.00		-1.60		1.709e-02		-50.198		4.116e-03		13.115
4		0.00		-2.00		1.690e-02		-48.560		4.188e-03		12.967
4		0.00		-2.40		1.595e-02		-47.406		4.054e-03		13.025
4		0.00		-2.80		1.576e-02		-47.825		4.094e-03		11.676
4		0.00		-3.20		1.546e-02		-47.999		3.842e-03		11.299
4		0.00		-3.60		1.481e-02		-50.793		3.679e-03		9.962
4		0.00		-4.00		1.465e-02		-51.086		3.430e-03		11.257
4		0.00		-4.40		1.406e-02		-51.882		3.061e-03		12.321
4		0.00		-4.80		1.326e-02		-49.150		2.976e-03		10.492
4		0.00		-5.20		1.194e-02		-49.988		2.496e-03		11.514
4		0.00		-5.60		1.097e-02		-48.232		2.078e-03		13.626
4		0.00		-6.00		9.884e-03		-54.268		1.886e-03		15.309
4		0.00		-6.40		8.617e-03		-46.076		1.664e-03		12.067
4		0.00		-6.80		7.569e-03		-41.660		1.531e-03		14.067
4		0.00		-7.20		6.250e-03		-42.499		1.359e-03		14.922
4		0.00		-7.60		4.613e-03		-45.045		1.194e-03		22.581
4		0.00		-8.00		3.045e-03		-48.479		1.005e-03		26.685
4		0.00		-8.40		1.803e-03		-28.040		8.691e-04		56.191
4		0.00		-8.80		1.975e-03		55.425		9.052e-04		74.648
4		0.00		-9.20		2.946e-03		89.041		1.095e-03		44.259
4		0.00		-9.60		4.495e-03		110.088		1.371e-03		20.870
4		0.00		-10.00		6.340e-03		117.435		1.916e-03		18.559
4		0.00		-9.60		7.739e-03		127.535		1.935e-03		15.748
4		0.00		-9.20		8.523e-03		121.205		2.133e-03		15.532
4		0.00		-8.80		8.952e-03		123.644		2.290e-03		11.570
4		0.00		-8.40		8.938e-03		123.728		2.406e-03		14.869
4		0.00		-8.00		8.887e-03		125.947		2.438e-03		13.877
4		0.00		-7.60		9.129e-03		122.397		2.358e-03		14.447
4		0.00		-7.20		8.714e-03		125.941		2.187e-03		14.232
4		0.00		-6.80		8.855e-03		121.973		1.937e-03		15.127
4		0.00		-6.40		8.292e-03		121.623		2.307e-03		18.190
4		0.00		-6.00		8.290e-03		122.544		2.006e-03		17.324
4		0.00		-5.60		7.805e-03		123.201		2.405e-03		24.039
4		0.00		-5.20		7.854e-03		120.256		2.107e-03		24.190
4		0.00		-4.80		7.786e-03		121.466		2.002e-03		20.394
4		0.00		-4.40		7.234e-03		119.806		2.097e-03		16.809
4		0.00		-4.00		6.843e-03		115.104		2.217e-03		24.092
4		0.00		-3.60		7.028e-03		116.988		1.979e-03		25.015
4		0.00		-3.20		7.131e-03		116.382		2.165e-03		35.344
4		0.00		-2.80		7.011e-03		113.875		2.152e-03		25.473
4		0.00		-2.40		6.691e-03		116.580		2.266e-03		20.122
4		0.00		-2.00		6.529e-03		123.702		2.199e-03		22.172
4		0.00		-1.60		6.267e-03		119.179		2.220e-03		21.721
4		0.00		-1.20		6.776e-03		115.182		2.366e-03		33.750
4		0.00		-0.80		6.633e-03		116.792		2.166e-03		26.962
4		0.00		-0.40		6.693e-03		117.676		2.094e-03		39.164
5		0.00		0.00		6.138e-03		122.571		1.779e-03		20.991
5		0.00		0.40		6.237e-03		116.468		1.769e-03		15.887
5		0.00		0.80		6.468e-03		118.886		1.882e-03		17.223
5		0.00		1.20		5.987e-03		116.430		1.999e-03		18.896
5		0.00		1.60		5.440e-03		114.163		1.624e-03		27.517
5		0.00		2.00		5.145e-03		115.520		1.713e-03		22.939
5		0.00		2.40		4.119e-03		108.052		1.401e-03		27.586
5		0.00		2.80		3.285e-03		92.101		1.234e-03		60.783
5		0.00		3.20		2.741e-03		77.221		1.197e-03		60.198
5		0.00		3.60		2.181e-03		59.216		1.018e-03		73.403
5		0.00		4.00		1.765e-03		22.696		7.228e-04		73.733
5		0.00		4.40		2.039e-03		-18.448		8.456e-04		60.513
5		0.00		4.80		2.122e-03		-37.871		8.836e-04		49.823
5		0.00		5.20		2.434e-03		-40.445		1.104e-03		50.488
5		0.00		5.60		2.895e-03		-60.508		1.017e-03		33.699
5		0.00		6.00		3.677e-03		-37.932		1.232e-03		31.704
5		0.00		6.40		4.636e-03		-48.389		1.339e-03		18.958
5		0.00		6.80		5.344e-03		-41.627		1.638e-03		20.505
5		0.00		7.20		6.093e-03		-50.879		1.641e-03		17.981
5		0.00		7.60		6.910e-03		-48.957		1.791e-03		18.498
5		0.00		8.00		7.548e-03		-47.022		2.224e-03		16.785
5		0.00		8.40		8.952e-03		-48.368		2.106e-03		12.373
5		0.00		8.80		1.012e-02		-52.934		2.583e-03		16.272
5		0.00		9.20		1.152e-02		-51.558		2.642e-03		11.385
5		0.00		9.60		1.304e-02		-51.870		3.263e-03		14.381
5		0.00		10.00		1.494e-02		-50.723		3.794e-03		10.136
5		0.00		9.60		1.556e-02		-50.428		3.963e-03		14.479
5		0.00		9.20		1.663e-02		-51.266		4.049e-03		10.166
5		0.00		8.80		1.714e-02		-48.962		4.622e-03		10.938
5		0.00		8.40		1.667e-02		-47.815		4.792e-03		12.415
5		0.00		8.00		1.674e-02		-51.265		4.659e-03		13.943
5		0.00		7.60		1.741e-02		-51.109		4.816e-03		12.664
5		0.00		7.20		1.742e-02		-50.689		4.684e-03		12.850
5		0.00		6.80		1.737e-02		-49.367		4.975e-03		9.963
5		0.00		6.40		1.703e-02		-47.768		4.640e-03		13.236
5		0.00		6.00		1.689e-02		-48.416		4.579e-03		16.157
5		0.00		5.60		1.668e-02		-51.252		4.288e-03		11.069
5		0.00		5.20		1.606e-02		-46.356		4.120e-03		13.696
5		0.00		4.80		1.668e-02		-48.284		4.017e-03		12.518
5		0.00		4.40		1.647e-02		-48.773		3.842e-03		14.700
5		0.00		4.00		1.613e-02		-48.490		3.702e-03		14.698
5		0.00		3.60		1.628e-02		-48.302		3.818e-03		11.538
5		0.00		3.20		1.632e-02		-47.425		3.556e-03		13.443
5		0.00		2.80		1.618e-02		-47.828		3.931e-03		12.681
5		0.00		2.40		1.630e-02		-49.867		3.865e-03		15.045
5		0.00		2.00		1.607e-02		-47.586		3.801e-03		11.959
5		0.00		1.60		1.578e-02		-49.512		3.616e-03		14.911
5		0.00		1.20		1.537e-02		-48.581		3.583e-03		12.209
5		0.00		0.80		1.587e-02		-50.821		3.791e-03		11.134
5		0.00		0.40		1.531e-02		-51.613		3.725e-03		14.007
5		0.00		0.00		1.528e-02		-51.083		3.604e-03		12.395
5		0.00		-0.40		1.501e-02		-49.611		3.564e-03		11.685
5		0.00		-0.80		1.493e-02		-50.527		3.468e-03		15.597
5		0.00		-1.20		1.435e-02		-49.246		3.589e-03		12.323
5		0.00		-1.60		1.405e-02		-50.055		3.596e-03		12.599
5		0.00		-2.00		1.384e-02		-49.322		3.162e-03		14.224
5		0.00		-2.40		1.349e-02		-45.719		2.934e-03		13.362
5		0.00		-2.80		1.340e-02		-50.247		2.940e-03		13.137
5		0.00		-3.20		1.258e-02		-51.200		2.735e-03		14.167
5		0.00		-3.60		1.268e-02		-52.425		2.880e-03		13.012
5		0.00		-4.00		1.255e-02		-47.168		2.545e-03		15.209
5		0.00		-4.40		1.141e-02		-51.667		2.510e-03		11.761
5		0.00		-4.80		1.089e-02		-48.206		2.333e-03		12.288
5		0.00		-5.20		9.972e-03		-46.787		2.107e-03		12.258
5		0.00		-5.60		8.958e-03		-49.193		1.813e-03		13.779
5		0.00		-6.00		8.048e-03		-43.871		1.798e-03		13.094
5		0.00		-6.40		7.302e-03		-43.740		1.559e-03		16.375
5		0.00		-6.80		5.734e-03		-47.948		1.375e-03		15.711
5		0.00		-7.20		4.603e-03		-52.911		1.441e-03		21.770
5		0.00		-7.60		3.592e-03		-56.693		1.162e-03		31.893
5		0.00		-8.00		2.458e-03		-45.801		1.000e-03		37.782
5		0.00		-8.40		2.143e-03		30.442		9.827e-04		77.620
5		0.00		-8.80		2.945e-03		88.870		1.160e-03		59.468
5		0.00		-9.20		4.571e-03		113.941		1.661e-03		35.690
5		0.00		-9.60		7.030e-03		118.789		2.175e-03		23.206
5		0.00		-10.00		8.609e-03		124.216		2.193e-03		15.129
5		0.00		-9.60		9.069e-03		121.122		2.123e-03		14.468
5		0.00		-9.20		9.851e-03		121.564		2.161e-03		12.085
5		0.00		-8.80		1.043e-02		122.948		2.677e-03		10.536
5		0.00		-8.40		1.050e-02		121.878		2.369e-03		12.222
5		0.00		-8.00		9.794e-03		123.954		2.577e-03		12.155
5		0.00		-7.60		9.337e-03		123.591		2.581e-03		13.794
5		0.00		-7.20		9.399e-03		122.565		2.605e-03		17.456
5		0.00		-6.80		9.424e-03		121.462		2.494e-03		16.521
5		0.00		-6.40		9.018e-03		126.134		2.502e-03		12.184
5		0.00		-6.00		9.091e-03		127.093		2.342e-03		10.799
5		0.00		-5.60		8.467e-03		122.168		2.423e-03		12.500
5		0.00		-5.20		8.463e-03		126.190		2.374e-03		13.739
5		0.00		-4.80		8.420e-03		123.793		2.123e-03		11.695
5		0.00		-4.40		8.208e-03		120.233		2.119e-03		14.281
5		0.00		-4.00		8.144e-03		123.057		2.183e-03		11.864
5		0.00		-3.60		7.909e-03		122.738		2.096e-03		14.602
5		0.00		-3.20		8.039e-03		123.669		2.119e-03		13.451
5		0.00		-2.80		8.072e-03		121.415		2.325e-03		19.309
5		0.00		-2.40		7.974e-03		123.202		2.059e-03		16.838
5		0.00		-2.00		7.731e-03		120.233		2.277e-03		22.721
5		0.00		-1.60		7.430e-03		120.396		2.182e-03		19.078
5		0.00		-1.20		7.863e-03		125.536		2.137e-03		18.215
5		0.00		-0.80		7.574e-03		121.805		2.241e-03		25.507
5		0.00		-0.40		7.637e-03		120.686		1.933e-03		17.174
6		0.00		0.00		7.650e-03		122.244		2.178e-03		22.147
6		0.00		0.40		7.706e-03		121.469		2.080e-03		18.582
6		0.00		0.80		7.442e-03		118.592		2.128e-03		20.964
6		0.00		1.20		6.650e-03		119.116		1.902e-03		20.130
6		0.00		1.60		6.217e-03		112.529		1.742e-03		20.128
6		0.00		2.00		5.471e-03		116.985		1.702e-03		29.495
6		0.00		2.40		4.658e-03		111.849		1.777e-03		25.583
6		0.00		2.80		3.934e-03		107.111		1.607e-03		36.029
6		0.00		3.20		3.134e-03		94.110		1.314e-03		56.178
6		0.00		3.60		2.641e-03		70.039		1.115e-03		68.833
6		0.00		4.00		2.348e-03		61.436		9.987e-04		61.819
6		0.00		4.40		1.874e-03		30.628		7.730e-04		75.742
6		0.00		4.80		1.724e-03		17.454		6.867e-04		77.508
6		0.00		5.20		1.912e-03		-48.644		7.920e-04		58.753
6		0.00		5.60		2.487e-03		-56.081		1.026e-03		41.092
6		0.00		6.00		3.063e-03		-44.559		1.115e-03		35.736
6		0.00		6.40		3.804e-03		-48.880		1.231e-03		29.769
6		0.00		6.80		4.396e-03		-43.685		1.275e-03		24.189
6		0.00		7.20		5.266e-03		-48.935		1.356e-03		21.583
6		0.00		7.60		6.460e-03		-45.866		1.666e-03		17.226
6		0.00		8.00		7.699e-03		-50.836		1.771e-03		11.913
6		0.00		8.40		8.492e-03		-49.789		1.845e-03		14.997
6		0.00		8.80		1.006e-02		-49.403		2.010e-03		13.276
6		0.00		9.20		1.111e-02		-49.043		2.608e-03		13.213
6		0.00		9.60		1.291e-02		-51.258		2.884e-03		12.868
6		0.00		10.00		1.500e-02		-50.846		3.311e-03		12.038
6		0.00		9.60		1.707e-02		-53.066		3.630e-03		12.066
6		0.00		9.20		1.821e-02		-50.026		3.544e-03		10.718
6		0.00		8.80		1.838e-02		-52.450		3.673e-03		10.498
6		0.00		8.40		1.892e-02		-51.094		3.684e-03		9.044
6		0.00		8.00		1.919e-02		-51.920		3.773e-03		9.051
6		0.00		7.60		1.908e-02		-50.769		3.947e-03		10.744
6		0.00		7.20		1.879e-02		-52.207		3.578e-03		10.333
6		0.00		6.80		1.873e-02		-52.487		3.552e-03		9.828
6		0.00		6.40		1.830e-02		-48.781		3.415e-03		11.678
6		0.00		6.00		1.839e-02		-52.042		3.238e-03		9.638
6		0.00		5.60		1.773e-02		-52.810		3.498e-03		10.310
6		0.00		5.20		1.777e-02		-49.718		3.465e-03		9.065
6		0.00		4.80		1.787e-02		-48.626		3.373e-03		9.492
6		0.00		4.40		1.734e-02		-50.294		3.383e-03		9.096
6		0.00		4.00		1.718e-02		-49.500		3.409e-03		10.277
6		0.00		3.60		1.732e-02		-48.191		3.629e-03		8.771
6		0.00		3.20		1.667e-02		-48.715		3.624e-03		10.316
6		0.00		2.80		1.595e-02		-49.002		3.777e-03		11.319
6		0.00		2.40		1.581e-02		-49.492		4.028e-03		10.649
6		0.00		2.00		1.594e-02		-49.660		4.058e-03		9.922
6		0.00		1.60		1.560e-02		-49.945		4.033e-03		10.806
6		0.00		1.20		1.576e-02		-51.294		4.330e-03		10.698
6		0.00		0.80		1.530e-02		-50.482		4.326e-03		12.110
6		0.00		0.40		1.567e-02		-47.069		4.177e-03		10.658
6		0.00		0.00		1.511e-02		-50.661		4.209e-03		14.867
6		0.00		-0.40		1.530e-02		-49.023		3.771e-03		16.109
6		0.00		-0.80		1.558e-02		-48.127		3.678e-03		10.055
6		0.00		-1.20		1.526e-02		-51.465		3.648e-03		11.694
6		0.00		-1.60		1.500e-02		-49.034		3.349e-03		14.491
6		0.00		-2.00		1.404e-02		-45.089		3.116e-03		15.343
6		0.00		-2.40		1.374e-02		-48.429		3.022e-03		12.983
6		0.00		-2.80		1.417e-02		-48.949		3.167e-03		10.884
6		0.00		-3.20		1.286e-02		-46.890		2.862e-03		12.143
6		0.00		-3.60		1.248e-02		-48.955		2.851e-03		14.293
6		0.00		-4.00		1.270e-02		-47.460		2.922e-03		12.022
6		0.00		-4.40		1.190e-02		-49.230		2.562e-03		16.074
6		0.00		-4.80		1.059e-02		-50.089		2.521e-03		14.844
6		0.00		-5.20		9.844e-03		-45.421		2.324e-03		11.973
6		0.00		-5.60		8.643e-03		-42.351		2.017e-03		15.779
6		0.00		-6.00		8.726e-03		-44.738		1.894e-03		15.439
6		0.00		-6.40		7.327e-03		-42.148		1.643e-03		16.624
6		0.00		-6.80		5.592e-03		-40.909		1.522e-03		21.397
6		0.00		-7.20		4.706e-03		-46.601		1.296e-03		21.081
6		0.00		-7.60		3.179e-03		-46.536		1.193e-03		31.614
6		0.00		-8.00		2.129e-03		-35.687		9.356e-04		50.336
6		0.00		-8.40		2.086e-03		-29.677		8.664e-04		61.051
6		0.00		-8.80		1.861e-03		36.092		7.888e-04		69.080
6		0.00		-9.20		3.175e-03		96.244		1.189e-03		41.961
6		0.00		-9.60		4.273e-03		114.225		1.535e-03		35.379
6		0.00		-10.00		6.211e-03		120.604		1.863e-03		18.887
6		0.00		-9.60		6.992e-03		118.866		2.130e-03		34.745
6		0.00		-9.20		7.468e-03		122.934		2.016e-03		13.859
6		0.00		-8.80		7.970e-03		123.764		2.376e-03		13.869
6		0.00		-8.40		8.139e-03		125.604		2.249e-03		17.743
6		0.00		-8.00		8.135e-03		122.495		2.178e-03		16.515
6		0.00		-7.60		8.245e-03		116.172		2.607e-03		26.714
6		0.00		-7.20		7.891e-03		125.117		2.398e-03		18.128
6		0.00		-6.80		8.050e-03		122.030		2.479e-03		12.628
6		0.00		-6.40		8.279e-03		122.655		2.589e-03		14.056
6		0.00		-6.00		7.695e-03		122.646		2.461e-03		16.767
6		0.00		-5.60		7.705e-03		123.139		2.259e-03		18.255
6		0.00		-5.20		7.499e-03		119.887		2.396e-03		16.294
6		0.00		-4.80		7.523e-03		120.275		2.208e-03		16.712
6		0.00		-4.40		7.692e-03		124.127		2.363e-03		17.117
6		0.00		-4.00		7.394e-03		120.364		2.461e-03		27.508
6		0.00		-3.60		7.370e-03		120.631		2.328e-03		17.579
6		0.00		-3.20		7.511e-03		115.580		2.219e-03		31.248
6		0.00		-2.80		7.180e-03		118.672		1.956e-03		15.406
6		0.00		-2.40		7.244e-03		124.234		1.979e-03		12.616
6		0.00		-2.00		6.977e-03		118.861		2.200e-03		24.903
6		0.00		-1.60		7.380e-03		124.164		1.980e-03		14.715
6		0.00		-1.20		7.195e-03		121.451		1.979e-03		16.677
6		0.00		-0.80		6.719e-03		119.537		2.059e-03		16.801
6		0.00		-0.40		6.834e-03		123.492		1.849e-03		12.483
7		0.00		0.00		6.970e-03		125.166		1.756e-03		15.114
7		0.00		0.40		6.272e-03		122.860		1.733e-03		16.094
7		0.00		0.80		6.631e-03		121.674		1.856e-03		15.103
7		0.00		1.20		6.137e-03		120.956		1.723e-03		16.117
7		0.00		1.60		5.821e-03		120.126		1.597e-03		16.028
7		0.00		2.00		5.714e-03		117.597		1.543e-03		21.165
7		0.00		2.40		4.497e-03		119.747		1.520e-03		20.545
7		0.00		2.80		4.072e-03		106.159		1.419e-03		26.710
7		0.00		3.20		3.514e-03		103.419		1.331e-03		37.493
7		0.00		3.60		2.601e-03		93.469		9.855e-04		43.526
7		0.00		4.00		2.083e-03		62.175		9.098e-04		63.373
7		0.00		4.40		1.895e-03		32.235		8.130e-04		74.597
7		0.00		4.80		1.747e-03		-15.870		6.016e-04		70.300
7		0.00		5.20		2.175e-03		-50.011		8.536e-04		56.587
7		0.00		5.60		2.709e-03		-48.809		1.069e-03		41.135
7		0.00		6.00		2.988e-03		-45.091		1.171e-03		38.935
7		0.00		6.40		3.677e-03		-52.401		1.230e-03		29.047
7		0.00		6.80		4.086e-03		-49.698		1.303e-03		22.449
7		0.00		7.20		5.020e-03		-41.922		1.261e-03		22.343
7		0.00		7.60		5.876e-03		-49.941		1.602e-03		18.734
7		0.00		8.00		6.847e-03		-47.729		1.728e-03		16.456
7		0.00		8.40		8.003e-03		-53.893		1.934e-03		16.459
7		0.00		8.80		9.336e-03		-50.938		2.305e-03		14.008
7		0.00		9.20		1.072e-02		-50.637		2.614e-03		11.706
7		0.00		9.60		1.219e-02		-52.016		2.867e-03		13.095
7		0.00		10.00		1.415e-02		-50.844		3.194e-03		14.158
7		0.00		9.60		1.495e-02		-52.217		3.794e-03		15.610
7		0.00		9.20		1.560e-02		-52.148		3.796e-03		12.809
7		0.00		8.80		1.589e-02		-53.100		3.721e-03		11.482
7		0.00		8.40		1.637e-02		-50.791		3.504e-03		11.362
7		0.00		8.00		1.680e-02		-50.317		3.977e-03		13.936
7		0.00		7.60		1.676e-02		-49.475		3.756e-03		13.666
7		0.00		7.20		1.650e-02		-49.048		3.733e-03		13.456
7		0.00		6.80		1.649e-02		-49.773		3.862e-03		13.649
7		0.00		6.40		1.588e-02		-48.856		3.905e-03		11.889
7		0.00		6.00		1.622e-02		-50.862		3.694e-03		14.367
7		0.00		5.60		1.635e-02		-48.275		3.820e-03		11.306
7		0.00		5.20		1.587e-02		-47.537		3.875e-03		15.693
7		0.00		4.80		1.579e-02		-49.529		3.839e-03		12.319
7		0.00		4.40		1.553e-02		-49.247		3.645e-03		13.279
7		0.00		4.00		1.524e-02		-50.485		3.683e-03		16.238
7		0.00		3.60		1.519e-02		-51.203		3.790e-03		15.818
7		0.00		3.20		1.503e-02		-49.443		3.685e-03		11.801
7		0.00		2.80		1.514e-02		-48.614		3.743e-03		12.978
7		0.00		2.40		1.465e-02		-50.811		3.551e-03		15.823
7		0.00		2.00		1.462e-02		-49.864		3.582e-03		11.439
7		0.00		1.60		1.469e-02		-48.185		3.380e-03		11.819
7		0.00		1.20		1.461e-02		-49.070		3.481e-03		13.842
7		0.00		0.80		1.471e-02		-48.453		3.480e-03		12.348
7		0.00		0.40		1.436e-02		-47.972		3.493e-03		13.587
7		0.00		0.00		1.435e-02		-49.480		3.568e-03		10.692
7		0.00		-0.40		1.409e-02		-48.717		3.388e-03		12.561
7		0.00		-0.80		1.385e-02		-46.767		3.444e-03		11.820
7		0.00		-1.20		1.345e-02		-50.226		3.419e-03		10.743
7		0.00		-1.60		1.320e-02		-48.878		3.248e-03		13.494
7		0.00		-2.00		1.330e-02		-47.902		3.309e-03		9.144
7		0.00		-2.40		1.311e-02		-50.116		3.236e-03		11.906
7		0.00		-2.80		1.266e-02		-47.054		3.327e-03		11.690
7		0.00		-3.20		1.155e-02		-45.618		3.091e-03		11.479
7		0.00		-3.60		1.143e-02		-48.154		3.030e-03		11.201
7		0.00		-4.00		1.120e-02		-49.117		3.101e-03		13.911
7		0.00		-4.40		1.049e-02		-50.843		2.765e-03		13.625
7		0.00		-4.80		1.006e-02		-48.372		2.766e-03		11.181
7		0.00		-5.20		9.401e-03		-51.688		2.204e-03		15.835
7		0.00		-5.60		8.476e-03		-52.392		2.116e-03		14.898
7		0.00		-6.00		7.850e-03		-49.358		2.113e-03		13.081
7		0.00		-6.40		7.574e-03		-48.524		1.930e-03		14.367
7		0.00		-6.80		5.932e-03		-49.256		1.643e-03		19.231
7		0.00		-7.20		4.826e-03		-54.271		1.339e-03		21.063
7		0.00		-7.60		3.439e-03		-56.348		1.364e-03		23.790
7		0.00		-8.00		2.520e-03		-25.892		9.341e-04		47.795
7		0.00		-8.40		1.924e-03		-9.517		8.288e-04		70.418
7		0.00		-8.80		1.941e-03		23.534		9.116e-04		76.888
7		0.00		-9.20		2.669e-03		84.979		1.068e-03		56.874
7		0.00		-9.60		3.605e-03		99.293		1.469e-03		48.088
7		0.00		-10.00		5.350e-03		119.262		1.704e-03		21.891
7		0.00		-9.60		6.306e-03		119.669		1.971e-03		18.206
7		0.00		-9.20		7.013e-03		123.624		1.715e-03		15.085
7		0.00		-8.80		7.485e-03		123.573		1.946e-03		16.611
7		0.00		-8.40		7.240e-03		120.254		1.873e-03		15.510
7		0.00		-8.00		7.777e-03		121.392		2.113e-03		16.589
7		0.00		-7.60		7.595e-03		118.948		1.899e-03		13.531
7		0.00		-7.20		7.919e-03		123.543		1.953e-03		13.726
7		0.00		-6.80		8.075e-03		120.744		2.061e-03		16.893
7		0.00		-6.40		7.594e-03		122.183		2.157e-03		14.488
7		0.00		-6.00		7.470e-03		124.716		2.128e-03		14.508
7		0.00		-5.60		7.035e-03		123.914		1.779e-03		13.106
7		0.00		-5.20		6.826e-03		120.645		1.909e-03		33.072
7		0.00		-4.80		6.782e-03		126.731		1.605e-03		16.017
7		0.00		-4.40		6.583e-03		124.400		1.592e-03		16.078
7		0.00		-4.00		6.638e-03		126.568		1.883e-03		15.819
7		0.00		-3.60		6.400e-03		125.427		1.634e-03		13.832
7		0.00		-3.20		6.285e-03		115.358		1.747e-03		19.794
7		0.00		-2.80		6.153e-03		119.576		1.514e-03		15.806
7		0.00		-2.40		6.204e-03		121.948		1.666e-03		14.557
7		0.00		-2.00		6.428e-03		122.523		1.692e-03		17.037
7		0.00		-1.60		6.120e-03		122.231		1.622e-03		15.386
7		0.00		-1.20		6.462e-03		123.813		1.770e-03		16.565
7		0.00		-0.80		6.399e-03		118.732		1.616e-03		16.431
7		0.00		-0.40		6.536e-03		122.416		1.696e-03		14.471
8		0.00		0.00		6.254e-03		118.545		1.754e-03		13.633
8		0.00		0.40		6.048e-03		116.906		1.647e-03		16.166
8		0.00		0.80		5.856e-03		116.513		1.828e-03		25.576
8		0.00		1.20		5.357e-03		119.215		1.470e-03		22.702
8		0.00		1.60		5.173e-03		116.931		1.613e-03		28.631
8		0.00		2.00		5.066e-03		113.108		1.418e-03		20.952
8		0.00		2.40		4.434e-03		112.731		1.458e-03		24.634
8		0.00		2.80		3.926e-03		112.087		1.393e-03		36.572
8		0.00		3.20		3.400e-03		105.950		1.344e-03		40.771
8		0.00		3.60		2.552e-03		76.413		9.948e-04		60.557
8		0.00		4.00		2.070e-03		60.315		9.866e-04		71.263
8		0.00		4.40		1.716e-03		11.590		6.505e-04		70.803
8		0.00		4.80		2.156e-03		-28.855		8.300e-04		60.044
8		0.00		5.20		2.504e-03		-43.688		8.794e-04		45.598
8		0.00		5.60		2.955e-03		-55.031		1.176e-03		31.325
8		0.00		6.00		3.616e-03		-42.493		1.207e-03		25.949
8		0.00		6.40		4.514e-03		-44.655		1.086e-03		24.549
8		0.00		6.80		4.886e-03		-43.502		1.262e-03		21.811
8		0.00		7.20		5.625e-03		-50.899		1.346e-03		18.608
8		0.00		7.60		6.772e-03		-49.778		1.561e-03		15.998
8		0.00		8.00		7.503e-03		-52.041		1.740e-03		16.628
8		0.00		8.40		8.996e-03		-46.236		1.861e-03		14.107
8		0.00		8.80		9.952e-03		-49.799		2.059e-03		12.366
8		0.00		9.20		1.142e-02		-52.781		2.511e-03		13.365
8		0.00		9.60		1.301e-02		-52.356		2.429e-03		10.379
8		0.00		10.00		1.495e-02		-49.421		2.858e-03		10.148
8		0.00		9.60		1.548e-02		-52.031		2.792e-03		10.478
8		0.00		9.20		1.619e-02		-51.358		3.072e-03		9.961
8		0.00		8.80		1.645e-02		-51.533		3.275e-03		10.195
8		0.00		8.40		1.686e-02		-49.679		3.271e-03		9.970
8		0.00		8.00		1.700e-02		-51.495		3.281e-03		10.604
8		0.00		7.60		1.686e-02		-48.740		3.424e-03		10.048
8		0.00		7.20		1.659e-02		-52.094		2.970e-03		11.861
8		0.00		6.80		1.600e-02		-49.246		3.210e-03		11.552
8		0.00		6.40		1.595e-02		-53.730		3.211e-03		11.337
8		0.00		6.00		1.594e-02		-51.443		3.324e-03		12.609
8		0.00		5.60		1.582e-02		-49.824		3.414e-03		12.190
8		0.00		5.20		1.547e-02		-48.985		3.377e-03		11.987
8		0.00		4.80		1.499e-02		-48.056		3.432e-03		11.861
8		0.00		4.40		1.503e-02		-51.430		3.547e-03		12.333
8		0.00		4.00		1.462e-02		-50.667		3.398e-03		13.552
8		0.00		3.60		1.459e-02		-50.964		3.467e-03		14.720
8		0.00		3.20		1.391e-02		-47.968		3.429e-03		12.782
8		0.00		2.80		1.429e-02		-48.672		2.938e-03		10.874
8		0.00		2.40		1.417e-02		-47.970		3.161e-03		14.139
8		0.00		2.00		1.456e-02		-49.158		3.312e-03		10.520
8		0.00		1.60		1.363e-02		-48.200		3.307e-03		14.644
8		0.00		1.20		1.407e-02		-50.262		3.136e-03		13.319
8		0.00		0.80		1.405e-02		-44.080		3.282e-03		18.843
8		0.00		0.40		1.414e-02		-51.835		3.395e-03		13.704
8		0.00		0.00		1.397e-02		-48.826		3.474e-03		15.156
8		0.00		-0.40		1.380e-02		-46.794		3.366e-03		15.728
8		0.00		-0.80		1.376e-02		-49.148		3.438e-03		9.385
8		0.00		-1.20		1.394e-02		-48.104		3.245e-03		10.865
8		0.00		-1.60		1.329e-02		-49.149		3.374e-03		11.922
8		0.00		-2.00		1.281e-02		-46.768		3.034e-03		12.520
8		0.00		-2.40		1.255e-02		-49.283		3.117e-03		12.699
8		0.00		-2.80		1.228e-02		-46.883		2.943e-03		12.172
8		0.00		-3.20		1.219e-02		-52.044		2.683e-03		10.616
8		0.00		-3.60		1.193e-02		-44.508		2.657e-03		10.052
8		0.00		-4.00		1.110e-02		-45.672		2.360e-03		12.535
8		0.00		-4.40		1.072e-02		-44.981		2.017e-03		14.879
8		0.00		-4.80		1.058e-02		-46.508		2.082e-03		11.398
8		0.00		-5.20		9.969e-03		-50.060		1.962e-03		12.816
8		0.00		-5.60		9.475e-03		-51.433		1.778e-03		10.881
8		0.00		-6.00		8.467e-03		-49.819		1.759e-03		10.853
8		0.00		-6.40		7.531e-03		-47.289		1.654e-03		16.839
8		0.00		-6.80		5.942e-03		-45.350		1.525e-03		15.708
8		0.00		-7.20		4.771e-03		-45.020		1.266e-03		19.714
8		0.00		-7.60		3.542e-03		-34.312		1.020e-03		30.326
8		0.00		-8.00		2.354e-03		-33.269		9.865e-04		42.751
8		0.00		-8.40		1.888e-03		-15.551		8.471e-04		55.097
8		0.00		-8.80		1.783e-03		30.425		6.894e-04		68.239
8		0.00		-9.20		2.389e-03		68.841		9.742e-04		63.860
8		0.00		-9.60		3.144e-03		101.853		1.222e-03		37.764
8		0.00		-10.00		4.387e-03		106.419		1.641e-03		39.067
8		0.00		-9.60		5.069e-03		112.203		1.801e-03		29.069
8		0.00		-9.20		5.722e-03		119.678		2.077e-03		28.446
8		0.00		-8.80		6.242e-03		115.091		1.989e-03		22.941
8		0.00		-8.40		6.270e-03		118.983		2.240e-03		25.462
8		0.00		-8.00		6.767e-03		114.507		2.376e-03		28.874
8		0.00		-7.60		6.485e-03		118.823		2.264e-03		25.184
8		0.00		-7.20		6.509e-03		119.686		2.153e-03		23.937
8		0.00		-6.80		6.832e-03		110.920		2.134e-03		27.335
8		0.00		-6.40		6.524e-03		120.503		1.887e-03		19.118
8		0.00		-6.00		6.383e-03		118.701		1.839e-03		19.110
8		0.00		-5.60		6.329e-03		120.976		1.850e-03		20.035
8		0.00		-5.20		6.033e-03		123.206		1.822e-03		19.805
8		0.00		-4.80		6.108e-03		124.143		1.884e-03		16.409
8		0.00		-4.40		6.168e-03		120.023		1.905e-03		16.599
8		0.00		-4.00		6.000e-03		117.324		1.924e-03		33.295
8		0.00		-3.60		6.377e-03		119.879		1.751e-03		25.214
8		0.00		-3.20		6.155e-03		118.323		1.918e-03		20.885
8		0.00		-2.80		6.542e-03		121.816		1.886e-03		17.832
8		0.00		-2.40		6.246e-03		121.419		1.559e-03		15.458
8		0.00		-2.00		6.143e-03		124.622		1.672e-03		20.659
8		0.00		-1.60		5.981e-03		124.044		1.944e-03		22.384
8		0.00		-1.20		5.754e-03		125.915		1.791e-03		17.951
8		0.00		-0.80		5.790e-03		125.144		1.611e-03		14.981
8		0.00		-0.40		5.883e-03		118.720		1.821e-03		17.456
