# Date of analysis: 2024-03-08 10;58
# Segment other properties: height: -46.2207908354012, diff height: 227.45487940336608, deflection: 35.331248814920706, deflection error: 3.243201549404227, adhesion: 49.46691670491305, phase offset: 0
# 
# Loop index	Read Volt (V)	Write Volt (V)	Amplitude (a.u)	Phase (deg)	Sigma Amp (a.u)	Sigma Pha (deg)	
1		0.00		0.00		2.755e-02		-51.172		7.143e-03		13.122
1		0.00		0.40		2.670e-02		-51.232		7.572e-03		13.791
1		0.00		0.80		2.652e-02		-50.369		7.207e-03		13.019
1		0.00		1.20		2.598e-02		-51.729		7.751e-03		14.636
1		0.00		1.60		2.587e-02		-52.451		7.721e-03		13.837
1		0.00		2.00		2.595e-02		-51.951		7.698e-03		11.900
1		0.00		2.40		2.615e-02		-51.647		7.851e-03		13.984
1		0.00		2.80		2.620e-02		-49.907		7.693e-03		12.294
1		0.00		3.20		2.685e-02		-50.589		7.828e-03		9.398
1		0.00		3.60		2.698e-02		-47.853		6.952e-03		9.927
1		0.00		4.00		2.750e-02		-49.326		7.454e-03		10.411
1		0.00		4.40		2.789e-02		-50.565		7.499e-03		10.803
1		0.00		4.80		2.805e-02		-50.347		7.315e-03		11.292
1		0.00		5.20		2.851e-02		-51.821		7.268e-03		11.372
1		0.00		5.60		2.877e-02		-50.602		7.621e-03		10.906
1		0.00		6.00		2.934e-02		-50.349		7.600e-03		11.144
1		0.00		6.40		3.011e-02		-50.142		7.632e-03		11.130
1		0.00		6.80		3.104e-02		-50.765		8.482e-03		9.281
1		0.00		7.20		3.223e-02		-50.012		8.801e-03		9.534
1		0.00		7.60		3.414e-02		-51.236		9.525e-03		10.163
1		0.00		8.00		3.690e-02		-52.107		1.097e-02		12.090
1		0.00		8.40		3.945e-02		-51.450		1.150e-02		10.258
1		0.00		8.80		4.177e-02		-51.677		1.230e-02		12.122
1		0.00		9.20		4.435e-02		-51.530		1.341e-02		11.442
1		0.00		9.60		4.596e-02		-52.278		1.345e-02		12.590
1		0.00		10.00		4.742e-02		-51.589		1.381e-02		12.734
1		0.00		9.60		4.763e-02		-51.479		1.388e-02		11.184
1		0.00		9.20		4.802e-02		-50.121		1.333e-02		11.378
1		0.00		8.80		4.719e-02		-50.392		1.309e-02		11.219
1		0.00		8.40		4.630e-02		-50.429		1.234e-02		11.136
1		0.00		8.00		4.657e-02		-50.260		1.207e-02		10.860
1		0.00		7.60		4.532e-02		-51.897		1.231e-02		15.752
1		0.00		7.20		4.482e-02		-51.581		1.206e-02		14.784
1		0.00		6.80		4.429e-02		-50.464		1.167e-02		14.118
1		0.00		6.40		4.303e-02		-51.810		1.150e-02		15.726
1		0.00		6.00		4.387e-02		-51.434		1.165e-02		14.935
1		0.00		5.60		4.292e-02		-51.639		1.120e-02		15.232
1		0.00		5.20		4.238e-02		-51.510		1.114e-02		13.915
1		0.00		4.80		4.238e-02		-50.801		1.148e-02		14.135
1		0.00		4.40		4.133e-02		-51.844		1.146e-02		13.277
1		0.00		4.00		4.094e-02		-52.686		1.132e-02		13.249
1		0.00		3.60		3.863e-02		-53.031		1.137e-02		16.872
1		0.00		3.20		3.902e-02		-51.518		1.158e-02		12.424
1		0.00		2.80		3.893e-02		-51.536		1.120e-02		12.429
1		0.00		2.40		3.835e-02		-52.792		1.109e-02		13.501
1		0.00		2.00		3.812e-02		-51.777		1.069e-02		11.633
1		0.00		1.60		3.705e-02		-52.231		1.053e-02		12.536
1		0.00		1.20		3.765e-02		-51.022		9.900e-03		11.165
1		0.00		0.80		3.763e-02		-50.306		9.705e-03		11.197
1		0.00		0.40		3.733e-02		-50.569		9.810e-03		12.158
1		0.00		0.00		3.731e-02		-50.069		9.675e-03		10.803
1		0.00		-0.40		3.717e-02		-52.028		9.547e-03		11.959
1		0.00		-0.80		3.604e-02		-50.583		9.406e-03		10.243
1		0.00		-1.20		3.518e-02		-51.216		9.197e-03		12.796
1		0.00		-1.60		3.321e-02		-49.803		8.764e-03		12.672
1		0.00		-2.00		3.093e-02		-48.782		8.172e-03		13.532
1		0.00		-2.40		2.796e-02		-51.640		7.461e-03		12.750
1		0.00		-2.80		2.425e-02		-49.921		6.864e-03		15.589
1		0.00		-3.20		2.146e-02		-48.540		6.241e-03		14.203
1		0.00		-3.60		1.801e-02		-50.778		5.260e-03		13.152
1		0.00		-4.00		1.366e-02		-48.435		3.876e-03		14.460
1		0.00		-4.40		9.379e-03		-40.851		2.989e-03		13.396
1		0.00		-4.80		5.743e-03		-35.951		2.185e-03		25.456
1		0.00		-5.20		2.355e-03		2.215		9.491e-04		63.507
1		0.00		-5.60		3.349e-03		79.305		1.657e-03		57.371
1		0.00		-6.00		6.392e-03		110.627		2.563e-03		30.480
1		0.00		-6.40		9.837e-03		116.689		3.336e-03		26.498
1		0.00		-6.80		1.285e-02		122.313		3.912e-03		12.874
1		0.00		-7.20		1.492e-02		124.699		4.368e-03		10.601
1		0.00		-7.60		1.709e-02		122.937		4.723e-03		8.844
1		0.00		-8.00		1.861e-02		122.681		4.800e-03		9.312
1		0.00		-8.40		1.979e-02		125.900		4.968e-03		9.711
1		0.00		-8.80		2.089e-02		126.380		4.986e-03		9.357
1		0.00		-9.20		2.254e-02		126.607		4.936e-03		8.378
1		0.00		-9.60		2.359e-02		123.958		5.287e-03		8.403
1		0.00		-10.00		2.526e-02		127.243		5.466e-03		8.790
1		0.00		-9.60		2.391e-02		126.032		5.724e-03		9.587
1		0.00		-9.20		2.359e-02		125.724		5.837e-03		8.807
1		0.00		-8.80		2.364e-02		125.862		5.883e-03		9.941
1		0.00		-8.40		2.330e-02		125.462		6.142e-03		9.445
1		0.00		-8.00		2.258e-02		125.844		6.084e-03		10.409
1		0.00		-7.60		2.167e-02		125.737		6.017e-03		12.735
1		0.00		-7.20		2.127e-02		125.740		5.838e-03		15.772
1		0.00		-6.80		2.047e-02		124.677		5.776e-03		16.964
1		0.00		-6.40		1.914e-02		125.276		5.471e-03		18.295
1		0.00		-6.00		1.904e-02		123.979		5.486e-03		19.793
1		0.00		-5.60		1.856e-02		127.517		5.232e-03		15.929
1		0.00		-5.20		1.805e-02		128.792		5.009e-03		14.705
1		0.00		-4.80		1.772e-02		126.514		4.996e-03		12.335
1		0.00		-4.40		1.702e-02		124.275		4.807e-03		10.831
1		0.00		-4.00		1.642e-02		126.864		4.639e-03		11.543
1		0.00		-3.60		1.669e-02		125.208		4.353e-03		8.152
1		0.00		-3.20		1.605e-02		124.735		4.119e-03		9.092
1		0.00		-2.80		1.525e-02		127.804		3.756e-03		9.204
1		0.00		-2.40		1.532e-02		128.585		3.685e-03		11.563
1		0.00		-2.00		1.452e-02		128.207		3.377e-03		12.002
1		0.00		-1.60		1.410e-02		126.923		3.223e-03		10.156
1		0.00		-1.20		1.373e-02		129.094		3.095e-03		10.787
1		0.00		-0.80		1.310e-02		124.536		3.120e-03		9.101
1		0.00		-0.40		1.309e-02		128.626		3.144e-03		10.671
2		0.00		0.00		1.267e-02		124.213		3.183e-03		10.416
2		0.00		0.40		1.218e-02		126.136		3.269e-03		10.252
2		0.00		0.80		1.077e-02		124.974		3.385e-03		13.786
2		0.00		1.20		1.054e-02		124.060		3.072e-03		16.464
2		0.00		1.60		1.011e-02		123.277		3.154e-03		20.620
2		0.00		2.00		9.453e-03		122.507		2.848e-03		21.321
2		0.00		2.40		8.721e-03		125.276		2.591e-03		20.032
2		0.00		2.80		7.951e-03		128.081		2.388e-03		16.733
2		0.00		3.20		7.100e-03		123.503		1.999e-03		21.874
2		0.00		3.60		5.767e-03		117.609		1.921e-03		22.526
2		0.00		4.00		5.013e-03		129.210		1.567e-03		20.861
2		0.00		4.40		3.527e-03		105.017		1.365e-03		51.904
2		0.00		4.80		2.483e-03		66.796		1.044e-03		86.199
2		0.00		5.20		1.827e-03		2.773		7.950e-04		73.445
2		0.00		5.60		2.845e-03		-55.827		1.175e-03		33.267
2		0.00		6.00		4.701e-03		-62.478		1.477e-03		21.470
2		0.00		6.40		6.350e-03		-54.621		1.904e-03		23.112
2		0.00		6.80		9.259e-03		-47.408		2.515e-03		16.965
2		0.00		7.20		1.192e-02		-51.492		3.460e-03		14.493
2		0.00		7.60		1.533e-02		-49.509		4.831e-03		14.079
2		0.00		8.00		1.851e-02		-53.560		5.897e-03		15.972
2		0.00		8.40		2.229e-02		-48.420		7.166e-03		17.007
2		0.00		8.80		2.711e-02		-50.879		8.573e-03		11.893
2		0.00		9.20		3.167e-02		-51.554		9.800e-03		9.049
2		0.00		9.60		3.656e-02		-52.796		1.023e-02		6.693
2		0.00		10.00		3.981e-02		-52.524		1.002e-02		6.812
2		0.00		9.60		4.117e-02		-52.580		9.553e-03		7.205
2		0.00		9.20		4.106e-02		-52.560		8.768e-03		8.558
2		0.00		8.80		4.080e-02		-51.626		9.262e-03		9.220
2		0.00		8.40		4.022e-02		-51.496		9.747e-03		9.734
2		0.00		8.00		3.901e-02		-50.869		1.006e-02		12.993
2		0.00		7.60		3.896e-02		-51.580		1.057e-02		14.906
2		0.00		7.20		3.839e-02		-51.828		1.096e-02		12.911
2		0.00		6.80		3.837e-02		-50.953		1.081e-02		8.269
2		0.00		6.40		3.848e-02		-52.317		9.961e-03		6.446
2		0.00		6.00		3.846e-02		-50.606		8.787e-03		7.354
2		0.00		5.60		3.775e-02		-51.392		8.089e-03		8.028
2		0.00		5.20		3.795e-02		-51.010		8.243e-03		8.934
2		0.00		4.80		3.690e-02		-52.203		8.630e-03		8.835
2		0.00		4.40		3.665e-02		-49.752		9.215e-03		11.878
2		0.00		4.00		3.531e-02		-51.617		1.004e-02		17.762
2		0.00		3.60		3.615e-02		-51.554		1.016e-02		14.206
2		0.00		3.20		3.526e-02		-51.074		1.048e-02		10.793
2		0.00		2.80		3.584e-02		-52.042		9.827e-03		8.315
2		0.00		2.40		3.617e-02		-50.452		8.704e-03		6.728
2		0.00		2.00		3.641e-02		-51.324		8.039e-03		6.512
2		0.00		1.60		3.601e-02		-51.069		7.675e-03		8.567
2		0.00		1.20		3.510e-02		-50.378		7.913e-03		9.964
2		0.00		0.80		3.505e-02		-49.690		8.499e-03		11.625
2		0.00		0.40		3.468e-02		-49.053		8.913e-03		13.453
2		0.00		0.00		3.465e-02		-51.678		9.457e-03		15.379
2		0.00		-0.40		3.457e-02		-50.612		9.264e-03		8.166
2		0.00		-0.80		3.438e-02		-51.538		8.306e-03		7.610
2		0.00		-1.20		3.445e-02		-51.640		7.609e-03		7.503
2		0.00		-1.60		3.389e-02		-50.312		7.034e-03		7.311
2		0.00		-2.00		3.252e-02		-50.410		6.610e-03		8.886
2		0.00		-2.40		3.112e-02		-51.212		6.806e-03		9.958
2		0.00		-2.80		2.835e-02		-48.563		6.992e-03		10.858
2		0.00		-3.20		2.470e-02		-50.518		6.497e-03		11.255
2		0.00		-3.60		2.123e-02		-49.830		6.227e-03		16.260
2		0.00		-4.00		1.743e-02		-51.537		5.346e-03		15.454
2		0.00		-4.40		1.347e-02		-50.823		4.065e-03		11.726
2		0.00		-4.80		9.698e-03		-46.154		2.890e-03		12.409
2		0.00		-5.20		6.042e-03		-55.152		1.957e-03		15.863
2		0.00		-5.60		3.354e-03		-36.142		1.414e-03		36.766
2		0.00		-6.00		2.635e-03		43.294		1.233e-03		73.863
2		0.00		-6.40		5.838e-03		110.360		2.241e-03		27.730
2		0.00		-6.80		8.866e-03		124.224		2.621e-03		14.618
2		0.00		-7.20		1.214e-02		124.359		3.342e-03		11.872
2		0.00		-7.60		1.427e-02		123.217		3.775e-03		15.105
2		0.00		-8.00		1.538e-02		125.940		4.107e-03		18.248
2		0.00		-8.40		1.775e-02		123.429		4.946e-03		17.843
2		0.00		-8.80		1.895e-02		125.588		5.178e-03		14.425
2		0.00		-9.20		1.966e-02		125.712		5.448e-03		9.253
2		0.00		-9.60		2.202e-02		126.526		5.469e-03		8.651
2		0.00		-10.00		2.266e-02		126.992		5.182e-03		7.576
2		0.00		-9.60		2.315e-02		125.979		5.230e-03		9.028
2		0.00		-9.20		2.215e-02		126.067		5.030e-03		9.478
2		0.00		-8.80		2.220e-02		126.223		5.102e-03		9.672
2		0.00		-8.40		2.176e-02		126.708		5.059e-03		8.993
2		0.00		-8.00		2.124e-02		126.259		5.365e-03		12.318
2		0.00		-7.60		2.081e-02		126.797		5.522e-03		11.425
2		0.00		-7.20		2.054e-02		124.373		5.559e-03		18.012
2		0.00		-6.80		1.955e-02		123.723		5.696e-03		19.514
2		0.00		-6.40		1.923e-02		123.346		5.786e-03		21.446
2		0.00		-6.00		1.858e-02		124.849		5.522e-03		13.815
2		0.00		-5.60		1.834e-02		129.145		4.852e-03		8.973
2		0.00		-5.20		1.797e-02		127.393		4.572e-03		7.936
2		0.00		-4.80		1.773e-02		126.129		3.883e-03		8.627
2		0.00		-4.40		1.727e-02		124.012		3.890e-03		8.907
2		0.00		-4.00		1.654e-02		126.625		3.775e-03		8.880
2		0.00		-3.60		1.615e-02		125.959		3.721e-03		9.632
2		0.00		-3.20		1.519e-02		127.403		3.758e-03		11.342
2		0.00		-2.80		1.436e-02		128.589		3.742e-03		13.764
2		0.00		-2.40		1.391e-02		124.799		3.754e-03		20.768
2		0.00		-2.00		1.379e-02		127.067		3.841e-03		21.288
2		0.00		-1.60		1.341e-02		124.450		3.838e-03		14.504
2		0.00		-1.20		1.277e-02		127.938		3.532e-03		10.525
2		0.00		-0.80		1.284e-02		124.982		3.493e-03		10.881
2		0.00		-0.40		1.216e-02		125.045		3.057e-03		10.364
3		0.00		0.00		1.192e-02		122.954		3.276e-03		10.903
3		0.00		0.40		1.137e-02		124.105		3.136e-03		11.395
3		0.00		0.80		1.052e-02		126.124		2.761e-03		13.278
3		0.00		1.20		1.060e-02		124.805		3.124e-03		16.495
3		0.00		1.60		9.603e-03		123.695		3.038e-03		21.370
3		0.00		2.00		9.097e-03		123.296		3.082e-03		24.373
3		0.00		2.40		8.446e-03		123.244		2.716e-03		28.573
3		0.00		2.80		8.037e-03		128.152		2.374e-03		16.599
3		0.00		3.20		7.227e-03		126.709		2.107e-03		14.733
3		0.00		3.60		6.252e-03		122.947		1.677e-03		16.008
3		0.00		4.00		5.342e-03		127.352		1.585e-03		19.451
3		0.00		4.40		4.157e-03		114.786		1.369e-03		34.659
3		0.00		4.80		2.974e-03		89.958		1.175e-03		72.440
3		0.00		5.20		2.159e-03		61.280		9.943e-04		72.166
3		0.00		5.60		1.896e-03		-26.703		7.210e-04		71.146
3		0.00		6.00		2.881e-03		-53.148		1.072e-03		40.537
3		0.00		6.40		5.008e-03		-45.677		1.692e-03		23.409
3		0.00		6.80		7.630e-03		-48.842		2.361e-03		18.680
3		0.00		7.20		9.498e-03		-53.810		2.857e-03		14.710
3		0.00		7.60		1.252e-02		-50.917		3.173e-03		10.448
3		0.00		8.00		1.628e-02		-52.359		3.652e-03		11.749
3		0.00		8.40		2.038e-02		-52.396		4.531e-03		9.904
3		0.00		8.80		2.390e-02		-52.242		4.988e-03		9.949
3		0.00		9.20		2.778e-02		-50.348		6.352e-03		10.354
3		0.00		9.60		3.167e-02		-50.444		8.031e-03		9.502
3		0.00		10.00		3.496e-02		-51.184		9.552e-03		12.976
3		0.00		9.60		3.629e-02		-51.662		1.057e-02		15.113
3		0.00		9.20		3.779e-02		-51.662		1.092e-02		12.100
3		0.00		8.80		3.916e-02		-51.297		1.037e-02		7.146
3		0.00		8.40		3.977e-02		-51.412		9.558e-03		6.112
3		0.00		8.00		3.950e-02		-51.708		8.651e-03		6.801
3		0.00		7.60		4.004e-02		-51.549		7.840e-03		6.674
3		0.00		7.20		3.913e-02		-50.360		7.549e-03		8.016
3		0.00		6.80		3.852e-02		-50.528		7.528e-03		8.362
3		0.00		6.40		3.821e-02		-50.753		7.827e-03		9.830
3		0.00		6.00		3.766e-02		-49.412		8.389e-03		9.412
3		0.00		5.60		3.665e-02		-49.757		8.524e-03		11.935
3		0.00		5.20		3.632e-02		-50.161		8.838e-03		13.821
3		0.00		4.80		3.534e-02		-51.316		9.541e-03		10.689
3		0.00		4.40		3.539e-02		-50.179		9.729e-03		8.477
3		0.00		4.00		3.485e-02		-51.157		9.435e-03		7.624
3		0.00		3.60		3.466e-02		-50.565		8.456e-03		6.802
3		0.00		3.20		3.480e-02		-50.745		7.763e-03		6.244
3		0.00		2.80		3.437e-02		-50.138		7.608e-03		8.049
3		0.00		2.40		3.427e-02		-50.990		7.224e-03		8.578
3		0.00		2.00		3.410e-02		-50.524		7.247e-03		8.626
3		0.00		1.60		3.403e-02		-51.531		7.683e-03		8.988
3		0.00		1.20		3.327e-02		-50.854		8.066e-03		11.075
3		0.00		0.80		3.230e-02		-49.930		8.182e-03		13.416
3		0.00		0.40		3.294e-02		-49.803		8.174e-03		14.079
3		0.00		0.00		3.268e-02		-48.371		8.110e-03		11.973
3		0.00		-0.40		3.248e-02		-50.216		8.216e-03		14.492
3		0.00		-0.80		3.237e-02		-50.147		8.318e-03		9.680
3		0.00		-1.20		3.202e-02		-50.629		7.892e-03		8.146
3		0.00		-1.60		3.193e-02		-50.119		7.220e-03		7.815
3		0.00		-2.00		3.104e-02		-49.968		6.657e-03		7.169
3		0.00		-2.40		2.973e-02		-50.797		5.455e-03		7.172
3		0.00		-2.80		2.776e-02		-48.407		5.256e-03		9.249
3		0.00		-3.20		2.555e-02		-49.523		4.949e-03		8.730
3		0.00		-3.60		2.258e-02		-48.019		4.450e-03		10.219
3		0.00		-4.00		1.888e-02		-49.348		4.050e-03		10.627
3		0.00		-4.40		1.513e-02		-50.391		3.939e-03		13.055
3		0.00		-4.80		1.103e-02		-47.261		2.969e-03		12.771
3		0.00		-5.20		7.212e-03		-41.559		2.347e-03		16.751
3		0.00		-5.60		3.381e-03		-42.281		1.656e-03		32.043
3		0.00		-6.00		2.184e-03		11.861		8.696e-04		76.241
3		0.00		-6.40		4.198e-03		105.002		1.772e-03		44.586
3		0.00		-6.80		7.371e-03		120.821		2.577e-03		13.271
3		0.00		-7.20		1.053e-02		121.235		2.916e-03		9.816
3		0.00		-7.60		1.389e-02		125.470		3.291e-03		9.578
3		0.00		-8.00		1.598e-02		126.186		3.288e-03		10.089
3		0.00		-8.40		1.702e-02		125.774		3.855e-03		8.519
3		0.00		-8.80		1.773e-02		126.212		4.067e-03		10.372
3		0.00		-9.20		1.978e-02		127.253		4.722e-03		11.664
3		0.00		-9.60		2.066e-02		126.839		4.892e-03		13.854
3		0.00		-10.00		2.102e-02		124.509		5.397e-03		17.736
3		0.00		-9.60		2.133e-02		122.964		5.682e-03		15.485
3		0.00		-9.20		2.153e-02		127.399		5.717e-03		12.019
3		0.00		-8.80		2.178e-02		127.494		5.169e-03		9.064
3		0.00		-8.40		2.149e-02		128.415		4.930e-03		7.641
3		0.00		-8.00		2.126e-02		126.450		4.802e-03		9.231
3		0.00		-7.60		2.052e-02		125.400		4.546e-03		9.775
3		0.00		-7.20		1.959e-02		127.158		4.704e-03		8.786
3		0.00		-6.80		1.861e-02		126.538		4.585e-03		9.329
3		0.00		-6.40		1.760e-02		125.745		4.970e-03		14.673
3		0.00		-6.00		1.723e-02		123.332		5.204e-03		18.391
3		0.00		-5.60		1.663e-02		124.512		5.106e-03		18.867
3		0.00		-5.20		1.585e-02		125.936		4.938e-03		9.307
3		0.00		-4.80		1.625e-02		126.778		4.448e-03		7.631
3		0.00		-4.40		1.594e-02		126.027		3.837e-03		9.173
3		0.00		-4.00		1.522e-02		129.057		3.266e-03		8.687
3		0.00		-3.60		1.510e-02		129.800		3.134e-03		9.665
3		0.00		-3.20		1.399e-02		130.031		3.254e-03		11.138
3		0.00		-2.80		1.359e-02		126.751		3.443e-03		15.504
3		0.00		-2.40		1.326e-02		127.521		3.711e-03		19.369
3		0.00		-2.00		1.312e-02		123.517		3.576e-03		18.000
3		0.00		-1.60		1.281e-02		126.492		3.328e-03		11.979
3		0.00		-1.20		1.286e-02		126.693		3.426e-03		10.069
3		0.00		-0.80		1.233e-02		127.907		2.932e-03		11.375
3		0.00		-0.40		1.204e-02		128.171		2.808e-03		8.984
4		0.00		0.00		1.187e-02		127.711		2.629e-03		10.499
4		0.00		0.40		1.151e-02		126.827		2.765e-03		10.307
4		0.00		0.80		1.091e-02		127.887		2.892e-03		11.769
4		0.00		1.20		1.029e-02		124.280		2.752e-03		18.311
4		0.00		1.60		1.006e-02		125.229		2.884e-03		23.627
4		0.00		2.00		9.499e-03		120.402		2.774e-03		22.894
4		0.00		2.40		8.763e-03		126.458		2.595e-03		17.128
4		0.00		2.80		8.081e-03		125.411		2.257e-03		15.878
4		0.00		3.20		7.274e-03		123.532		1.872e-03		12.780
4		0.00		3.60		6.759e-03		130.661		1.596e-03		11.497
4		0.00		4.00		5.412e-03		128.947		1.605e-03		18.910
4		0.00		4.40		4.465e-03		122.470		1.477e-03		33.287
4		0.00		4.80		3.243e-03		109.625		1.158e-03		37.652
4		0.00		5.20		2.194e-03		51.632		9.653e-04		83.841
4		0.00		5.60		1.773e-03		6.554		6.673e-04		73.383
4		0.00		6.00		2.330e-03		-49.531		8.711e-04		56.837
4		0.00		6.40		3.879e-03		-43.894		1.377e-03		25.465
4		0.00		6.80		6.448e-03		-49.583		1.818e-03		18.027
4		0.00		7.20		8.802e-03		-51.895		1.959e-03		13.822
4		0.00		7.60		1.111e-02		-50.274		2.254e-03		13.642
4		0.00		8.00		1.347e-02		-48.663		2.817e-03		12.470
4		0.00		8.40		1.637e-02		-52.660		3.710e-03		10.872
4		0.00		8.80		1.972e-02		-51.461		4.945e-03		10.887
4		0.00		9.20		2.363e-02		-51.733		6.225e-03		12.363
4		0.00		9.60		2.701e-02		-52.655		7.829e-03		13.608
4		0.00		10.00		3.127e-02		-52.657		9.434e-03		14.648
4		0.00		9.60		3.375e-02		-50.285		1.020e-02		7.246
4		0.00		9.20		3.426e-02		-50.984		9.713e-03		7.760
4		0.00		8.80		3.575e-02		-50.791		9.121e-03		6.399
4		0.00		8.40		3.564e-02		-50.781		7.860e-03		7.921
4		0.00		8.00		3.523e-02		-52.112		7.777e-03		9.401
4		0.00		7.60		3.495e-02		-49.546		7.388e-03		9.501
4		0.00		7.20		3.460e-02		-48.595		7.722e-03		9.244
4		0.00		6.80		3.411e-02		-50.145		7.959e-03		10.621
4		0.00		6.40		3.301e-02		-51.482		8.564e-03		13.264
4		0.00		6.00		3.311e-02		-49.288		8.654e-03		12.186
4		0.00		5.60		3.299e-02		-50.307		8.607e-03		9.209
4		0.00		5.20		3.265e-02		-49.532		8.428e-03		7.828
4		0.00		4.80		3.236e-02		-49.471		7.347e-03		7.019
4		0.00		4.40		3.300e-02		-50.002		6.702e-03		8.156
4		0.00		4.00		3.250e-02		-49.721		6.519e-03		8.777
4		0.00		3.60		3.174e-02		-48.926		7.084e-03		9.159
4		0.00		3.20		3.046e-02		-49.320		7.877e-03		11.266
4		0.00		2.80		3.071e-02		-47.952		8.023e-03		11.730
4		0.00		2.40		3.065e-02		-50.737		8.455e-03		15.115
4		0.00		2.00		3.063e-02		-50.590		8.470e-03		9.777
4		0.00		1.60		3.109e-02		-50.631		7.872e-03		7.756
4		0.00		1.20		3.119e-02		-50.694		6.970e-03		7.627
4		0.00		0.80		3.104e-02		-50.342		6.552e-03		8.864
4		0.00		0.40		3.078e-02		-49.590		6.707e-03		8.710
4		0.00		0.00		3.068e-02		-49.241		7.014e-03		9.598
4		0.00		-0.40		2.999e-02		-49.225		7.627e-03		12.585
4		0.00		-0.80		2.953e-02		-50.896		7.885e-03		15.506
4		0.00		-1.20		2.962e-02		-50.333		7.897e-03		9.567
4		0.00		-1.60		2.993e-02		-50.243		6.798e-03		7.066
4		0.00		-2.00		2.901e-02		-48.301		5.732e-03		8.066
4		0.00		-2.40		2.812e-02		-50.140		5.583e-03		8.682
4		0.00		-2.80		2.593e-02		-49.859		5.396e-03		9.665
4		0.00		-3.20		2.423e-02		-49.099		5.863e-03		9.936
4		0.00		-3.60		2.245e-02		-48.987		5.762e-03		14.351
4		0.00		-4.00		1.998e-02		-50.455		5.548e-03		11.047
4		0.00		-4.40		1.680e-02		-50.713		4.269e-03		8.404
4		0.00		-4.80		1.259e-02		-50.768		2.937e-03		11.909
4		0.00		-5.20		8.842e-03		-44.094		1.819e-03		12.084
4		0.00		-5.60		4.278e-03		-37.722		1.360e-03		21.086
4		0.00		-6.00		2.113e-03		44.189		8.538e-04		64.516
4		0.00		-6.40		3.875e-03		103.338		1.552e-03		37.508
4		0.00		-6.80		6.807e-03		115.302		2.440e-03		26.899
4		0.00		-7.20		9.339e-03		124.186		2.920e-03		11.706
4		0.00		-7.60		1.204e-02		122.074		3.172e-03		10.737
4		0.00		-8.00		1.435e-02		125.290		3.564e-03		9.649
4		0.00		-8.40		1.664e-02		124.850		3.875e-03		10.122
4		0.00		-8.80		1.675e-02		123.758		4.007e-03		11.738
4		0.00		-9.20		1.847e-02		124.495		4.624e-03		16.354
4		0.00		-9.60		1.975e-02		124.467		5.430e-03		16.851
4		0.00		-10.00		2.099e-02		127.357		5.194e-03		8.878
4		0.00		-9.60		2.171e-02		127.667		4.671e-03		8.090
4		0.00		-9.20		2.143e-02		126.747		4.263e-03		7.806
4		0.00		-8.80		2.168e-02		127.902		4.296e-03		8.230
4		0.00		-8.40		2.058e-02		128.589		4.381e-03		8.592
4		0.00		-8.00		2.014e-02		128.303		4.800e-03		12.589
4		0.00		-7.60		1.984e-02		124.548		5.161e-03		18.171
4		0.00		-7.20		1.927e-02		123.191		5.200e-03		12.411
4		0.00		-6.80		1.866e-02		126.344		4.829e-03		9.057
4		0.00		-6.40		1.853e-02		126.729		4.329e-03		9.330
4		0.00		-6.00		1.788e-02		124.674		3.910e-03		7.894
4		0.00		-5.60		1.746e-02		125.117		3.965e-03		8.934
4		0.00		-5.20		1.683e-02		126.438		4.216e-03		12.056
4		0.00		-4.80		1.574e-02		124.558		4.185e-03		17.570
4		0.00		-4.40		1.512e-02		126.038		4.330e-03		21.449
4		0.00		-4.00		1.515e-02		124.915		4.141e-03		9.483
4		0.00		-3.60		1.495e-02		128.829		3.535e-03		8.435
4		0.00		-3.20		1.479e-02		124.711		3.208e-03		9.235
4		0.00		-2.80		1.453e-02		125.572		3.092e-03		10.349
4		0.00		-2.40		1.407e-02		126.164		2.845e-03		10.093
4		0.00		-2.00		1.376e-02		126.504		3.300e-03		14.196
4		0.00		-1.60		1.336e-02		124.670		3.416e-03		18.212
4		0.00		-1.20		1.294e-02		127.273		3.279e-03		14.406
4		0.00		-0.80		1.257e-02		127.095		3.122e-03		11.005
4		0.00		-0.40		1.230e-02		126.423		2.599e-03		9.591
5		0.00		0.00		1.220e-02		126.624		2.611e-03		8.622
5		0.00		0.40		1.184e-02		127.741		2.448e-03		9.899
5		0.00		0.80		1.145e-02		124.756		2.357e-03		9.977
5		0.00		1.20		1.066e-02		124.718		2.574e-03		13.169
5		0.00		1.60		1.010e-02		125.715		3.019e-03		18.067
5		0.00		2.00		9.423e-03		121.154		2.778e-03		23.063
5		0.00		2.40		8.730e-03		123.821		2.785e-03		15.619
5		0.00		2.80		8.162e-03		129.287		2.528e-03		11.960
5		0.00		3.20		7.167e-03		129.234		2.124e-03		15.919
5		0.00		3.60		6.329e-03		130.149		1.761e-03		16.494
5		0.00		4.00		5.316e-03		123.273		1.610e-03		16.817
5		0.00		4.40		4.164e-03		120.717		1.389e-03		21.811
5		0.00		4.80		3.177e-03		93.380		1.113e-03		52.303
5		0.00		5.20		2.186e-03		59.440		8.761e-04		78.590
5		0.00		5.60		1.767e-03		26.780		7.338e-04		76.726
5		0.00		6.00		2.189e-03		-37.807		8.418e-04		54.197
5		0.00		6.40		3.806e-03		-60.656		1.404e-03		29.286
5		0.00		6.80		6.132e-03		-53.157		1.558e-03		16.846
5		0.00		7.20		8.207e-03		-50.864		1.823e-03		13.848
5		0.00		7.60		1.088e-02		-51.618		2.369e-03		13.361
5		0.00		8.00		1.275e-02		-47.582		2.749e-03		13.660
5		0.00		8.40		1.537e-02		-47.654		3.711e-03		14.152
5		0.00		8.80		1.859e-02		-52.209		4.874e-03		15.770
5		0.00		9.20		2.221e-02		-50.352		5.725e-03		11.025
5		0.00		9.60		2.590e-02		-50.855		6.438e-03		8.648
5		0.00		10.00		2.973e-02		-48.380		6.345e-03		7.624
5		0.00		9.60		3.131e-02		-51.094		6.259e-03		8.589
5		0.00		9.20		3.282e-02		-49.680		6.812e-03		8.595
5		0.00		8.80		3.300e-02		-49.942		6.976e-03		8.211
5		0.00		8.40		3.306e-02		-47.819		7.915e-03		9.098
5		0.00		8.00		3.265e-02		-49.599		8.846e-03		11.818
5		0.00		7.60		3.256e-02		-51.009		9.099e-03		12.911
5		0.00		7.20		3.248e-02		-49.786		9.134e-03		9.060
5		0.00		6.80		3.251e-02		-49.276		7.983e-03		6.839
5		0.00		6.40		3.322e-02		-50.044		6.831e-03		6.036
5		0.00		6.00		3.277e-02		-51.355		6.077e-03		7.260
5		0.00		5.60		3.235e-02		-50.177		6.477e-03		8.702
5		0.00		5.20		3.243e-02		-48.927		6.619e-03		8.208
5		0.00		4.80		3.151e-02		-49.759		7.018e-03		8.925
5		0.00		4.40		3.014e-02		-49.435		7.214e-03		13.098
5		0.00		4.00		3.027e-02		-48.984		7.514e-03		12.146
5		0.00		3.60		2.959e-02		-49.492		7.663e-03		12.812
5		0.00		3.20		3.048e-02		-50.205		7.492e-03		6.917
5		0.00		2.80		3.075e-02		-49.557		7.002e-03		7.346
5		0.00		2.40		3.068e-02		-49.981		6.387e-03		7.196
5		0.00		2.00		3.049e-02		-51.062		6.216e-03		7.466
5		0.00		1.60		2.944e-02		-49.919		6.247e-03		7.707
5		0.00		1.20		3.003e-02		-50.674		6.592e-03		8.862
5		0.00		0.80		2.925e-02		-48.800		7.060e-03		9.857
5		0.00		0.40		2.917e-02		-49.537		7.325e-03		10.949
5		0.00		0.00		2.907e-02		-49.162		7.576e-03		13.274
5		0.00		-0.40		2.877e-02		-51.847		7.976e-03		15.106
5		0.00		-0.80		2.854e-02		-50.504		8.182e-03		13.394
5		0.00		-1.20		2.834e-02		-50.309		7.929e-03		8.885
5		0.00		-1.60		2.891e-02		-50.408		6.565e-03		7.060
5		0.00		-2.00		2.904e-02		-50.342		5.581e-03		7.348
5		0.00		-2.40		2.806e-02		-50.780		5.328e-03		6.938
5		0.00		-2.80		2.697e-02		-48.834		4.924e-03		7.719
5		0.00		-3.20		2.544e-02		-49.481		4.496e-03		8.434
5		0.00		-3.60		2.297e-02		-48.370		4.654e-03		8.970
5		0.00		-4.00		2.062e-02		-48.353		4.353e-03		9.877
5		0.00		-4.40		1.773e-02		-47.738		3.981e-03		12.242
5		0.00		-4.80		1.524e-02		-46.256		3.725e-03		14.394
5		0.00		-5.20		1.085e-02		-45.662		2.841e-03		15.641
5		0.00		-5.60		6.739e-03		-45.513		1.861e-03		15.887
5		0.00		-6.00		2.433e-03		-31.721		1.068e-03		40.902
5		0.00		-6.40		3.027e-03		88.804		1.365e-03		44.984
5		0.00		-6.80		6.799e-03		123.444		2.123e-03		14.633
5		0.00		-7.20		9.057e-03		124.591		2.294e-03		11.155
5		0.00		-7.60		1.191e-02		126.799		2.825e-03		10.745
5		0.00		-8.00		1.437e-02		124.721		3.185e-03		10.137
5		0.00		-8.40		1.626e-02		126.804		3.294e-03		8.593
5		0.00		-8.80		1.762e-02		127.703		4.030e-03		8.151
5		0.00		-9.20		1.908e-02		127.057		4.682e-03		12.315
5		0.00		-9.60		2.014e-02		125.363		5.197e-03		15.280
5		0.00		-10.00		2.160e-02		126.811		5.653e-03		16.137
5		0.00		-9.60		2.178e-02		127.772		5.823e-03		11.131
5		0.00		-9.20		2.108e-02		126.415		5.126e-03		9.190
5		0.00		-8.80		2.183e-02		127.038		5.014e-03		6.789
5		0.00		-8.40		2.122e-02		127.095		4.165e-03		7.730
5		0.00		-8.00		2.028e-02		127.232		3.705e-03		9.007
5		0.00		-7.60		2.002e-02		126.667		4.003e-03		8.041
5		0.00		-7.20		1.953e-02		129.453		3.791e-03		8.273
5		0.00		-6.80		1.888e-02		127.523		4.058e-03		10.012
5		0.00		-6.40		1.852e-02		127.572		4.403e-03		15.678
5		0.00		-6.00		1.739e-02		123.540		4.847e-03		16.173
5		0.00		-5.60		1.644e-02		124.388		4.719e-03		14.271
5		0.00		-5.20		1.658e-02		126.842		4.808e-03		10.173
5		0.00		-4.80		1.605e-02		126.104		3.993e-03		7.371
5		0.00		-4.40		1.601e-02		125.813		3.781e-03		9.130
5		0.00		-4.00		1.547e-02		126.874		3.601e-03		8.315
5		0.00		-3.60		1.503e-02		127.033		3.314e-03		9.030
5		0.00		-3.20		1.477e-02		124.320		3.315e-03		10.023
5		0.00		-2.80		1.417e-02		125.310		3.666e-03		11.658
5		0.00		-2.40		1.317e-02		124.197		3.609e-03		18.215
5		0.00		-2.00		1.319e-02		125.628		3.381e-03		16.572
5		0.00		-1.60		1.292e-02		123.536		3.366e-03		11.176
5		0.00		-1.20		1.280e-02		128.942		3.103e-03		9.748
5		0.00		-0.80		1.258e-02		128.809		2.757e-03		9.482
5		0.00		-0.40		1.227e-02		125.868		2.611e-03		9.576
6		0.00		0.00		1.191e-02		125.451		2.381e-03		10.059
6		0.00		0.40		1.161e-02		126.584		2.396e-03		9.879
6		0.00		0.80		1.096e-02		128.092		2.551e-03		14.131
6		0.00		1.20		1.061e-02		126.413		2.923e-03		19.362
6		0.00		1.60		9.682e-03		122.140		2.697e-03		20.472
6		0.00		2.00		9.507e-03		122.373		2.574e-03		17.277
6		0.00		2.40		9.021e-03		128.437		2.422e-03		14.879
6		0.00		2.80		8.174e-03		126.430		1.937e-03		13.699
6		0.00		3.20		7.366e-03		126.299		1.782e-03		12.217
6		0.00		3.60		6.720e-03		127.950		1.492e-03		12.830
6		0.00		4.00		5.987e-03		124.564		1.756e-03		15.521
6		0.00		4.40		4.726e-03		124.623		1.345e-03		21.293
6		0.00		4.80		3.678e-03		117.468		1.346e-03		36.190
6		0.00		5.20		2.904e-03		101.631		1.262e-03		43.409
6		0.00		5.60		1.953e-03		58.579		8.834e-04		66.458
6		0.00		6.00		1.832e-03		-39.724		7.945e-04		58.138
6		0.00		6.40		2.708e-03		-53.144		9.285e-04		40.746
6		0.00		6.80		4.366e-03		-47.462		1.327e-03		25.592
6		0.00		7.20		6.369e-03		-51.909		1.597e-03		18.887
6		0.00		7.60		9.166e-03		-48.894		2.001e-03		15.415
6		0.00		8.00		1.185e-02		-48.143		2.676e-03		12.714
6		0.00		8.40		1.401e-02		-48.706		3.339e-03		14.505
6		0.00		8.80		1.764e-02		-49.551		4.383e-03		12.376
6		0.00		9.20		2.114e-02		-49.199		5.501e-03		11.568
6		0.00		9.60		2.496e-02		-48.788		6.401e-03		8.280
6		0.00		10.00		2.841e-02		-51.463		6.491e-03		6.751
6		0.00		9.60		3.046e-02		-50.694		6.664e-03		7.368
6		0.00		9.20		3.150e-02		-50.189		6.500e-03		7.431
6		0.00		8.80		3.151e-02		-50.482		6.786e-03		8.389
6		0.00		8.40		3.128e-02		-49.217		7.243e-03		9.473
6		0.00		8.00		3.049e-02		-50.023		7.770e-03		10.158
6		0.00		7.60		3.071e-02		-49.657		8.269e-03		12.202
6		0.00		7.20		2.961e-02		-49.985		8.435e-03		14.204
6		0.00		6.80		2.953e-02		-50.671		8.682e-03		11.567
6		0.00		6.40		2.996e-02		-49.915		8.279e-03		8.302
6		0.00		6.00		3.024e-02		-49.884		7.132e-03		7.489
6		0.00		5.60		3.050e-02		-49.331		6.495e-03		7.513
6		0.00		5.20		3.044e-02		-49.609		5.556e-03		7.983
6		0.00		4.80		3.029e-02		-50.376		5.636e-03		8.458
6		0.00		4.40		3.028e-02		-49.337		5.825e-03		9.749
6		0.00		4.00		2.908e-02		-48.793		6.572e-03		10.975
6		0.00		3.60		2.900e-02		-49.372		7.073e-03		13.393
6		0.00		3.20		2.879e-02		-50.951		7.266e-03		14.762
6		0.00		2.80		2.871e-02		-50.705		7.219e-03		10.020
6		0.00		2.40		2.930e-02		-49.282		6.496e-03		6.998
6		0.00		2.00		2.962e-02		-48.072		5.456e-03		6.844
6		0.00		1.60		2.967e-02		-50.821		5.236e-03		8.350
6		0.00		1.20		2.902e-02		-50.752		5.784e-03		8.798
6		0.00		0.80		2.910e-02		-47.481		6.026e-03		7.493
6		0.00		0.40		2.854e-02		-48.552		6.548e-03		8.574
6		0.00		0.00		2.844e-02		-49.943		7.668e-03		13.299
6		0.00		-0.40		2.855e-02		-50.210		7.925e-03		12.433
6		0.00		-0.80		2.825e-02		-49.153		7.692e-03		7.187
6		0.00		-1.20		2.879e-02		-48.720		6.582e-03		6.592
6		0.00		-1.60		2.861e-02		-49.939		5.443e-03		6.667
6		0.00		-2.00		2.777e-02		-48.263		5.099e-03		7.392
6		0.00		-2.40		2.705e-02		-49.152		5.828e-03		8.358
6		0.00		-2.80		2.546e-02		-48.470		5.718e-03		8.888
6		0.00		-3.20		2.368e-02		-50.285		5.805e-03		13.537
6		0.00		-3.60		2.195e-02		-47.219		5.558e-03		9.136
6		0.00		-4.00		2.031e-02		-48.684		4.568e-03		8.310
6		0.00		-4.40		1.777e-02		-48.600		3.307e-03		9.401
6		0.00		-4.80		1.366e-02		-48.545		2.535e-03		10.352
6		0.00		-5.20		1.011e-02		-45.976		2.098e-03		10.623
6		0.00		-5.60		6.154e-03		-45.029		1.588e-03		14.879
6		0.00		-6.00		2.529e-03		-33.622		1.013e-03		51.265
6		0.00		-6.40		3.889e-03		111.432		1.635e-03		34.828
6		0.00		-6.80		8.013e-03		120.797		2.630e-03		15.834
6		0.00		-7.20		1.017e-02		125.250		2.702e-03		11.152
6		0.00		-7.60		1.204e-02		125.347		2.745e-03		10.066
6		0.00		-8.00		1.379e-02		126.381		3.290e-03		8.265
6		0.00		-8.40		1.524e-02		129.156		3.744e-03		10.489
6		0.00		-8.80		1.702e-02		124.959		4.778e-03		14.005
6		0.00		-9.20		1.845e-02		126.199		5.343e-03		18.253
6		0.00		-9.60		1.919e-02		124.786		5.623e-03		10.302
6		0.00		-10.00		2.047e-02		127.001		5.214e-03		9.467
6		0.00		-9.60		2.100e-02		127.118		4.463e-03		6.486
6		0.00		-9.20		2.132e-02		126.343		4.383e-03		7.899
6		0.00		-8.80		2.135e-02		127.266		4.156e-03		8.092
6		0.00		-8.40		2.099e-02		127.495		4.984e-03		12.224
6		0.00		-8.00		2.046e-02		126.253		5.162e-03		16.784
6		0.00		-7.60		1.962e-02		124.570		4.987e-03		13.786
6		0.00		-7.20		1.942e-02		125.979		4.501e-03		7.949
6		0.00		-6.80		1.919e-02		125.355		4.165e-03		8.480
6		0.00		-6.40		1.830e-02		129.521		3.456e-03		9.741
6		0.00		-6.00		1.801e-02		126.783		3.592e-03		9.633
6		0.00		-5.60		1.778e-02		126.672		3.601e-03		9.394
6		0.00		-5.20		1.718e-02		128.598		4.078e-03		12.723
6		0.00		-4.80		1.635e-02		126.422		3.987e-03		17.564
6		0.00		-4.40		1.596e-02		123.699		4.230e-03		14.204
6		0.00		-4.00		1.534e-02		127.956		3.682e-03		8.993
6		0.00		-3.60		1.478e-02		125.665		3.193e-03		9.699
6		0.00		-3.20		1.516e-02		125.507		2.995e-03		9.760
6		0.00		-2.80		1.438e-02		127.623		2.999e-03		7.725
6		0.00		-2.40		1.377e-02		127.206		2.860e-03		9.285
6		0.00		-2.00		1.314e-02		124.757		3.196e-03		13.062
6		0.00		-1.60		1.301e-02		127.896		3.523e-03		16.158
6		0.00		-1.20		1.254e-02		123.335		3.658e-03		14.640
6		0.00		-0.80		1.224e-02		126.938		3.148e-03		9.496
6		0.00		-0.40		1.230e-02		129.553		2.531e-03		8.112
7		0.00		0.00		1.223e-02		125.413		2.318e-03		10.510
7		0.00		0.40		1.187e-02		128.545		2.418e-03		9.140
7		0.00		0.80		1.118e-02		129.205		2.356e-03		10.253
7		0.00		1.20		1.064e-02		129.907		2.539e-03		14.059
7		0.00		1.60		1.032e-02		124.414		2.560e-03		18.762
7		0.00		2.00		9.616e-03		125.458		2.698e-03		17.754
7		0.00		2.40		8.709e-03		125.970		2.231e-03		11.832
7		0.00		2.80		8.303e-03		126.073		1.948e-03		11.006
7		0.00		3.20		7.664e-03		124.952		1.984e-03		12.387
7		0.00		3.60		6.563e-03		125.882		1.674e-03		16.041
7		0.00		4.00		5.690e-03		127.086		1.710e-03		18.423
7		0.00		4.40		4.517e-03		118.099		1.459e-03		29.006
7		0.00		4.80		3.154e-03		101.638		1.254e-03		49.795
7		0.00		5.20		2.688e-03		92.989		1.100e-03		54.453
7		0.00		5.60		1.675e-03		12.724		8.191e-04		85.446
7		0.00		6.00		1.910e-03		-33.492		8.264e-04		62.735
7		0.00		6.40		3.292e-03		-61.115		1.165e-03		28.428
7		0.00		6.80		4.626e-03		-55.604		1.412e-03		21.239
7		0.00		7.20		7.463e-03		-50.305		2.154e-03		16.314
7		0.00		7.60		8.798e-03		-49.041		2.197e-03		13.570
7		0.00		8.00		1.185e-02		-45.218		2.764e-03		13.192
7		0.00		8.40		1.497e-02		-50.853		3.937e-03		14.145
7		0.00		8.80		1.855e-02		-52.046		4.984e-03		11.687
7		0.00		9.20		2.176e-02		-50.156		5.421e-03		7.967
7		0.00		9.60		2.561e-02		-49.375		5.275e-03		7.412
7		0.00		10.00		2.910e-02		-49.819		5.397e-03		9.073
7		0.00		9.60		3.010e-02		-50.283		5.868e-03		8.662
7		0.00		9.20		3.086e-02		-49.573		6.331e-03		9.890
7		0.00		8.80		3.064e-02		-48.865		6.971e-03		9.666
7		0.00		8.40		3.096e-02		-50.602		7.449e-03		12.134
7		0.00		8.00		3.085e-02		-52.090		8.068e-03		12.371
7		0.00		7.60		3.100e-02		-50.162		8.860e-03		8.505
7		0.00		7.20		3.113e-02		-49.491		7.727e-03		7.172
7		0.00		6.80		3.146e-02		-50.886		6.758e-03		6.697
7		0.00		6.40		3.119e-02		-49.958		5.943e-03		7.609
7		0.00		6.00		3.115e-02		-50.180		5.644e-03		7.485
7		0.00		5.60		3.098e-02		-48.469		6.231e-03		7.723
7		0.00		5.20		3.010e-02		-48.779		7.054e-03		9.034
7		0.00		4.80		2.963e-02		-49.493		7.498e-03		12.762
7		0.00		4.40		2.912e-02		-51.228		7.875e-03		11.465
7		0.00		4.00		2.969e-02		-49.740		7.279e-03		8.097
7		0.00		3.60		3.007e-02		-48.629		6.194e-03		6.868
7		0.00		3.20		3.037e-02		-50.018		5.323e-03		6.968
7		0.00		2.80		3.108e-02		-50.105		5.335e-03		6.631
7		0.00		2.40		3.063e-02		-49.622		5.226e-03		7.613
7		0.00		2.00		3.006e-02		-51.135		5.552e-03		8.156
7		0.00		1.60		2.948e-02		-48.408		5.986e-03		9.478
7		0.00		1.20		2.927e-02		-48.458		6.989e-03		13.251
7		0.00		0.80		2.918e-02		-49.953		7.040e-03		8.763
7		0.00		0.40		2.966e-02		-49.220		6.738e-03		7.455
7		0.00		0.00		3.018e-02		-50.121		5.879e-03		7.217
7		0.00		-0.40		2.979e-02		-49.570		5.400e-03		7.184
7		0.00		-0.80		2.948e-02		-50.324		5.587e-03		7.191
7		0.00		-1.20		2.846e-02		-49.144		6.174e-03		9.691
7		0.00		-1.60		2.776e-02		-50.072		6.783e-03		9.980
7		0.00		-2.00		2.708e-02		-50.155		7.373e-03		10.125
7		0.00		-2.40		2.620e-02		-49.797		7.377e-03		13.693
7		0.00		-2.80		2.572e-02		-49.508		7.089e-03		9.495
7		0.00		-3.20		2.450e-02		-50.418		5.939e-03		6.988
7		0.00		-3.60		2.206e-02		-48.611		4.781e-03		7.077
7		0.00		-4.00		1.956e-02		-49.618		3.807e-03		8.876
7		0.00		-4.40		1.658e-02		-48.579		3.085e-03		9.136
7		0.00		-4.80		1.241e-02		-47.698		2.360e-03		11.405
7		0.00		-5.20		8.672e-03		-46.295		2.030e-03		12.337
7		0.00		-5.60		4.888e-03		-43.026		1.489e-03		20.293
7		0.00		-6.00		1.964e-03		12.504		8.023e-04		71.611
7		0.00		-6.40		4.124e-03		108.950		1.489e-03		42.778
7		0.00		-6.80		7.413e-03		119.872		2.123e-03		15.061
7		0.00		-7.20		1.090e-02		128.377		2.926e-03		10.889
7		0.00		-7.60		1.370e-02		124.407		3.253e-03		11.019
7		0.00		-8.00		1.567e-02		125.091		3.299e-03		9.293
7		0.00		-8.40		1.650e-02		126.863		3.394e-03		8.164
7		0.00		-8.80		1.862e-02		126.350		3.843e-03		9.206
7		0.00		-9.20		1.853e-02		125.061		4.513e-03		11.712
7		0.00		-9.60		1.917e-02		125.015		5.264e-03		16.828
7		0.00		-10.00		2.084e-02		124.768		5.669e-03		17.886
7		0.00		-9.60		2.128e-02		127.310		5.421e-03		8.595
7		0.00		-9.20		2.118e-02		126.686		4.848e-03		6.984
7		0.00		-8.80		2.121e-02		125.912		4.277e-03		6.663
7		0.00		-8.40		2.135e-02		127.470		3.908e-03		6.853
7		0.00		-8.00		2.059e-02		126.595		3.888e-03		8.096
7		0.00		-7.60		2.075e-02		127.580		3.813e-03		8.001
7		0.00		-7.20		1.933e-02		128.550		4.040e-03		9.376
7		0.00		-6.80		1.859e-02		127.664		4.125e-03		12.446
7		0.00		-6.40		1.839e-02		126.162		4.141e-03		15.788
7		0.00		-6.00		1.756e-02		126.058		4.331e-03		14.608
7		0.00		-5.60		1.712e-02		125.706		4.015e-03		8.681
7		0.00		-5.20		1.690e-02		127.479		3.498e-03		8.483
7		0.00		-4.80		1.597e-02		126.518		2.919e-03		8.474
7		0.00		-4.40		1.616e-02		126.133		2.848e-03		7.800
7		0.00		-4.00		1.541e-02		127.970		2.976e-03		8.772
7		0.00		-3.60		1.483e-02		125.994		3.258e-03		10.658
7		0.00		-3.20		1.414e-02		125.445		3.380e-03		15.408
7		0.00		-2.80		1.347e-02		121.378		3.922e-03		18.315
7		0.00		-2.40		1.307e-02		126.909		3.808e-03		12.231
7		0.00		-2.00		1.283e-02		126.815		3.386e-03		8.869
7		0.00		-1.60		1.259e-02		126.572		3.009e-03		8.523
7		0.00		-1.20		1.221e-02		125.046		2.855e-03		10.009
7		0.00		-0.80		1.213e-02		126.134		2.561e-03		9.004
7		0.00		-0.40		1.188e-02		126.941		2.777e-03		11.620
8		0.00		0.00		1.104e-02		126.296		2.890e-03		16.652
8		0.00		0.40		1.089e-02		122.018		2.816e-03		21.070
8		0.00		0.80		1.086e-02		122.826		2.831e-03		14.663
8		0.00		1.20		1.056e-02		122.727		2.670e-03		11.813
8		0.00		1.60		1.018e-02		125.754		2.218e-03		9.694
8		0.00		2.00		9.069e-03		127.502		2.109e-03		12.297
8		0.00		2.40		8.510e-03		125.448		1.794e-03		9.743
8		0.00		2.80		8.213e-03		130.084		2.083e-03		11.177
8		0.00		3.20		7.065e-03		125.529		1.927e-03		15.177
8		0.00		3.60		6.686e-03		118.061		1.866e-03		24.359
8		0.00		4.00		5.274e-03		118.950		1.583e-03		25.767
8		0.00		4.40		4.002e-03		120.202		1.369e-03		29.444
8		0.00		4.80		3.206e-03		107.842		1.350e-03		47.941
8		0.00		5.20		2.441e-03		68.563		1.069e-03		63.288
8		0.00		5.60		1.794e-03		30.602		6.384e-04		69.387
8		0.00		6.00		1.749e-03		-29.306		6.649e-04		70.233
8		0.00		6.40		2.833e-03		-39.570		1.153e-03		36.082
8		0.00		6.80		4.724e-03		-48.863		1.694e-03		29.125
8		0.00		7.20		6.413e-03		-45.410		1.977e-03		14.723
8		0.00		7.60		9.315e-03		-53.617		2.322e-03		14.172
8		0.00		8.00		1.189e-02		-50.437		2.648e-03		9.142
8		0.00		8.40		1.506e-02		-49.722		2.872e-03		9.976
8		0.00		8.80		1.737e-02		-48.138		3.533e-03		9.542
8		0.00		9.20		2.057e-02		-48.549		4.347e-03		10.129
8		0.00		9.60		2.305e-02		-51.051		5.346e-03		13.722
8		0.00		10.00		2.735e-02		-49.427		6.442e-03		12.441
8		0.00		9.60		2.914e-02		-50.624		7.158e-03		10.428
8		0.00		9.20		3.059e-02		-50.142		6.774e-03		7.026
8		0.00		8.80		3.185e-02		-50.515		6.065e-03		6.424
8		0.00		8.40		3.213e-02		-49.944		5.457e-03		6.958
8		0.00		8.00		3.128e-02		-49.724		5.683e-03		7.504
8		0.00		7.60		3.084e-02		-48.747		5.901e-03		8.435
8		0.00		7.20		3.037e-02		-49.380		7.192e-03		11.318
8		0.00		6.80		2.986e-02		-49.347		7.313e-03		9.693
8		0.00		6.40		3.000e-02		-49.051		8.018e-03		9.102
8		0.00		6.00		2.948e-02		-48.993		7.389e-03		7.225
8		0.00		5.60		2.957e-02		-50.501		6.556e-03		7.814
8		0.00		5.20		2.969e-02		-49.498		5.773e-03		6.949
8		0.00		4.80		2.967e-02		-50.267		5.918e-03		7.369
8		0.00		4.40		2.832e-02		-49.136		6.636e-03		8.927
8		0.00		4.00		2.838e-02		-48.682		6.803e-03		8.542
8		0.00		3.60		2.790e-02		-48.493		7.736e-03		12.899
8		0.00		3.20		2.817e-02		-49.519		7.413e-03		8.360
8		0.00		2.80		2.856e-02		-50.969		6.489e-03		7.267
8		0.00		2.40		2.959e-02		-49.706		5.151e-03		7.342
8		0.00		2.00		2.934e-02		-49.333		4.569e-03		7.724
8		0.00		1.60		2.950e-02		-49.615		4.754e-03		7.423
8		0.00		1.20		2.920e-02		-47.126		5.668e-03		7.617
8		0.00		0.80		2.929e-02		-48.410		5.832e-03		9.644
8		0.00		0.40		2.849e-02		-49.350		6.619e-03		11.402
8		0.00		0.00		2.875e-02		-50.613		6.595e-03		7.799
8		0.00		-0.40		2.924e-02		-49.808		5.925e-03		6.761
8		0.00		-0.80		2.941e-02		-48.916		4.815e-03		6.883
8		0.00		-1.20		2.964e-02		-48.641		4.519e-03		7.521
8		0.00		-1.60		2.906e-02		-48.726		4.850e-03		8.074
8		0.00		-2.00		2.839e-02		-47.365		5.468e-03		8.415
8		0.00		-2.40		2.729e-02		-48.469		5.783e-03		9.903
8		0.00		-2.80		2.610e-02		-47.944		6.148e-03		8.637
8		0.00		-3.20		2.485e-02		-49.724		6.244e-03		10.869
8		0.00		-3.60		2.318e-02		-49.385		5.627e-03		8.381
8		0.00		-4.00		1.973e-02		-47.070		3.789e-03		7.525
8		0.00		-4.40		1.747e-02		-48.371		3.267e-03		7.889
8		0.00		-4.80		1.386e-02		-48.166		2.215e-03		8.986
8		0.00		-5.20		1.096e-02		-46.883		1.852e-03		11.942
8		0.00		-5.60		6.762e-03		-39.747		1.419e-03		14.176
8		0.00		-6.00		3.189e-03		-50.236		1.293e-03		28.283
8		0.00		-6.40		2.347e-03		72.026		1.169e-03		58.109
8		0.00		-6.80		4.788e-03		109.750		1.841e-03		33.234
8		0.00		-7.20		8.871e-03		124.463		2.432e-03		12.967
8		0.00		-7.60		1.243e-02		125.906		3.156e-03		9.238
8		0.00		-8.00		1.389e-02		126.410		3.040e-03		8.365
8		0.00		-8.40		1.669e-02		126.081		3.144e-03		8.418
8		0.00		-8.80		1.824e-02		127.930		3.081e-03		7.415
8		0.00		-9.20		1.975e-02		127.122		3.822e-03		8.178
8		0.00		-9.60		2.144e-02		128.701		4.205e-03		6.812
8		0.00		-10.00		2.141e-02		127.270		5.011e-03		12.999
8		0.00		-9.60		2.119e-02		126.622		5.370e-03		15.450
8		0.00		-9.20		2.156e-02		125.351		5.960e-03		13.714
8		0.00		-8.80		2.093e-02		127.391		5.566e-03		10.003
8		0.00		-8.40		2.078e-02		129.028		5.066e-03		7.891
8		0.00		-8.00		2.124e-02		126.645		4.447e-03		6.662
8		0.00		-7.60		2.100e-02		127.991		4.078e-03		7.343
8		0.00		-7.20		2.069e-02		124.483		3.931e-03		7.504
8		0.00		-6.80		1.949e-02		127.575		4.059e-03		7.854
8		0.00		-6.40		1.902e-02		127.912		3.718e-03		8.234
8		0.00		-6.00		1.840e-02		128.201		3.605e-03		8.859
8		0.00		-5.60		1.800e-02		126.865		3.901e-03		11.937
8		0.00		-5.20		1.737e-02		126.936		3.835e-03		15.908
8		0.00		-4.80		1.676e-02		125.966		4.026e-03		15.661
8		0.00		-4.40		1.638e-02		125.357		3.745e-03		13.018
8		0.00		-4.00		1.595e-02		126.643		3.544e-03		9.059
8		0.00		-3.60		1.549e-02		126.748		3.192e-03		9.025
8		0.00		-3.20		1.507e-02		129.119		2.806e-03		8.037
8		0.00		-2.80		1.489e-02		126.536		2.728e-03		8.037
8		0.00		-2.40		1.439e-02		128.915		2.526e-03		8.514
8		0.00		-2.00		1.410e-02		128.681		2.686e-03		9.649
8		0.00		-1.60		1.356e-02		127.862		2.793e-03		11.038
8		0.00		-1.20		1.311e-02		125.950		3.080e-03		13.687
8		0.00		-0.80		1.269e-02		127.303		3.180e-03		16.516
8		0.00		-0.40		1.236e-02		123.219		3.380e-03		14.183
