# Date of analysis: 2024-03-08 10;59
# Segment other properties: height: -48.544574027288185, diff height: 224.90633685939125, deflection: 35.70852794812845, deflection error: 2.998858413803936, adhesion: 45.74234819311597, phase offset: 0
# 
# Loop index	Read Volt (V)	Write Volt (V)	Amplitude (a.u)	Phase (deg)	Sigma Amp (a.u)	Sigma Pha (deg)	
1		0.00		0.00		2.279e-02		-52.087		6.425e-03		14.061
1		0.00		0.40		2.237e-02		-51.892		6.707e-03		13.483
1		0.00		0.80		2.293e-02		-53.887		6.172e-03		8.915
1		0.00		1.20		2.294e-02		-53.384		5.318e-03		10.512
1		0.00		1.60		2.265e-02		-52.448		5.408e-03		9.907
1		0.00		2.00		2.221e-02		-52.047		5.967e-03		11.992
1		0.00		2.40		2.230e-02		-51.887		6.385e-03		15.947
1		0.00		2.80		2.282e-02		-49.482		6.190e-03		9.839
1		0.00		3.20		2.387e-02		-51.857		5.322e-03		8.262
1		0.00		3.60		2.364e-02		-52.042		5.126e-03		10.924
1		0.00		4.00		2.361e-02		-52.709		5.651e-03		11.015
1		0.00		4.40		2.403e-02		-50.861		5.782e-03		14.921
1		0.00		4.80		2.432e-02		-49.632		6.362e-03		10.196
1		0.00		5.20		2.507e-02		-54.088		6.107e-03		8.695
1		0.00		5.60		2.563e-02		-54.876		5.471e-03		9.321
1		0.00		6.00		2.589e-02		-50.689		5.633e-03		10.655
1		0.00		6.40		2.590e-02		-51.717		6.319e-03		13.818
1		0.00		6.80		2.668e-02		-51.127		6.866e-03		11.772
1		0.00		7.20		2.757e-02		-53.784		6.517e-03		9.049
1		0.00		7.60		2.839e-02		-51.863		6.150e-03		9.294
1		0.00		8.00		2.978e-02		-51.955		6.300e-03		9.169
1		0.00		8.40		2.961e-02		-52.667		7.011e-03		10.662
1		0.00		8.80		3.134e-02		-53.058		8.788e-03		15.015
1		0.00		9.20		3.336e-02		-51.623		9.413e-03		9.049
1		0.00		9.60		3.619e-02		-51.909		8.402e-03		7.251
1		0.00		10.00		3.848e-02		-54.298		8.710e-03		7.606
1		0.00		9.60		3.988e-02		-52.077		8.734e-03		8.020
1		0.00		9.20		3.953e-02		-52.715		1.041e-02		12.994
1		0.00		8.80		3.949e-02		-52.269		1.121e-02		11.229
1		0.00		8.40		4.043e-02		-52.412		1.088e-02		8.704
1		0.00		8.00		4.222e-02		-54.381		9.558e-03		7.024
1		0.00		7.60		4.020e-02		-52.037		8.748e-03		8.363
1		0.00		7.20		4.061e-02		-51.783		9.036e-03		9.528
1		0.00		6.80		3.868e-02		-52.519		9.905e-03		15.084
1		0.00		6.40		3.883e-02		-52.044		1.044e-02		10.769
1		0.00		6.00		3.888e-02		-54.035		9.205e-03		8.043
1		0.00		5.60		3.888e-02		-52.699		7.913e-03		7.324
1		0.00		5.20		3.753e-02		-52.280		8.169e-03		8.180
1		0.00		4.80		3.699e-02		-52.159		9.151e-03		10.425
1		0.00		4.40		3.645e-02		-50.974		9.666e-03		11.290
1		0.00		4.00		3.670e-02		-52.902		9.769e-03		9.257
1		0.00		3.60		3.815e-02		-52.619		8.763e-03		6.533
1		0.00		3.20		3.780e-02		-52.428		8.004e-03		8.117
1		0.00		2.80		3.676e-02		-53.387		8.633e-03		9.167
1		0.00		2.40		3.572e-02		-53.955		9.433e-03		12.491
1		0.00		2.00		3.509e-02		-54.741		1.058e-02		18.658
1		0.00		1.60		3.551e-02		-52.567		1.037e-02		8.789
1		0.00		1.20		3.588e-02		-52.152		9.166e-03		8.385
1		0.00		0.80		3.556e-02		-52.425		8.377e-03		8.299
1		0.00		0.40		3.501e-02		-53.660		8.355e-03		9.171
1		0.00		0.00		3.405e-02		-51.659		9.626e-03		11.710
1		0.00		-0.40		3.330e-02		-53.987		9.983e-03		15.286
1		0.00		-0.80		3.343e-02		-52.202		9.973e-03		8.869
1		0.00		-1.20		3.376e-02		-52.491		8.029e-03		7.256
1		0.00		-1.60		3.340e-02		-52.717		7.032e-03		7.684
1		0.00		-2.00		3.292e-02		-52.723		7.618e-03		9.369
1		0.00		-2.40		3.208e-02		-51.629		7.675e-03		10.579
1		0.00		-2.80		3.100e-02		-50.451		8.156e-03		13.775
1		0.00		-3.20		2.939e-02		-53.545		7.567e-03		8.966
1		0.00		-3.60		2.646e-02		-52.941		5.911e-03		8.845
1		0.00		-4.00		2.387e-02		-52.996		4.681e-03		10.014
1		0.00		-4.40		1.954e-02		-50.194		3.954e-03		10.733
1		0.00		-4.80		1.579e-02		-47.888		3.736e-03		13.236
1		0.00		-5.20		1.229e-02		-54.646		3.190e-03		13.979
1		0.00		-5.60		9.005e-03		-47.316		2.296e-03		13.110
1		0.00		-6.00		5.276e-03		-51.811		1.507e-03		18.853
1		0.00		-6.40		2.461e-03		-11.727		1.018e-03		48.112
1		0.00		-6.80		3.266e-03		80.387		1.423e-03		51.821
1		0.00		-7.20		5.754e-03		107.829		2.032e-03		35.594
1		0.00		-7.60		8.715e-03		116.188		3.226e-03		24.311
1		0.00		-8.00		1.088e-02		122.632		3.350e-03		11.418
1		0.00		-8.40		1.266e-02		124.292		3.729e-03		9.805
1		0.00		-8.80		1.436e-02		125.586		3.902e-03		11.926
1		0.00		-9.20		1.545e-02		122.657		4.325e-03		15.517
1		0.00		-9.60		1.601e-02		122.598		4.909e-03		17.029
1		0.00		-10.00		1.761e-02		125.566		5.010e-03		10.799
1		0.00		-9.60		1.803e-02		123.859		3.999e-03		7.740
1		0.00		-9.20		1.791e-02		120.893		4.308e-03		10.476
1		0.00		-8.80		1.686e-02		125.002		4.319e-03		11.436
1		0.00		-8.40		1.656e-02		125.780		4.689e-03		16.397
1		0.00		-8.00		1.687e-02		125.739		4.696e-03		10.143
1		0.00		-7.60		1.753e-02		124.937		3.965e-03		9.094
1		0.00		-7.20		1.664e-02		125.850		3.879e-03		10.643
1		0.00		-6.80		1.623e-02		126.835		3.998e-03		11.061
1		0.00		-6.40		1.520e-02		124.564		4.303e-03		18.685
1		0.00		-6.00		1.405e-02		123.439		4.100e-03		14.528
1		0.00		-5.60		1.419e-02		124.881		3.709e-03		9.209
1		0.00		-5.20		1.362e-02		124.087		3.408e-03		8.976
1		0.00		-4.80		1.251e-02		126.796		3.472e-03		11.911
1		0.00		-4.40		1.177e-02		124.446		3.536e-03		15.212
1		0.00		-4.00		1.111e-02		121.590		3.634e-03		21.762
1		0.00		-3.60		1.060e-02		122.958		3.146e-03		11.240
1		0.00		-3.20		1.040e-02		123.252		3.045e-03		11.756
1		0.00		-2.80		1.000e-02		123.171		2.850e-03		11.283
1		0.00		-2.40		9.369e-03		124.254		2.794e-03		20.609
1		0.00		-2.00		8.697e-03		121.820		2.818e-03		21.294
1		0.00		-1.60		8.788e-03		119.860		2.631e-03		22.857
1		0.00		-1.20		8.401e-03		125.754		2.506e-03		16.261
1		0.00		-0.80		8.155e-03		125.012		1.937e-03		15.511
1		0.00		-0.40		7.763e-03		124.554		1.987e-03		16.808
2		0.00		0.00		7.605e-03		122.194		1.930e-03		15.191
2		0.00		0.40		6.813e-03		126.064		2.218e-03		27.067
2		0.00		0.80		6.676e-03		116.804		2.030e-03		19.223
2		0.00		1.20		5.834e-03		123.453		1.950e-03		18.752
2		0.00		1.60		5.577e-03		122.093		1.915e-03		30.373
2		0.00		2.00		4.523e-03		120.870		1.697e-03		44.260
2		0.00		2.40		3.907e-03		110.194		1.531e-03		47.761
2		0.00		2.80		3.139e-03		79.666		1.112e-03		83.824
2		0.00		3.20		2.282e-03		64.797		1.005e-03		77.649
2		0.00		3.60		1.940e-03		4.541		7.858e-04		80.982
2		0.00		4.00		1.816e-03		-22.911		7.900e-04		67.281
2		0.00		4.40		2.392e-03		-63.908		8.366e-04		41.218
2		0.00		4.80		3.522e-03		-47.806		1.108e-03		26.673
2		0.00		5.20		4.623e-03		-54.876		1.337e-03		21.901
2		0.00		5.60		6.000e-03		-55.182		1.606e-03		20.237
2		0.00		6.00		7.433e-03		-58.141		2.024e-03		19.118
2		0.00		6.40		9.146e-03		-54.177		2.512e-03		14.260
2		0.00		6.80		1.095e-02		-51.233		2.659e-03		12.270
2		0.00		7.20		1.263e-02		-53.832		2.643e-03		10.999
2		0.00		7.60		1.473e-02		-51.449		3.088e-03		10.712
2		0.00		8.00		1.720e-02		-54.590		3.475e-03		10.340
2		0.00		8.40		1.836e-02		-55.443		4.383e-03		13.215
2		0.00		8.80		2.109e-02		-51.545		5.398e-03		12.826
2		0.00		9.20		2.319e-02		-53.912		6.115e-03		10.217
2		0.00		9.60		2.653e-02		-51.668		6.519e-03		9.172
2		0.00		10.00		3.086e-02		-53.748		6.277e-03		8.269
2		0.00		9.60		3.200e-02		-52.948		6.770e-03		8.599
2		0.00		9.20		3.273e-02		-51.437		6.944e-03		9.671
2		0.00		8.80		3.341e-02		-52.926		8.200e-03		11.161
2		0.00		8.40		3.230e-02		-52.828		9.318e-03		16.446
2		0.00		8.00		3.241e-02		-52.875		9.597e-03		10.391
2		0.00		7.60		3.263e-02		-53.291		8.754e-03		8.114
2		0.00		7.20		3.314e-02		-54.241		7.704e-03		7.701
2		0.00		6.80		3.253e-02		-52.793		7.842e-03		9.372
2		0.00		6.40		3.197e-02		-52.943		8.312e-03		9.904
2		0.00		6.00		3.104e-02		-53.029		8.583e-03		14.263
2		0.00		5.60		3.024e-02		-53.580		9.168e-03		17.846
2		0.00		5.20		3.029e-02		-53.270		8.837e-03		10.212
2		0.00		4.80		3.107e-02		-53.884		7.376e-03		7.783
2		0.00		4.40		3.092e-02		-53.846		6.592e-03		8.411
2		0.00		4.00		3.068e-02		-52.862		6.303e-03		9.084
2		0.00		3.60		3.045e-02		-51.203		6.810e-03		9.598
2		0.00		3.20		2.976e-02		-51.496		7.412e-03		11.129
2		0.00		2.80		2.888e-02		-53.445		7.730e-03		11.436
2		0.00		2.40		2.932e-02		-52.989		6.931e-03		8.411
2		0.00		2.00		2.968e-02		-51.935		6.155e-03		7.539
2		0.00		1.60		3.008e-02		-52.530		6.084e-03		9.110
2		0.00		1.20		2.922e-02		-51.999		6.699e-03		10.524
2		0.00		0.80		2.906e-02		-51.571		7.441e-03		13.581
2		0.00		0.40		2.905e-02		-51.959		7.712e-03		12.351
2		0.00		0.00		2.823e-02		-52.878		7.539e-03		9.329
2		0.00		-0.40		2.923e-02		-52.798		6.794e-03		8.704
2		0.00		-0.80		2.895e-02		-53.316		6.699e-03		9.029
2		0.00		-1.20		2.837e-02		-53.386		6.452e-03		10.126
2		0.00		-1.60		2.755e-02		-52.320		6.973e-03		12.226
2		0.00		-2.00		2.690e-02		-52.826		7.581e-03		15.373
2		0.00		-2.40		2.628e-02		-52.381		7.551e-03		9.923
2		0.00		-2.80		2.598e-02		-52.653		6.716e-03		8.724
2		0.00		-3.20		2.475e-02		-53.399		5.440e-03		7.879
2		0.00		-3.60		2.399e-02		-53.814		5.184e-03		9.117
2		0.00		-4.00		2.180e-02		-52.676		4.520e-03		10.254
2		0.00		-4.40		1.824e-02		-52.803		4.588e-03		14.552
2		0.00		-4.80		1.577e-02		-50.249		3.965e-03		13.906
2		0.00		-5.20		1.223e-02		-49.712		3.213e-03		11.970
2		0.00		-5.60		8.935e-03		-50.672		2.220e-03		10.807
2		0.00		-6.00		5.020e-03		-60.370		1.478e-03		20.498
2		0.00		-6.40		2.220e-03		-32.848		8.954e-04		49.433
2		0.00		-6.80		2.766e-03		76.758		1.325e-03		58.742
2		0.00		-7.20		6.308e-03		122.571		1.984e-03		23.970
2		0.00		-7.60		9.187e-03		120.744		2.666e-03		22.676
2		0.00		-8.00		1.062e-02		124.637		3.281e-03		13.609
2		0.00		-8.40		1.191e-02		121.917		3.307e-03		11.899
2		0.00		-8.80		1.440e-02		124.536		3.381e-03		9.561
2		0.00		-9.20		1.527e-02		125.861		3.649e-03		11.178
2		0.00		-9.60		1.684e-02		126.828		4.499e-03		10.999
2		0.00		-10.00		1.689e-02		124.570		5.180e-03		17.013
2		0.00		-9.60		1.697e-02		124.313		5.248e-03		21.584
2		0.00		-9.20		1.710e-02		123.270		5.075e-03		13.446
2		0.00		-8.80		1.773e-02		125.060		5.009e-03		8.659
2		0.00		-8.40		1.730e-02		124.073		4.466e-03		9.183
2		0.00		-8.00		1.746e-02		126.567		4.007e-03		9.068
2		0.00		-7.60		1.719e-02		125.249		4.097e-03		9.987
2		0.00		-7.20		1.704e-02		128.518		4.094e-03		12.635
2		0.00		-6.80		1.567e-02		126.368		4.184e-03		17.757
2		0.00		-6.40		1.516e-02		127.190		4.454e-03		17.956
2		0.00		-6.00		1.479e-02		125.359		4.012e-03		10.082
2		0.00		-5.60		1.403e-02		124.264		3.704e-03		11.608
2		0.00		-5.20		1.323e-02		124.370		3.278e-03		10.730
2		0.00		-4.80		1.236e-02		127.050		2.889e-03		11.463
2		0.00		-4.40		1.165e-02		127.915		2.994e-03		11.774
2		0.00		-4.00		1.145e-02		126.290		3.092e-03		14.423
2		0.00		-3.60		1.095e-02		127.419		3.344e-03		23.916
2		0.00		-3.20		1.035e-02		122.371		3.252e-03		15.076
2		0.00		-2.80		9.829e-03		127.311		2.930e-03		14.466
2		0.00		-2.40		9.647e-03		127.228		2.459e-03		12.593
2		0.00		-2.00		9.117e-03		122.582		2.357e-03		10.834
2		0.00		-1.60		8.839e-03		124.066		2.654e-03		13.974
2		0.00		-1.20		8.540e-03		121.710		2.648e-03		20.565
2		0.00		-0.80		8.004e-03		121.189		2.589e-03		21.804
2		0.00		-0.40		7.433e-03		122.550		2.625e-03		23.892
3		0.00		0.00		7.505e-03		128.947		2.256e-03		13.786
3		0.00		0.40		7.152e-03		122.309		2.089e-03		17.319
3		0.00		0.80		6.832e-03		125.816		2.009e-03		14.236
3		0.00		1.20		6.214e-03		123.548		1.899e-03		21.095
3		0.00		1.60		5.620e-03		118.360		1.850e-03		35.603
3		0.00		2.00		4.778e-03		117.902		1.735e-03		39.482
3		0.00		2.40		4.339e-03		116.881		1.561e-03		49.074
3		0.00		2.80		3.096e-03		103.211		1.186e-03		52.847
3		0.00		3.20		2.771e-03		100.083		1.125e-03		53.181
3		0.00		3.60		2.113e-03		47.555		7.842e-04		75.037
3		0.00		4.00		1.785e-03		-9.026		7.252e-04		83.776
3		0.00		4.40		2.118e-03		-48.135		9.187e-04		58.528
3		0.00		4.80		2.780e-03		-53.632		1.152e-03		34.360
3		0.00		5.20		3.576e-03		-59.572		1.329e-03		30.837
3		0.00		5.60		4.583e-03		-54.486		1.236e-03		25.113
3		0.00		6.00		5.672e-03		-47.972		1.567e-03		19.941
3		0.00		6.40		6.861e-03		-52.536		2.353e-03		19.696
3		0.00		6.80		8.932e-03		-50.783		2.634e-03		17.592
3		0.00		7.20		1.020e-02		-55.648		2.817e-03		10.343
3		0.00		7.60		1.263e-02		-54.608		2.998e-03		10.413
3		0.00		8.00		1.423e-02		-53.353		3.544e-03		11.562
3		0.00		8.40		1.625e-02		-53.851		4.352e-03		11.905
3		0.00		8.80		1.735e-02		-53.874		5.297e-03		17.721
3		0.00		9.20		2.066e-02		-53.604		5.522e-03		9.291
3		0.00		9.60		2.383e-02		-54.238		5.245e-03		9.691
3		0.00		10.00		2.622e-02		-54.879		5.113e-03		9.115
3		0.00		9.60		2.835e-02		-53.135		6.098e-03		9.083
3		0.00		9.20		2.841e-02		-51.913		6.735e-03		11.951
3		0.00		8.80		2.886e-02		-51.587		7.781e-03		12.305
3		0.00		8.40		2.900e-02		-51.696		7.474e-03		7.623
3		0.00		8.00		2.932e-02		-51.726		6.277e-03		7.657
3		0.00		7.60		2.920e-02		-52.841		6.272e-03		8.515
3		0.00		7.20		2.869e-02		-49.871		6.779e-03		11.186
3		0.00		6.80		2.847e-02		-52.146		7.458e-03		13.376
3		0.00		6.40		2.822e-02		-52.690		7.505e-03		9.638
3		0.00		6.00		2.851e-02		-52.045		6.489e-03		9.390
3		0.00		5.60		2.778e-02		-53.059		5.650e-03		8.820
3		0.00		5.20		2.740e-02		-51.572		6.344e-03		9.341
3		0.00		4.80		2.649e-02		-52.216		6.967e-03		13.544
3		0.00		4.40		2.614e-02		-52.380		7.780e-03		11.634
3		0.00		4.00		2.702e-02		-52.835		6.704e-03		7.905
3		0.00		3.60		2.705e-02		-51.996		5.975e-03		7.315
3		0.00		3.20		2.662e-02		-53.980		5.732e-03		9.374
3		0.00		2.80		2.605e-02		-51.153		6.262e-03		10.928
3		0.00		2.40		2.518e-02		-52.529		6.727e-03		13.699
3		0.00		2.00		2.599e-02		-50.902		6.887e-03		10.870
3		0.00		1.60		2.643e-02		-51.212		6.050e-03		7.370
3		0.00		1.20		2.690e-02		-52.006		5.216e-03		7.712
3		0.00		0.80		2.695e-02		-52.803		5.311e-03		8.440
3		0.00		0.40		2.613e-02		-51.201		5.787e-03		9.921
3		0.00		0.00		2.551e-02		-52.067		6.391e-03		12.980
3		0.00		-0.40		2.567e-02		-52.386		6.653e-03		11.578
3		0.00		-0.80		2.605e-02		-51.867		6.046e-03		8.657
3		0.00		-1.20		2.599e-02		-52.298		5.104e-03		7.977
3		0.00		-1.60		2.533e-02		-50.755		5.192e-03		8.712
3		0.00		-2.00		2.534e-02		-53.093		5.666e-03		9.867
3		0.00		-2.40		2.407e-02		-53.049		6.343e-03		12.614
3		0.00		-2.80		2.364e-02		-52.090		6.880e-03		11.567
3		0.00		-3.20		2.248e-02		-54.479		6.130e-03		8.071
3		0.00		-3.60		2.146e-02		-52.632		5.002e-03		8.520
3		0.00		-4.00		1.963e-02		-53.821		4.953e-03		10.287
3		0.00		-4.40		1.786e-02		-52.628		4.509e-03		12.457
3		0.00		-4.80		1.446e-02		-51.764		4.022e-03		13.255
3		0.00		-5.20		1.272e-02		-56.231		3.538e-03		13.650
3		0.00		-5.60		9.222e-03		-56.559		2.533e-03		11.794
3		0.00		-6.00		5.394e-03		-50.470		1.484e-03		22.093
3		0.00		-6.40		2.301e-03		-41.028		8.945e-04		43.616
3		0.00		-6.80		2.310e-03		61.991		1.016e-03		71.027
3		0.00		-7.20		5.245e-03		118.047		1.775e-03		25.183
3		0.00		-7.60		7.430e-03		118.574		2.373e-03		25.657
3		0.00		-8.00		9.921e-03		123.589		2.791e-03		12.585
3		0.00		-8.40		1.222e-02		125.951		3.331e-03		11.976
3		0.00		-8.80		1.390e-02		127.164		3.474e-03		10.579
3		0.00		-9.20		1.490e-02		126.974		3.758e-03		10.727
3		0.00		-9.60		1.604e-02		125.009		4.361e-03		16.200
3		0.00		-10.00		1.668e-02		123.515		4.782e-03		19.088
3		0.00		-9.60		1.760e-02		125.731		5.013e-03		10.868
3		0.00		-9.20		1.782e-02		126.394		4.401e-03		8.988
3		0.00		-8.80		1.765e-02		125.502		4.077e-03		8.482
3		0.00		-8.40		1.682e-02		127.891		3.766e-03		8.964
3		0.00		-8.00		1.662e-02		125.425		4.296e-03		13.996
3		0.00		-7.60		1.592e-02		123.377		4.815e-03		20.059
3		0.00		-7.20		1.570e-02		126.995		4.649e-03		10.241
3		0.00		-6.80		1.554e-02		126.177		4.097e-03		9.477
3		0.00		-6.40		1.520e-02		126.819		3.509e-03		8.908
3		0.00		-6.00		1.398e-02		126.437		3.765e-03		12.676
3		0.00		-5.60		1.323e-02		127.988		3.897e-03		16.685
3		0.00		-5.20		1.280e-02		125.602		3.870e-03		19.194
3		0.00		-4.80		1.286e-02		129.058		3.330e-03		10.876
3		0.00		-4.40		1.264e-02		126.884		2.947e-03		8.422
3		0.00		-4.00		1.238e-02		125.831		2.871e-03		10.792
3		0.00		-3.60		1.131e-02		130.345		2.899e-03		17.333
3		0.00		-3.20		1.094e-02		125.766		3.259e-03		22.138
3		0.00		-2.80		1.038e-02		128.900		2.567e-03		10.045
3		0.00		-2.40		1.034e-02		128.666		2.529e-03		12.488
3		0.00		-2.00		9.629e-03		127.245		2.148e-03		11.779
3		0.00		-1.60		9.486e-03		127.874		2.454e-03		14.552
3		0.00		-1.20		8.617e-03		125.987		2.541e-03		24.803
3		0.00		-0.80		8.599e-03		128.155		2.475e-03		14.460
3		0.00		-0.40		8.459e-03		124.569		2.318e-03		12.905
4		0.00		0.00		7.867e-03		125.347		2.109e-03		15.638
4		0.00		0.40		7.975e-03		124.020		2.671e-03		20.524
4		0.00		0.80		7.137e-03		124.372		2.446e-03		22.889
4		0.00		1.20		6.747e-03		122.299		2.412e-03		17.635
4		0.00		1.60		6.061e-03		126.401		1.905e-03		14.574
4		0.00		2.00		5.061e-03		122.138		1.624e-03		23.173
4		0.00		2.40		4.604e-03		117.255		1.721e-03		39.337
4		0.00		2.80		3.759e-03		114.030		1.444e-03		35.583
4		0.00		3.20		2.867e-03		90.696		1.272e-03		67.827
4		0.00		3.60		2.266e-03		68.934		9.354e-04		74.720
4		0.00		4.00		1.671e-03		0.615		7.224e-04		81.665
4		0.00		4.40		1.840e-03		-27.796		7.559e-04		74.334
4		0.00		4.80		2.483e-03		-53.389		1.054e-03		46.438
4		0.00		5.20		3.111e-03		-66.179		1.156e-03		34.402
4		0.00		5.60		4.143e-03		-62.314		1.482e-03		22.071
4		0.00		6.00		5.499e-03		-53.714		1.379e-03		18.137
4		0.00		6.40		6.692e-03		-51.644		1.711e-03		15.243
4		0.00		6.80		8.233e-03		-59.858		1.803e-03		15.359
4		0.00		7.20		1.035e-02		-49.796		2.781e-03		18.715
4		0.00		7.60		1.186e-02		-51.320		3.187e-03		11.629
4		0.00		8.00		1.366e-02		-52.984		3.028e-03		10.009
4		0.00		8.40		1.540e-02		-53.788		3.143e-03		9.882
4		0.00		8.80		1.778e-02		-50.772		3.470e-03		9.606
4		0.00		9.20		1.941e-02		-49.754		4.706e-03		10.191
4		0.00		9.60		2.205e-02		-51.181		6.053e-03		12.332
4		0.00		10.00		2.497e-02		-53.311		7.159e-03		10.899
4		0.00		9.60		2.704e-02		-52.701		6.962e-03		7.138
4		0.00		9.20		2.824e-02		-51.860		6.132e-03		7.335
4		0.00		8.80		2.878e-02		-52.841		5.897e-03		9.021
4		0.00		8.40		2.777e-02		-51.724		6.605e-03		10.591
4		0.00		8.00		2.790e-02		-51.547		7.146e-03		11.828
4		0.00		7.60		2.732e-02		-53.622		7.208e-03		13.411
4		0.00		7.20		2.838e-02		-52.570		6.930e-03		9.963
4		0.00		6.80		2.816e-02		-52.389		5.927e-03		7.776
4		0.00		6.40		2.830e-02		-51.776		5.637e-03		7.605
4		0.00		6.00		2.808e-02		-51.185		5.167e-03		8.353
4		0.00		5.60		2.654e-02		-51.606		5.568e-03		10.127
4		0.00		5.20		2.641e-02		-50.715		6.399e-03		9.148
4		0.00		4.80		2.602e-02		-51.474		6.626e-03		10.428
4		0.00		4.40		2.579e-02		-51.932		6.951e-03		10.698
4		0.00		4.00		2.646e-02		-52.440		6.050e-03		7.805
4		0.00		3.60		2.602e-02		-52.274		5.203e-03		7.193
4		0.00		3.20		2.609e-02		-51.863		5.279e-03		8.693
4		0.00		2.80		2.481e-02		-52.281		5.903e-03		10.232
4		0.00		2.40		2.441e-02		-52.442		6.423e-03		12.295
4		0.00		2.00		2.384e-02		-52.389		6.807e-03		14.105
4		0.00		1.60		2.408e-02		-53.022		6.910e-03		9.980
4		0.00		1.20		2.441e-02		-52.423		6.684e-03		9.540
4		0.00		0.80		2.521e-02		-53.581		5.910e-03		8.746
4		0.00		0.40		2.473e-02		-53.709		5.724e-03		8.911
4		0.00		0.00		2.390e-02		-50.832		5.347e-03		9.937
4		0.00		-0.40		2.384e-02		-51.364		5.821e-03		12.074
4		0.00		-0.80		2.318e-02		-51.509		6.141e-03		13.902
4		0.00		-1.20		2.380e-02		-51.971		6.290e-03		11.734
4		0.00		-1.60		2.376e-02		-52.142		5.428e-03		9.024
4		0.00		-2.00		2.396e-02		-52.677		4.692e-03		7.401
4		0.00		-2.40		2.305e-02		-52.005		4.506e-03		8.602
4		0.00		-2.80		2.254e-02		-49.883		4.523e-03		7.902
4		0.00		-3.20		2.186e-02		-51.897		5.111e-03		10.164
4		0.00		-3.60		2.075e-02		-51.935		5.185e-03		13.599
4		0.00		-4.00		1.979e-02		-49.170		4.928e-03		8.212
4		0.00		-4.40		1.812e-02		-52.813		4.268e-03		8.787
4		0.00		-4.80		1.604e-02		-52.042		3.102e-03		10.167
4		0.00		-5.20		1.333e-02		-47.172		2.623e-03		10.311
4		0.00		-5.60		9.192e-03		-50.826		2.257e-03		17.369
4		0.00		-6.00		6.120e-03		-42.209		1.958e-03		23.270
4		0.00		-6.40		4.059e-03		-54.725		1.481e-03		28.042
4		0.00		-6.80		1.656e-03		-1.757		6.483e-04		67.928
4		0.00		-7.20		3.995e-03		114.488		1.517e-03		26.873
4		0.00		-7.60		7.028e-03		122.839		2.054e-03		14.567
4		0.00		-8.00		1.012e-02		124.452		2.704e-03		13.436
4		0.00		-8.40		1.158e-02		126.253		3.234e-03		17.486
4		0.00		-8.80		1.291e-02		125.360		3.981e-03		18.897
4		0.00		-9.20		1.441e-02		124.047		3.696e-03		9.561
4		0.00		-9.60		1.654e-02		124.936		3.811e-03		8.305
4		0.00		-10.00		1.737e-02		124.495		3.737e-03		9.409
4		0.00		-9.60		1.728e-02		126.924		3.846e-03		10.608
4		0.00		-9.20		1.699e-02		126.435		4.307e-03		14.654
4		0.00		-8.80		1.678e-02		124.318		4.475e-03		18.031
4		0.00		-8.40		1.687e-02		126.194		4.383e-03		8.896
4		0.00		-8.00		1.690e-02		126.992		3.584e-03		8.415
4		0.00		-7.60		1.636e-02		125.822		3.216e-03		8.159
4		0.00		-7.20		1.570e-02		125.992		3.365e-03		9.276
4		0.00		-6.80		1.522e-02		128.960		3.490e-03		10.741
4		0.00		-6.40		1.466e-02		124.977		3.618e-03		18.765
4		0.00		-6.00		1.430e-02		127.236		4.021e-03		17.916
4		0.00		-5.60		1.345e-02		126.439		3.259e-03		9.600
4		0.00		-5.20		1.312e-02		128.605		3.193e-03		9.678
4		0.00		-4.80		1.257e-02		125.684		2.828e-03		10.518
4		0.00		-4.40		1.227e-02		125.879		2.687e-03		10.954
4		0.00		-4.00		1.163e-02		123.676		2.912e-03		12.797
4		0.00		-3.60		1.097e-02		123.117		3.214e-03		15.683
4		0.00		-3.20		1.068e-02		122.327		3.281e-03		20.339
4		0.00		-2.80		1.020e-02		126.312		2.937e-03		11.861
4		0.00		-2.40		9.994e-03		124.515		2.564e-03		11.326
4		0.00		-2.00		9.610e-03		123.332		2.302e-03		12.341
4		0.00		-1.60		9.683e-03		125.681		2.077e-03		11.455
4		0.00		-1.20		9.263e-03		129.645		1.945e-03		10.868
4		0.00		-0.80		8.799e-03		126.042		2.220e-03		16.983
4		0.00		-0.40		8.550e-03		123.520		2.201e-03		21.775
5		0.00		0.00		8.206e-03		126.757		2.159e-03		19.990
5		0.00		0.40		7.441e-03		127.417		2.151e-03		14.815
5		0.00		0.80		7.380e-03		127.889		1.902e-03		11.837
5		0.00		1.20		6.799e-03		124.362		1.743e-03		13.363
5		0.00		1.60		6.075e-03		127.077		1.774e-03		18.039
5		0.00		2.00		5.383e-03		126.740		1.478e-03		21.393
5		0.00		2.40		4.659e-03		117.200		1.628e-03		40.635
5		0.00		2.80		4.125e-03		115.592		1.307e-03		39.359
5		0.00		3.20		3.188e-03		101.165		1.302e-03		46.500
5		0.00		3.60		2.187e-03		79.504		9.281e-04		75.405
5		0.00		4.00		1.960e-03		29.255		7.967e-04		88.350
5		0.00		4.40		1.744e-03		-32.936		6.457e-04		71.867
5		0.00		4.80		2.090e-03		-58.448		8.725e-04		53.570
5		0.00		5.20		2.985e-03		-45.990		1.082e-03		30.634
5		0.00		5.60		3.946e-03		-55.086		1.361e-03		25.360
5		0.00		6.00		5.268e-03		-49.691		1.638e-03		21.338
5		0.00		6.40		6.039e-03		-48.769		1.934e-03		19.570
5		0.00		6.80		8.092e-03		-55.829		2.234e-03		12.670
5		0.00		7.20		9.572e-03		-50.101		2.277e-03		12.639
5		0.00		7.60		1.097e-02		-54.260		2.362e-03		11.874
5		0.00		8.00		1.243e-02		-49.389		2.552e-03		10.249
5		0.00		8.40		1.375e-02		-49.701		2.777e-03		11.923
5		0.00		8.80		1.583e-02		-52.772		3.669e-03		10.586
5		0.00		9.20		1.733e-02		-52.987		4.071e-03		15.232
5		0.00		9.60		1.974e-02		-50.371		5.098e-03		11.992
5		0.00		10.00		2.338e-02		-54.244		5.863e-03		10.762
5		0.00		9.60		2.426e-02		-51.503		5.879e-03		7.680
5		0.00		9.20		2.535e-02		-52.263		5.404e-03		7.627
5		0.00		8.80		2.605e-02		-52.240		5.731e-03		7.880
5		0.00		8.40		2.606e-02		-51.623		5.539e-03		8.345
5		0.00		8.00		2.602e-02		-52.551		6.186e-03		8.773
5		0.00		7.60		2.516e-02		-52.315		6.553e-03		13.243
5		0.00		7.20		2.439e-02		-52.345		6.904e-03		18.758
5		0.00		6.80		2.402e-02		-53.349		7.064e-03		13.771
5		0.00		6.40		2.414e-02		-52.132		6.849e-03		9.351
5		0.00		6.00		2.414e-02		-53.054		5.929e-03		7.893
5		0.00		5.60		2.428e-02		-51.760		4.922e-03		8.028
5		0.00		5.20		2.407e-02		-52.003		4.682e-03		7.812
5		0.00		4.80		2.351e-02		-53.240		5.116e-03		10.174
5		0.00		4.40		2.286e-02		-50.182		5.362e-03		12.312
5		0.00		4.00		2.283e-02		-52.396		5.575e-03		13.929
5		0.00		3.60		2.292e-02		-52.355		5.797e-03		14.089
5		0.00		3.20		2.242e-02		-52.722		5.579e-03		8.432
5		0.00		2.80		2.289e-02		-52.431		5.100e-03		7.353
5		0.00		2.40		2.320e-02		-51.667		4.449e-03		9.558
5		0.00		2.00		2.284e-02		-52.136		4.519e-03		8.404
5		0.00		1.60		2.281e-02		-48.783		4.577e-03		8.820
5		0.00		1.20		2.225e-02		-50.076		4.759e-03		9.886
5		0.00		0.80		2.179e-02		-52.869		5.745e-03		12.274
5		0.00		0.40		2.224e-02		-51.928		5.786e-03		10.128
5		0.00		0.00		2.221e-02		-51.987		5.648e-03		8.744
5		0.00		-0.40		2.258e-02		-52.362		4.981e-03		8.054
5		0.00		-0.80		2.301e-02		-52.197		4.405e-03		7.928
5		0.00		-1.20		2.250e-02		-50.907		4.375e-03		8.886
5		0.00		-1.60		2.216e-02		-50.078		4.651e-03		9.461
5		0.00		-2.00		2.138e-02		-49.623		4.849e-03		10.981
5		0.00		-2.40		2.033e-02		-50.790		5.321e-03		11.899
5		0.00		-2.80		2.042e-02		-52.612		5.230e-03		11.327
5		0.00		-3.20		1.955e-02		-50.671		4.162e-03		9.207
5		0.00		-3.60		1.931e-02		-51.461		3.823e-03		8.522
5		0.00		-4.00		1.882e-02		-52.646		3.380e-03		8.300
5		0.00		-4.40		1.674e-02		-52.094		2.970e-03		9.943
5		0.00		-4.80		1.465e-02		-47.742		2.709e-03		9.947
5		0.00		-5.20		1.163e-02		-46.203		2.525e-03		11.246
5		0.00		-5.60		8.622e-03		-46.096		1.995e-03		11.706
5		0.00		-6.00		5.341e-03		-40.804		1.669e-03		17.475
5		0.00		-6.40		3.149e-03		-57.955		1.179e-03		34.026
5		0.00		-6.80		2.370e-03		89.255		9.949e-04		56.571
5		0.00		-7.20		4.965e-03		117.180		1.522e-03		21.519
5		0.00		-7.60		8.043e-03		124.566		1.942e-03		13.007
5		0.00		-8.00		9.946e-03		125.733		2.450e-03		12.611
5		0.00		-8.40		1.085e-02		125.632		2.753e-03		12.433
5		0.00		-8.80		1.241e-02		128.046		3.492e-03		14.294
5		0.00		-9.20		1.411e-02		124.272		4.162e-03		18.731
5		0.00		-9.60		1.581e-02		125.297		4.981e-03		16.169
5		0.00		-10.00		1.670e-02		125.459		4.773e-03		9.418
5		0.00		-9.60		1.668e-02		124.938		4.147e-03		8.581
5		0.00		-9.20		1.708e-02		126.675		3.842e-03		8.301
5		0.00		-8.80		1.683e-02		128.512		3.728e-03		8.683
5		0.00		-8.40		1.692e-02		128.207		3.528e-03		8.158
5		0.00		-8.00		1.666e-02		128.012		3.788e-03		11.692
5		0.00		-7.60		1.585e-02		128.438		4.107e-03		18.393
5		0.00		-7.20		1.501e-02		126.482		4.084e-03		17.803
5		0.00		-6.80		1.497e-02		126.417		3.650e-03		9.466
5		0.00		-6.40		1.497e-02		125.108		3.298e-03		9.413
5		0.00		-6.00		1.456e-02		127.299		2.828e-03		9.589
5		0.00		-5.60		1.402e-02		128.482		2.651e-03		9.344
5		0.00		-5.20		1.337e-02		128.457		2.568e-03		9.765
5		0.00		-4.80		1.271e-02		124.519		3.050e-03		11.963
5		0.00		-4.40		1.216e-02		128.284		3.006e-03		14.484
5		0.00		-4.00		1.160e-02		127.602		3.254e-03		14.811
5		0.00		-3.60		1.095e-02		125.714		2.878e-03		15.541
5		0.00		-3.20		1.088e-02		126.768		2.691e-03		12.153
5		0.00		-2.80		1.098e-02		126.117		2.395e-03		11.563
5		0.00		-2.40		1.057e-02		126.777		2.268e-03		10.784
5		0.00		-2.00		1.005e-02		127.253		2.325e-03		10.041
5		0.00		-1.60		9.723e-03		129.042		2.237e-03		11.406
5		0.00		-1.20		9.452e-03		124.182		2.428e-03		14.906
5		0.00		-0.80		8.805e-03		127.269		2.538e-03		18.350
5		0.00		-0.40		8.764e-03		127.543		2.434e-03		17.292
6		0.00		0.00		8.805e-03		130.712		2.197e-03		11.473
6		0.00		0.40		8.685e-03		125.079		1.978e-03		11.873
6		0.00		0.80		8.113e-03		131.287		1.823e-03		14.029
6		0.00		1.20		7.666e-03		128.478		2.008e-03		14.570
6		0.00		1.60		6.807e-03		127.742		1.728e-03		15.109
6		0.00		2.00		6.181e-03		126.767		1.995e-03		23.396
6		0.00		2.40		5.133e-03		124.683		1.615e-03		31.990
6		0.00		2.80		4.284e-03		122.314		1.305e-03		24.424
6		0.00		3.20		3.256e-03		109.100		1.149e-03		40.826
6		0.00		3.60		2.565e-03		95.291		1.020e-03		59.896
6		0.00		4.00		2.006e-03		47.589		9.138e-04		83.245
6		0.00		4.40		1.766e-03		-15.822		7.554e-04		78.043
6		0.00		4.80		1.746e-03		-37.559		6.694e-04		61.733
6		0.00		5.20		2.491e-03		-63.268		9.792e-04		41.367
6		0.00		5.60		3.569e-03		-52.227		1.268e-03		33.965
6		0.00		6.00		4.684e-03		-50.974		1.344e-03		21.810
6		0.00		6.40		5.669e-03		-59.587		1.515e-03		16.601
6		0.00		6.80		7.108e-03		-48.147		1.591e-03		15.215
6		0.00		7.20		8.659e-03		-53.405		2.093e-03		13.152
6		0.00		7.60		1.023e-02		-51.136		2.534e-03		13.860
6		0.00		8.00		1.174e-02		-51.211		2.944e-03		12.021
6		0.00		8.40		1.389e-02		-52.173		2.931e-03		10.733
6		0.00		8.80		1.557e-02		-51.794		2.934e-03		9.816
6		0.00		9.20		1.792e-02		-52.543		3.148e-03		9.883
6		0.00		9.60		2.011e-02		-51.185		3.853e-03		9.453
6		0.00		10.00		2.253e-02		-50.924		4.856e-03		11.271
6		0.00		9.60		2.383e-02		-53.184		5.694e-03		13.006
6		0.00		9.20		2.438e-02		-53.759		5.804e-03		10.938
6		0.00		8.80		2.539e-02		-52.409		5.192e-03		8.681
6		0.00		8.40		2.581e-02		-51.468		4.627e-03		7.682
6		0.00		8.00		2.626e-02		-52.396		4.476e-03		7.698
6		0.00		7.60		2.581e-02		-51.903		5.216e-03		8.994
6		0.00		7.20		2.473e-02		-52.112		5.829e-03		9.892
6		0.00		6.80		2.440e-02		-52.750		6.431e-03		9.430
6		0.00		6.40		2.437e-02		-52.797		6.351e-03		9.003
6		0.00		6.00		2.452e-02		-52.709		5.425e-03		8.030
6		0.00		5.60		2.448e-02		-51.878		4.762e-03		7.356
6		0.00		5.20		2.474e-02		-53.542		4.295e-03		7.529
6		0.00		4.80		2.372e-02		-51.334		4.870e-03		8.804
6		0.00		4.40		2.249e-02		-50.587		5.567e-03		11.450
6		0.00		4.00		2.266e-02		-49.808		5.994e-03		12.569
6		0.00		3.60		2.243e-02		-51.320		5.613e-03		10.238
6		0.00		3.20		2.311e-02		-51.790		4.621e-03		8.273
6		0.00		2.80		2.297e-02		-50.965		4.196e-03		8.484
6		0.00		2.40		2.322e-02		-51.903		4.235e-03		8.121
6		0.00		2.00		2.280e-02		-51.456		4.271e-03		9.263
6		0.00		1.60		2.187e-02		-52.572		4.846e-03		10.764
6		0.00		1.20		2.194e-02		-50.922		5.475e-03		10.293
6		0.00		0.80		2.207e-02		-52.586		5.080e-03		9.987
6		0.00		0.40		2.280e-02		-55.032		4.487e-03		8.142
6		0.00		0.00		2.308e-02		-52.649		4.124e-03		7.650
6		0.00		-0.40		2.235e-02		-51.501		4.482e-03		10.170
6		0.00		-0.80		2.248e-02		-51.338		4.543e-03		8.022
6		0.00		-1.20		2.158e-02		-51.457		5.279e-03		10.365
6		0.00		-1.60		2.109e-02		-50.976		5.805e-03		11.993
6		0.00		-2.00		2.111e-02		-53.363		5.865e-03		9.238
6		0.00		-2.40		2.052e-02		-52.239		4.768e-03		8.354
6		0.00		-2.80		2.036e-02		-53.097		4.059e-03		8.085
6		0.00		-3.20		1.917e-02		-52.247		3.957e-03		9.257
6		0.00		-3.60		1.806e-02		-50.002		4.071e-03		9.131
6		0.00		-4.00		1.640e-02		-52.182		4.056e-03		13.754
6		0.00		-4.40		1.561e-02		-50.699		4.073e-03		15.106
6		0.00		-4.80		1.400e-02		-49.862		3.705e-03		10.161
6		0.00		-5.20		1.248e-02		-49.517		2.818e-03		11.180
6		0.00		-5.60		1.028e-02		-51.852		1.992e-03		13.460
6		0.00		-6.00		7.834e-03		-50.204		1.523e-03		15.554
6		0.00		-6.40		5.361e-03		-45.985		1.502e-03		22.576
6		0.00		-6.80		3.083e-03		-54.561		1.200e-03		38.658
6		0.00		-7.20		2.829e-03		77.961		1.228e-03		69.654
6		0.00		-7.60		5.974e-03		114.959		1.741e-03		30.544
6		0.00		-8.00		8.695e-03		122.637		2.306e-03		11.889
6		0.00		-8.40		1.088e-02		126.878		2.516e-03		9.104
6		0.00		-8.80		1.294e-02		126.083		2.590e-03		10.545
6		0.00		-9.20		1.483e-02		129.031		3.006e-03		9.880
6		0.00		-9.60		1.581e-02		127.677		3.399e-03		9.595
6		0.00		-10.00		1.620e-02		125.172		3.796e-03		11.057
6		0.00		-9.60		1.623e-02		120.668		4.429e-03		17.145
6		0.00		-9.20		1.643e-02		124.290		4.452e-03		10.138
6		0.00		-8.80		1.649e-02		126.230		4.032e-03		11.017
6		0.00		-8.40		1.693e-02		125.990		3.618e-03		7.874
6		0.00		-8.00		1.715e-02		124.861		3.558e-03		9.770
6		0.00		-7.60		1.649e-02		128.382		3.705e-03		9.380
6		0.00		-7.20		1.609e-02		127.375		3.935e-03		13.149
6		0.00		-6.80		1.558e-02		124.605		3.911e-03		18.904
6		0.00		-6.40		1.509e-02		128.555		3.522e-03		9.504
6		0.00		-6.00		1.467e-02		127.781		3.287e-03		8.528
6		0.00		-5.60		1.475e-02		128.741		2.887e-03		8.499
6		0.00		-5.20		1.418e-02		127.872		2.739e-03		10.216
6		0.00		-4.80		1.390e-02		129.301		2.906e-03		8.634
6		0.00		-4.40		1.308e-02		124.779		2.937e-03		11.952
6		0.00		-4.00		1.235e-02		125.588		3.196e-03		17.446
6		0.00		-3.60		1.215e-02		128.983		3.120e-03		13.400
6		0.00		-3.20		1.142e-02		126.119		2.609e-03		11.744
6		0.00		-2.80		1.202e-02		128.701		2.379e-03		9.214
6		0.00		-2.40		1.120e-02		128.813		2.399e-03		10.841
6		0.00		-2.00		1.062e-02		128.224		2.275e-03		10.860
6		0.00		-1.60		1.018e-02		126.708		2.506e-03		12.382
6		0.00		-1.20		9.484e-03		125.860		2.774e-03		18.806
6		0.00		-0.80		8.849e-03		126.018		2.628e-03		12.850
6		0.00		-0.40		9.236e-03		125.625		2.571e-03		10.545
7		0.00		0.00		8.963e-03		129.368		2.294e-03		12.022
7		0.00		0.40		8.454e-03		129.159		2.149e-03		12.512
7		0.00		0.80		8.223e-03		128.034		2.336e-03		12.713
7		0.00		1.20		7.326e-03		127.464		2.318e-03		17.754
7		0.00		1.60		6.560e-03		124.934		1.888e-03		21.618
7		0.00		2.00		5.789e-03		126.070		1.743e-03		23.334
7		0.00		2.40		5.620e-03		120.149		1.628e-03		17.791
7		0.00		2.80		4.612e-03		120.198		1.416e-03		27.983
7		0.00		3.20		3.512e-03		119.570		1.115e-03		30.616
7		0.00		3.60		2.475e-03		88.191		9.994e-04		68.777
7		0.00		4.00		2.055e-03		58.892		8.977e-04		74.613
7		0.00		4.40		1.879e-03		12.868		7.484e-04		83.721
7		0.00		4.80		1.921e-03		-36.139		8.688e-04		70.269
7		0.00		5.20		2.459e-03		-43.148		1.030e-03		59.922
7		0.00		5.60		3.688e-03		-63.763		1.157e-03		23.777
7		0.00		6.00		4.928e-03		-56.889		1.360e-03		20.833
7		0.00		6.40		5.649e-03		-49.660		1.483e-03		15.864
7		0.00		6.80		7.156e-03		-57.778		2.052e-03		18.280
7		0.00		7.20		8.581e-03		-53.488		2.506e-03		17.725
7		0.00		7.60		1.019e-02		-55.820		2.767e-03		10.409
7		0.00		8.00		1.257e-02		-50.801		2.586e-03		10.860
7		0.00		8.40		1.436e-02		-53.713		2.511e-03		8.243
7		0.00		8.80		1.569e-02		-51.324		3.037e-03		9.646
7		0.00		9.20		1.729e-02		-51.110		3.665e-03		11.230
7		0.00		9.60		1.941e-02		-49.004		4.789e-03		12.749
7		0.00		10.00		2.264e-02		-50.578		5.559e-03		10.811
7		0.00		9.60		2.416e-02		-52.515		5.355e-03		8.520
7		0.00		9.20		2.559e-02		-52.213		4.504e-03		6.736
7		0.00		8.80		2.557e-02		-53.012		4.233e-03		8.415
7		0.00		8.40		2.550e-02		-51.412		4.531e-03		7.970
7		0.00		8.00		2.502e-02		-50.638		5.298e-03		9.192
7		0.00		7.60		2.520e-02		-52.650		5.678e-03		10.176
7		0.00		7.20		2.475e-02		-53.301		6.171e-03		11.669
7		0.00		6.80		2.440e-02		-52.743		5.505e-03		8.273
7		0.00		6.40		2.450e-02		-50.917		4.445e-03		7.511
7		0.00		6.00		2.443e-02		-54.224		4.315e-03		9.133
7		0.00		5.60		2.406e-02		-52.382		4.885e-03		8.892
7		0.00		5.20		2.321e-02		-53.043		5.584e-03		11.563
7		0.00		4.80		2.267e-02		-52.923		6.249e-03		14.284
7		0.00		4.40		2.209e-02		-51.927		6.298e-03		11.330
7		0.00		4.00		2.279e-02		-52.978		5.431e-03		7.673
7		0.00		3.60		2.265e-02		-52.090		4.466e-03		8.173
7		0.00		3.20		2.217e-02		-52.197		4.595e-03		8.827
7		0.00		2.80		2.211e-02		-52.231		5.010e-03		9.690
7		0.00		2.40		2.176e-02		-52.829		5.367e-03		13.579
7		0.00		2.00		2.173e-02		-51.602		5.998e-03		13.390
7		0.00		1.60		2.209e-02		-51.295		5.736e-03		9.412
7		0.00		1.20		2.198e-02		-53.399		4.332e-03		8.118
7		0.00		0.80		2.245e-02		-51.699		3.995e-03		7.821
7		0.00		0.40		2.304e-02		-52.156		3.630e-03		8.498
7		0.00		0.00		2.247e-02		-50.296		4.319e-03		9.307
7		0.00		-0.40		2.209e-02		-50.604		4.680e-03		12.857
7		0.00		-0.80		2.153e-02		-50.790		5.093e-03		11.473
7		0.00		-1.20		2.150e-02		-51.040		4.718e-03		9.083
7		0.00		-1.60		2.157e-02		-54.865		4.074e-03		8.340
7		0.00		-2.00		2.212e-02		-51.878		3.621e-03		7.514
7		0.00		-2.40		2.116e-02		-51.717		3.708e-03		7.653
7		0.00		-2.80		2.046e-02		-51.456		3.972e-03		8.818
7		0.00		-3.20		1.933e-02		-52.032		4.451e-03		13.302
7		0.00		-3.60		1.842e-02		-52.139		4.521e-03		12.207
7		0.00		-4.00		1.788e-02		-52.688		4.188e-03		8.512
7		0.00		-4.40		1.663e-02		-51.046		2.956e-03		8.709
7		0.00		-4.80		1.502e-02		-52.382		2.574e-03		9.474
7		0.00		-5.20		1.258e-02		-53.248		2.266e-03		10.219
7		0.00		-5.60		1.018e-02		-48.773		2.071e-03		11.618
7		0.00		-6.00		8.373e-03		-47.988		2.066e-03		15.509
7		0.00		-6.40		5.835e-03		-50.853		1.736e-03		21.180
7		0.00		-6.80		2.356e-03		-56.299		9.783e-04		51.656
7		0.00		-7.20		2.619e-03		84.834		9.710e-04		54.069
7		0.00		-7.60		5.081e-03		117.245		1.529e-03		21.237
7		0.00		-8.00		7.775e-03		124.419		1.973e-03		15.027
7		0.00		-8.40		9.879e-03		124.096		2.494e-03		16.304
7		0.00		-8.80		1.176e-02		124.554		2.773e-03		16.076
7		0.00		-9.20		1.314e-02		124.972		2.930e-03		10.072
7		0.00		-9.60		1.475e-02		124.126		2.957e-03		8.211
7		0.00		-10.00		1.577e-02		126.798		2.933e-03		8.316
7		0.00		-9.60		1.673e-02		127.495		3.353e-03		10.167
7		0.00		-9.20		1.657e-02		127.150		3.716e-03		11.790
7		0.00		-8.80		1.618e-02		126.724		3.936e-03		14.980
7		0.00		-8.40		1.621e-02		125.873		3.912e-03		11.050
7		0.00		-8.00		1.636e-02		126.348		3.707e-03		7.790
7		0.00		-7.60		1.617e-02		125.968		3.314e-03		8.470
7		0.00		-7.20		1.559e-02		126.474		3.352e-03		8.961
7		0.00		-6.80		1.466e-02		127.807		3.360e-03		10.754
7		0.00		-6.40		1.378e-02		124.268		3.793e-03		17.451
7		0.00		-6.00		1.334e-02		125.435		3.881e-03		14.265
7		0.00		-5.60		1.307e-02		126.617		3.354e-03		9.694
7		0.00		-5.20		1.337e-02		128.576		2.839e-03		9.198
7		0.00		-4.80		1.249e-02		125.657		2.250e-03		11.192
7		0.00		-4.40		1.216e-02		128.782		2.521e-03		9.047
7		0.00		-4.00		1.173e-02		127.676		2.723e-03		16.354
7		0.00		-3.60		1.119e-02		128.674		2.773e-03		15.184
7		0.00		-3.20		1.092e-02		125.126		2.767e-03		11.884
7		0.00		-2.80		1.052e-02		125.088		2.261e-03		10.950
7		0.00		-2.40		9.962e-03		125.390		1.977e-03		10.198
7		0.00		-2.00		1.016e-02		125.596		2.136e-03		13.188
7		0.00		-1.60		9.608e-03		127.520		2.427e-03		14.828
7		0.00		-1.20		8.981e-03		123.085		2.203e-03		16.454
7		0.00		-0.80		8.727e-03		124.164		2.416e-03		11.578
7		0.00		-0.40		8.456e-03		128.792		2.347e-03		15.294
8		0.00		0.00		8.712e-03		126.452		1.809e-03		12.161
8		0.00		0.40		8.294e-03		131.630		1.837e-03		13.727
8		0.00		0.80		7.438e-03		128.260		1.852e-03		10.662
8		0.00		1.20		7.377e-03		126.393		2.082e-03		21.743
8		0.00		1.60		6.681e-03		125.430		2.003e-03		20.239
8		0.00		2.00		6.022e-03		132.203		1.985e-03		16.219
8		0.00		2.40		5.347e-03		120.717		1.701e-03		24.856
8		0.00		2.80		4.535e-03		120.497		1.294e-03		41.853
8		0.00		3.20		3.393e-03		111.317		1.055e-03		53.847
8		0.00		3.60		2.803e-03		85.697		1.226e-03		81.201
8		0.00		4.00		2.068e-03		60.188		8.144e-04		70.760
8		0.00		4.40		1.960e-03		14.880		7.225e-04		87.550
8		0.00		4.80		1.778e-03		-25.174		7.060e-04		63.689
8		0.00		5.20		2.364e-03		-36.395		1.023e-03		38.461
8		0.00		5.60		3.400e-03		-56.067		9.868e-04		29.181
8		0.00		6.00		4.260e-03		-51.105		1.273e-03		23.980
8		0.00		6.40		5.416e-03		-52.678		1.794e-03		18.388
8		0.00		6.80		6.397e-03		-45.746		1.868e-03		17.876
8		0.00		7.20		8.089e-03		-51.990		1.782e-03		13.034
8		0.00		7.60		9.841e-03		-56.557		1.839e-03		12.494
8		0.00		8.00		1.150e-02		-49.603		2.096e-03		10.525
8		0.00		8.40		1.304e-02		-51.367		2.876e-03		12.566
8		0.00		8.80		1.458e-02		-51.370		3.769e-03		13.476
8		0.00		9.20		1.626e-02		-51.785		4.171e-03		12.148
8		0.00		9.60		1.917e-02		-53.315		4.054e-03		7.877
8		0.00		10.00		2.158e-02		-53.992		4.064e-03		8.895
8		0.00		9.60		2.267e-02		-52.603		4.811e-03		9.632
8		0.00		9.20		2.316e-02		-51.946		5.638e-03		8.966
8		0.00		8.80		2.278e-02		-51.540		5.932e-03		12.663
8		0.00		8.40		2.328e-02		-51.986		6.268e-03		9.531
8		0.00		8.00		2.367e-02		-51.994		5.004e-03		7.420
8		0.00		7.60		2.404e-02		-52.492		4.360e-03		7.729
8		0.00		7.20		2.350e-02		-51.780		4.628e-03		9.554
8		0.00		6.80		2.303e-02		-50.436		5.187e-03		9.980
8		0.00		6.40		2.328e-02		-50.419		5.559e-03		11.935
8		0.00		6.00		2.263e-02		-53.112		5.451e-03		9.559
8		0.00		5.60		2.272e-02		-53.189		4.460e-03		8.298
8		0.00		5.20		2.332e-02		-52.838		3.814e-03		7.827
8		0.00		4.80		2.211e-02		-51.686		4.065e-03		9.157
8		0.00		4.40		2.205e-02		-50.647		4.622e-03		10.131
8		0.00		4.00		2.125e-02		-50.930		5.336e-03		17.098
8		0.00		3.60		2.094e-02		-50.759		5.133e-03		8.680
8		0.00		3.20		2.141e-02		-51.295		4.076e-03		8.377
8		0.00		2.80		2.129e-02		-51.988		3.927e-03		8.846
8		0.00		2.40		2.073e-02		-52.204		4.077e-03		8.778
8		0.00		2.00		2.042e-02		-51.508		4.804e-03		11.960
8		0.00		1.60		1.982e-02		-51.702		5.319e-03		13.169
8		0.00		1.20		2.018e-02		-52.491		5.313e-03		8.759
8		0.00		0.80		2.009e-02		-51.876		4.344e-03		7.950
8		0.00		0.40		2.002e-02		-50.494		3.772e-03		8.767
8		0.00		0.00		1.953e-02		-52.546		4.138e-03		10.709
8		0.00		-0.40		1.932e-02		-53.767		4.848e-03		14.089
8		0.00		-0.80		1.894e-02		-50.510		5.241e-03		12.534
8		0.00		-1.20		1.936e-02		-52.091		4.632e-03		7.677
8		0.00		-1.60		1.998e-02		-53.300		3.847e-03		8.903
8		0.00		-2.00		1.948e-02		-52.047		3.436e-03		10.038
8		0.00		-2.40		1.890e-02		-51.618		4.240e-03		10.581
8		0.00		-2.80		1.775e-02		-49.915		4.306e-03		13.531
8		0.00		-3.20		1.752e-02		-50.388		4.544e-03		10.819
8		0.00		-3.60		1.709e-02		-55.231		3.643e-03		8.189
8		0.00		-4.00		1.623e-02		-49.026		2.891e-03		10.482
8		0.00		-4.40		1.457e-02		-50.700		2.942e-03		9.560
8		0.00		-4.80		1.291e-02		-50.730		3.031e-03		14.400
8		0.00		-5.20		1.073e-02		-51.400		2.730e-03		15.257
8		0.00		-5.60		9.014e-03		-52.135		2.375e-03		13.155
8		0.00		-6.00		6.845e-03		-50.191		1.628e-03		13.228
8		0.00		-6.40		4.777e-03		-53.413		1.435e-03		18.711
8		0.00		-6.80		2.196e-03		-23.901		9.782e-04		46.027
8		0.00		-7.20		2.684e-03		78.032		1.112e-03		58.425
8		0.00		-7.60		6.046e-03		119.460		2.025e-03		23.671
8		0.00		-8.00		8.494e-03		123.936		2.237e-03		16.416
8		0.00		-8.40		1.015e-02		123.656		2.510e-03		10.833
8		0.00		-8.80		1.156e-02		125.888		3.160e-03		14.865
8		0.00		-9.20		1.290e-02		123.652		4.038e-03		20.303
8		0.00		-9.60		1.439e-02		124.084		4.234e-03		12.762
8		0.00		-10.00		1.619e-02		124.751		4.058e-03		8.947
8		0.00		-9.60		1.659e-02		125.036		3.687e-03		9.583
8		0.00		-9.20		1.639e-02		127.077		3.823e-03		13.100
8		0.00		-8.80		1.602e-02		127.159		4.235e-03		17.672
8		0.00		-8.40		1.586e-02		122.661		4.387e-03		12.947
8		0.00		-8.00		1.647e-02		127.467		3.815e-03		8.555
8		0.00		-7.60		1.584e-02		125.885		3.254e-03		8.843
8		0.00		-7.20		1.524e-02		128.512		3.615e-03		10.991
8		0.00		-6.80		1.470e-02		126.809		3.705e-03		15.577
8		0.00		-6.40		1.392e-02		127.452		3.925e-03		13.591
8		0.00		-6.00		1.409e-02		126.161		3.296e-03		7.497
8		0.00		-5.60		1.371e-02		126.083		2.946e-03		9.412
8		0.00		-5.20		1.305e-02		131.202		2.861e-03		10.739
8		0.00		-4.80		1.251e-02		125.994		3.582e-03		14.612
8		0.00		-4.40		1.191e-02		122.743		3.639e-03		18.032
8		0.00		-4.00		1.172e-02		124.460		2.786e-03		8.502
8		0.00		-3.60		1.131e-02		128.942		2.609e-03		9.250
8		0.00		-3.20		1.108e-02		127.169		2.354e-03		10.851
8		0.00		-2.80		1.100e-02		124.291		2.835e-03		15.330
8		0.00		-2.40		1.015e-02		127.325		2.830e-03		16.264
8		0.00		-2.00		9.658e-03		124.495		2.835e-03		15.456
8		0.00		-1.60		9.786e-03		124.350		2.401e-03		11.884
8		0.00		-1.20		9.736e-03		125.493		2.214e-03		13.206
8		0.00		-0.80		9.228e-03		127.474		2.253e-03		12.944
8		0.00		-0.40		8.747e-03		122.945		2.254e-03		19.551
