# Date of analysis: 2023-11-20 16;19
# 
# Loop index	Read Volt (V)	Write Volt (V)	Amplitude (a.u)	Phase (deg)	Sigma Amp (a.u)	Sigma Pha (deg)	
1		0.00		0.00		1.387e-02		-53.605		3.321e-03		12.141
1		0.00		0.40		1.377e-02		-54.003		2.845e-03		12.884
1		0.00		0.80		1.371e-02		-55.158		3.005e-03		13.845
1		0.00		1.20		1.294e-02		-52.952		3.047e-03		15.437
1		0.00		1.60		1.333e-02		-50.977		3.666e-03		15.131
1		0.00		2.00		1.312e-02		-52.766		3.680e-03		19.470
1		0.00		2.40		1.308e-02		-55.153		4.033e-03		20.944
1		0.00		2.80		1.336e-02		-49.081		3.891e-03		16.206
1		0.00		3.20		1.335e-02		-53.885		3.618e-03		13.151
1		0.00		3.60		1.382e-02		-53.503		3.723e-03		12.025
1		0.00		4.00		1.443e-02		-57.367		3.708e-03		16.235
1		0.00		4.40		1.465e-02		-55.159		3.493e-03		15.747
1		0.00		4.80		1.495e-02		-57.992		3.883e-03		17.829
1		0.00		5.20		1.475e-02		-53.901		4.232e-03		17.204
1		0.00		5.60		1.590e-02		-55.883		4.318e-03		15.178
1		0.00		6.00		1.644e-02		-55.786		4.651e-03		18.570
1		0.00		6.40		1.704e-02		-52.325		4.779e-03		16.654
1		0.00		6.80		1.787e-02		-53.217		5.129e-03		13.766
1		0.00		7.20		1.894e-02		-54.513		4.601e-03		12.250
1		0.00		7.60		2.054e-02		-55.408		4.906e-03		12.246
1		0.00		8.00		2.180e-02		-56.149		5.181e-03		13.014
1		0.00		8.40		2.307e-02		-56.785		5.960e-03		14.223
1		0.00		8.80		2.474e-02		-53.458		6.502e-03		13.833
1		0.00		9.20		2.709e-02		-54.824		7.584e-03		14.774
1		0.00		9.60		2.879e-02		-54.663		8.514e-03		12.834
1		0.00		10.00		3.100e-02		-53.473		9.953e-03		12.305
1		0.00		9.60		3.307e-02		-52.820		1.042e-02		10.501
1		0.00		9.20		3.402e-02		-53.826		9.522e-03		9.546
1		0.00		8.80		3.475e-02		-54.685		8.878e-03		11.149
1		0.00		8.40		3.493e-02		-55.878		8.701e-03		11.564
1		0.00		8.00		3.459e-02		-55.537		8.911e-03		11.188
1		0.00		7.60		3.433e-02		-54.822		9.102e-03		12.167
1		0.00		7.20		3.312e-02		-54.484		9.445e-03		14.604
1		0.00		6.80		3.249e-02		-51.377		9.820e-03		13.212
1		0.00		6.40		3.219e-02		-52.151		9.812e-03		10.911
1		0.00		6.00		3.289e-02		-53.520		8.822e-03		8.032
1		0.00		5.60		3.297e-02		-53.269		7.821e-03		10.263
1		0.00		5.20		3.194e-02		-55.839		7.958e-03		11.621
1		0.00		4.80		3.151e-02		-55.163		7.800e-03		12.544
1		0.00		4.40		3.093e-02		-52.450		7.977e-03		12.651
1		0.00		4.00		3.027e-02		-53.738		8.231e-03		16.079
1		0.00		3.60		3.011e-02		-49.997		8.220e-03		19.175
1		0.00		3.20		3.034e-02		-51.632		8.776e-03		11.610
1		0.00		2.80		3.150e-02		-52.572		8.399e-03		10.154
1		0.00		2.40		3.068e-02		-56.059		7.498e-03		10.744
1		0.00		2.00		3.090e-02		-55.050		7.517e-03		11.669
1		0.00		1.60		2.963e-02		-54.967		8.154e-03		13.822
1		0.00		1.20		2.962e-02		-55.666		8.788e-03		14.385
1		0.00		0.80		2.916e-02		-53.946		8.677e-03		14.178
1		0.00		0.40		2.881e-02		-51.670		9.090e-03		16.849
1		0.00		0.00		2.871e-02		-50.938		9.024e-03		15.191
1		0.00		-0.40		2.919e-02		-53.233		9.022e-03		10.280
1		0.00		-0.80		2.892e-02		-53.968		8.099e-03		10.270
1		0.00		-1.20		2.878e-02		-55.063		7.566e-03		11.636
1		0.00		-1.60		2.714e-02		-57.008		7.713e-03		13.400
1		0.00		-2.00		2.728e-02		-55.489		7.743e-03		14.086
1		0.00		-2.40		2.585e-02		-53.612		7.465e-03		15.519
1		0.00		-2.80		2.554e-02		-52.168		7.122e-03		13.084
1		0.00		-3.20		2.419e-02		-50.967		6.969e-03		10.311
1		0.00		-3.60		2.406e-02		-52.486		6.211e-03		9.251
1		0.00		-4.00		2.294e-02		-53.478		5.569e-03		11.514
1		0.00		-4.40		2.041e-02		-55.143		5.088e-03		13.702
1		0.00		-4.80		1.758e-02		-52.968		3.798e-03		11.900
1		0.00		-5.20		1.465e-02		-50.975		3.419e-03		13.644
1		0.00		-5.60		1.097e-02		-52.718		3.155e-03		16.868
1		0.00		-6.00		7.332e-03		-53.832		2.025e-03		21.663
1		0.00		-6.40		4.103e-03		-51.494		1.385e-03		25.703
1		0.00		-6.80		1.963e-03		-19.871		8.287e-04		57.274
1		0.00		-7.20		3.112e-03		83.139		1.300e-03		63.847
1		0.00		-7.60		5.753e-03		107.673		2.068e-03		44.282
1		0.00		-8.00		8.492e-03		123.201		3.022e-03		23.424
1		0.00		-8.40		9.938e-03		123.723		3.381e-03		15.679
1		0.00		-8.80		1.200e-02		123.075		4.129e-03		21.213
1		0.00		-9.20		1.277e-02		120.735		4.280e-03		16.334
1		0.00		-9.60		1.416e-02		123.677		4.760e-03		18.182
1		0.00		-10.00		1.563e-02		123.404		4.689e-03		11.262
1		0.00		-9.60		1.621e-02		123.610		4.646e-03		9.570
1		0.00		-9.20		1.615e-02		121.655		4.252e-03		10.837
1		0.00		-8.80		1.616e-02		125.360		4.168e-03		13.243
1		0.00		-8.40		1.548e-02		126.274		4.404e-03		14.433
1		0.00		-8.00		1.475e-02		120.034		4.439e-03		21.711
1		0.00		-7.60		1.484e-02		124.575		4.742e-03		16.326
1		0.00		-7.20		1.464e-02		125.855		4.295e-03		9.884
1		0.00		-6.80		1.472e-02		125.473		4.069e-03		12.216
1		0.00		-6.40		1.401e-02		124.881		3.827e-03		11.001
1		0.00		-6.00		1.332e-02		125.196		3.387e-03		11.298
1		0.00		-5.60		1.336e-02		125.286		3.725e-03		13.062
1		0.00		-5.20		1.213e-02		122.751		3.751e-03		24.439
1		0.00		-4.80		1.143e-02		120.656		3.906e-03		26.701
1		0.00		-4.40		1.136e-02		121.089		3.864e-03		26.623
1		0.00		-4.00		1.073e-02		123.945		3.711e-03		18.824
1		0.00		-3.60		1.091e-02		123.725		3.538e-03		12.009
1		0.00		-3.20		1.060e-02		124.295		3.375e-03		13.113
1		0.00		-2.80		9.646e-03		122.036		3.318e-03		17.034
1		0.00		-2.40		9.262e-03		120.752		3.378e-03		19.908
1		0.00		-2.00		8.999e-03		121.590		3.242e-03		24.864
1		0.00		-1.60		8.801e-03		119.417		3.339e-03		23.275
1		0.00		-1.20		8.420e-03		129.543		2.810e-03		14.688
1		0.00		-0.80		8.212e-03		128.004		2.559e-03		15.036
1		0.00		-0.40		8.223e-03		125.363		2.415e-03		14.678
2		0.00		0.00		8.417e-03		121.386		2.578e-03		14.167
2		0.00		0.40		8.003e-03		124.607		2.445e-03		17.931
2		0.00		0.80		7.265e-03		121.637		2.473e-03		21.555
2		0.00		1.20		7.103e-03		123.390		2.525e-03		27.289
2		0.00		1.60		6.338e-03		123.680		2.133e-03		27.560
2		0.00		2.00		5.978e-03		124.990		2.094e-03		18.498
2		0.00		2.40		5.211e-03		125.465		1.765e-03		28.038
2		0.00		2.80		4.455e-03		123.078		1.632e-03		22.674
2		0.00		3.20		3.760e-03		110.782		1.397e-03		45.711
2		0.00		3.60		3.307e-03		107.614		1.170e-03		55.409
2		0.00		4.00		2.521e-03		68.451		1.124e-03		82.450
2		0.00		4.40		2.034e-03		13.868		7.536e-04		92.091
2		0.00		4.80		1.834e-03		-10.997		7.144e-04		83.674
2		0.00		5.20		2.171e-03		-49.266		8.660e-04		60.732
2		0.00		5.60		3.073e-03		-55.411		1.020e-03		40.825
2		0.00		6.00		3.934e-03		-51.528		1.385e-03		26.794
2		0.00		6.40		5.113e-03		-62.353		1.661e-03		23.711
2		0.00		6.80		5.777e-03		-51.939		1.952e-03		22.294
2		0.00		7.20		7.751e-03		-54.774		2.559e-03		16.868
2		0.00		7.60		9.169e-03		-58.104		2.700e-03		13.887
2		0.00		8.00		1.199e-02		-57.678		2.798e-03		15.789
2		0.00		8.40		1.462e-02		-59.317		3.454e-03		15.287
2		0.00		8.80		1.699e-02		-56.192		4.309e-03		15.187
2		0.00		9.20		1.998e-02		-54.460		5.621e-03		13.499
2		0.00		9.60		2.373e-02		-55.613		6.795e-03		17.698
2		0.00		10.00		2.645e-02		-52.819		7.352e-03		9.713
2		0.00		9.60		2.918e-02		-55.102		7.246e-03		10.142
2		0.00		9.20		2.963e-02		-56.456		7.412e-03		10.583
2		0.00		8.80		2.966e-02		-54.040		7.939e-03		12.424
2		0.00		8.40		2.974e-02		-53.823		8.490e-03		14.933
2		0.00		8.00		2.894e-02		-52.844		9.219e-03		13.004
2		0.00		7.60		2.893e-02		-53.836		9.752e-03		11.537
2		0.00		7.20		2.948e-02		-54.868		8.391e-03		10.203
2		0.00		6.80		2.860e-02		-56.169		7.846e-03		12.604
2		0.00		6.40		2.780e-02		-56.971		8.183e-03		13.537
2		0.00		6.00		2.667e-02		-56.772		8.655e-03		16.486
2		0.00		5.60		2.677e-02		-54.343		8.925e-03		14.071
2		0.00		5.20		2.660e-02		-54.655		8.730e-03		10.803
2		0.00		4.80		2.699e-02		-54.628		7.689e-03		11.003
2		0.00		4.40		2.611e-02		-57.157		7.364e-03		12.591
2		0.00		4.00		2.586e-02		-55.250		7.299e-03		13.993
2		0.00		3.60		2.541e-02		-53.805		7.338e-03		16.892
2		0.00		3.20		2.539e-02		-50.639		7.257e-03		12.688
2		0.00		2.80		2.563e-02		-54.378		6.968e-03		10.553
2		0.00		2.40		2.522e-02		-54.296		6.398e-03		12.536
2		0.00		2.00		2.490e-02		-54.827		6.233e-03		13.630
2		0.00		1.60		2.475e-02		-52.893		6.901e-03		14.136
2		0.00		1.20		2.475e-02		-51.725		7.278e-03		10.547
2		0.00		0.80		2.538e-02		-54.580		7.593e-03		9.201
2		0.00		0.40		2.530e-02		-55.589		6.534e-03		12.083
2		0.00		0.00		2.548e-02		-53.562		6.603e-03		12.881
2		0.00		-0.40		2.492e-02		-53.685		7.065e-03		15.648
2		0.00		-0.80		2.425e-02		-55.504		7.516e-03		16.440
2		0.00		-1.20		2.426e-02		-55.421		7.483e-03		13.333
2		0.00		-1.60		2.472e-02		-55.753		6.600e-03		11.487
2		0.00		-2.00		2.489e-02		-54.981		6.180e-03		11.724
2		0.00		-2.40		2.414e-02		-55.068		6.286e-03		13.388
2		0.00		-2.80		2.302e-02		-53.214		6.541e-03		14.156
2		0.00		-3.20		2.157e-02		-51.797		6.908e-03		15.336
2		0.00		-3.60		2.107e-02		-53.821		5.998e-03		11.051
2		0.00		-4.00		2.002e-02		-54.672		5.347e-03		12.067
2		0.00		-4.40		1.809e-02		-55.948		4.771e-03		12.257
2		0.00		-4.80		1.541e-02		-51.969		3.843e-03		13.641
2		0.00		-5.20		1.215e-02		-49.713		3.367e-03		15.123
2		0.00		-5.60		1.088e-02		-50.902		2.903e-03		13.689
2		0.00		-6.00		8.402e-03		-54.199		2.090e-03		14.366
2		0.00		-6.40		5.233e-03		-48.303		1.519e-03		20.612
2		0.00		-6.80		2.782e-03		-50.043		1.061e-03		41.785
2		0.00		-7.20		1.766e-03		27.700		7.374e-04		79.530
2		0.00		-7.60		4.410e-03		103.040		1.759e-03		49.167
2		0.00		-8.00		7.572e-03		117.689		2.634e-03		22.668
2		0.00		-8.40		9.846e-03		121.504		2.693e-03		17.820
2		0.00		-8.80		1.233e-02		124.306		3.524e-03		14.705
2		0.00		-9.20		1.332e-02		121.482		4.272e-03		23.349
2		0.00		-9.60		1.480e-02		120.825		5.140e-03		16.930
2		0.00		-10.00		1.677e-02		122.547		5.109e-03		12.313
2		0.00		-9.60		1.598e-02		125.378		4.751e-03		12.270
2		0.00		-9.20		1.596e-02		126.034		4.538e-03		12.077
2		0.00		-8.80		1.560e-02		124.859		4.766e-03		18.033
2		0.00		-8.40		1.560e-02		122.360		5.110e-03		26.652
2		0.00		-8.00		1.557e-02		122.802		4.705e-03		12.793
2		0.00		-7.60		1.520e-02		125.485		4.247e-03		13.136
2		0.00		-7.20		1.466e-02		123.713		3.940e-03		12.168
2		0.00		-6.80		1.430e-02		125.150		4.054e-03		17.532
2		0.00		-6.40		1.385e-02		122.757		4.492e-03		22.141
2		0.00		-6.00		1.386e-02		125.575		4.020e-03		13.588
2		0.00		-5.60		1.335e-02		124.523		3.517e-03		10.781
2		0.00		-5.20		1.281e-02		124.993		3.420e-03		12.888
2		0.00		-4.80		1.257e-02		123.562		3.565e-03		15.894
2		0.00		-4.40		1.172e-02		122.028		3.383e-03		20.871
2		0.00		-4.00		1.133e-02		125.598		3.348e-03		13.360
2		0.00		-3.60		1.127e-02		126.481		3.255e-03		18.541
2		0.00		-3.20		1.113e-02		126.060		2.906e-03		14.357
2		0.00		-2.80		1.050e-02		126.966		2.906e-03		13.490
2		0.00		-2.40		1.001e-02		125.012		2.920e-03		21.792
2		0.00		-2.00		9.961e-03		125.488		3.203e-03		15.467
2		0.00		-1.60		9.922e-03		126.081		2.881e-03		14.338
2		0.00		-1.20		9.872e-03		128.514		2.576e-03		10.310
2		0.00		-0.80		9.587e-03		125.616		2.403e-03		11.295
2		0.00		-0.40		9.052e-03		122.166		2.594e-03		16.436
3		0.00		0.00		9.067e-03		123.502		2.946e-03		23.106
3		0.00		0.40		8.365e-03		126.885		2.547e-03		17.625
3		0.00		0.80		8.420e-03		124.127		2.376e-03		12.470
3		0.00		1.20		7.227e-03		125.324		2.124e-03		18.760
3		0.00		1.60		6.926e-03		121.058		2.318e-03		20.442
3		0.00		2.00		6.350e-03		118.999		2.110e-03		25.855
3		0.00		2.40		5.842e-03		127.377		2.124e-03		14.845
3		0.00		2.80		5.244e-03		129.721		1.693e-03		28.082
3		0.00		3.20		4.286e-03		122.441		1.518e-03		35.136
3		0.00		3.60		3.349e-03		107.344		1.265e-03		54.827
3		0.00		4.00		2.881e-03		90.864		1.044e-03		67.309
3		0.00		4.40		2.330e-03		66.779		1.061e-03		82.449
3		0.00		4.80		1.942e-03		24.609		8.327e-04		81.331
3		0.00		5.20		1.802e-03		-38.003		6.577e-04		78.353
3		0.00		5.60		2.228e-03		-44.443		9.791e-04		51.734
3		0.00		6.00		3.040e-03		-60.098		1.234e-03		36.361
3		0.00		6.40		3.822e-03		-62.335		1.496e-03		26.089
3		0.00		6.80		5.503e-03		-66.476		1.753e-03		16.317
3		0.00		7.20		7.677e-03		-54.564		2.135e-03		17.935
3		0.00		7.60		9.007e-03		-58.362		2.754e-03		15.627
3		0.00		8.00		1.006e-02		-54.873		3.172e-03		15.795
3		0.00		8.40		1.198e-02		-50.880		3.844e-03		15.136
3		0.00		8.80		1.491e-02		-55.011		4.575e-03		11.069
3		0.00		9.20		1.843e-02		-55.634		4.851e-03		12.495
3		0.00		9.60		2.098e-02		-55.948		5.714e-03		13.252
3		0.00		10.00		2.377e-02		-55.377		6.924e-03		14.493
3		0.00		9.60		2.579e-02		-54.190		7.557e-03		17.264
3		0.00		9.20		2.600e-02		-53.454		7.786e-03		12.351
3		0.00		8.80		2.718e-02		-53.153		7.530e-03		11.434
3		0.00		8.40		2.778e-02		-53.096		6.581e-03		9.643
3		0.00		8.00		2.783e-02		-53.447		6.320e-03		11.048
3		0.00		7.60		2.704e-02		-52.727		6.601e-03		12.046
3		0.00		7.20		2.644e-02		-55.610		7.252e-03		16.099
3		0.00		6.80		2.636e-02		-52.095		7.477e-03		12.196
3		0.00		6.40		2.634e-02		-52.381		7.634e-03		10.828
3		0.00		6.00		2.630e-02		-53.755		6.995e-03		10.268
3		0.00		5.60		2.602e-02		-53.918		6.338e-03		10.967
3		0.00		5.20		2.483e-02		-52.907		6.378e-03		11.721
3		0.00		4.80		2.433e-02		-53.393		6.634e-03		14.208
3		0.00		4.40		2.370e-02		-54.756		7.148e-03		17.383
3		0.00		4.00		2.398e-02		-52.811		7.502e-03		11.768
3		0.00		3.60		2.378e-02		-53.746		6.689e-03		10.862
3		0.00		3.20		2.395e-02		-54.760		5.995e-03		11.353
3		0.00		2.80		2.401e-02		-53.266		5.882e-03		11.971
3		0.00		2.40		2.337e-02		-53.959		6.105e-03		12.872
3		0.00		2.00		2.365e-02		-53.860		6.905e-03		13.640
3		0.00		1.60		2.285e-02		-51.427		7.130e-03		17.556
3		0.00		1.20		2.348e-02		-54.449		7.149e-03		12.356
3		0.00		0.80		2.409e-02		-53.518		6.236e-03		10.141
3		0.00		0.40		2.455e-02		-57.015		5.640e-03		10.945
3		0.00		0.00		2.410e-02		-53.978		5.863e-03		11.912
3		0.00		-0.40		2.380e-02		-52.350		6.131e-03		12.251
3		0.00		-0.80		2.254e-02		-53.540		6.428e-03		13.740
3		0.00		-1.20		2.272e-02		-50.368		6.560e-03		11.777
3		0.00		-1.60		2.243e-02		-52.058		6.448e-03		10.548
3		0.00		-2.00		2.263e-02		-54.653		5.919e-03		9.895
3		0.00		-2.40		2.242e-02		-55.467		5.533e-03		11.741
3		0.00		-2.80		2.100e-02		-54.473		5.456e-03		13.043
3		0.00		-3.20		2.016e-02		-53.187		5.479e-03		12.987
3		0.00		-3.60		1.909e-02		-56.776		5.771e-03		17.314
3		0.00		-4.00		1.734e-02		-51.574		5.745e-03		15.026
3		0.00		-4.40		1.694e-02		-56.100		5.198e-03		13.340
3		0.00		-4.80		1.519e-02		-55.597		3.997e-03		13.224
3		0.00		-5.20		1.340e-02		-57.034		3.634e-03		14.893
3		0.00		-5.60		1.135e-02		-53.886		3.097e-03		14.995
3		0.00		-6.00		8.495e-03		-53.749		2.746e-03		19.064
3		0.00		-6.40		5.560e-03		-43.512		1.842e-03		22.775
3		0.00		-6.80		3.185e-03		-52.276		1.262e-03		28.495
3		0.00		-7.20		2.539e-03		69.137		1.160e-03		71.884
3		0.00		-7.60		5.569e-03		120.868		2.050e-03		36.381
3		0.00		-8.00		7.722e-03		120.241		2.223e-03		32.397
3		0.00		-8.40		9.181e-03		122.160		2.828e-03		20.818
3		0.00		-8.80		1.030e-02		120.961		3.086e-03		30.153
3		0.00		-9.20		1.215e-02		124.944		3.771e-03		17.700
3		0.00		-9.60		1.397e-02		124.547		4.158e-03		11.127
3		0.00		-10.00		1.541e-02		126.013		4.249e-03		10.028
3		0.00		-9.60		1.578e-02		127.886		4.215e-03		12.787
3		0.00		-9.20		1.544e-02		125.937		4.074e-03		12.778
3		0.00		-8.80		1.550e-02		125.065		4.302e-03		18.016
3		0.00		-8.40		1.500e-02		124.721		4.531e-03		20.443
3		0.00		-8.00		1.467e-02		124.528		4.502e-03		12.993
3		0.00		-7.60		1.525e-02		126.773		4.343e-03		11.958
3		0.00		-7.20		1.474e-02		126.618		3.748e-03		12.087
3		0.00		-6.80		1.417e-02		127.102		3.463e-03		10.976
3		0.00		-6.40		1.377e-02		126.184		3.683e-03		13.469
3		0.00		-6.00		1.289e-02		123.502		3.926e-03		18.632
3		0.00		-5.60		1.275e-02		122.697		4.116e-03		15.806
3		0.00		-5.20		1.263e-02		126.665		3.620e-03		12.447
3		0.00		-4.80		1.245e-02		125.891		3.599e-03		10.151
3		0.00		-4.40		1.205e-02		125.916		3.002e-03		12.925
3		0.00		-4.00		1.157e-02		127.076		3.018e-03		12.602
3		0.00		-3.60		1.108e-02		122.660		3.283e-03		19.731
3		0.00		-3.20		1.062e-02		123.575		3.105e-03		25.027
3		0.00		-2.80		1.052e-02		127.392		3.127e-03		11.105
3		0.00		-2.40		1.033e-02		123.566		2.845e-03		13.402
3		0.00		-2.00		1.000e-02		126.423		2.718e-03		14.096
3		0.00		-1.60		9.976e-03		123.852		2.501e-03		16.425
3		0.00		-1.20		9.026e-03		122.575		2.906e-03		18.738
3		0.00		-0.80		9.042e-03		123.106		2.698e-03		23.771
3		0.00		-0.40		9.008e-03		125.763		2.821e-03		13.649
4		0.00		0.00		8.595e-03		124.773		2.645e-03		14.692
4		0.00		0.40		8.334e-03		122.175		2.383e-03		21.146
4		0.00		0.80		7.612e-03		129.240		2.461e-03		14.227
4		0.00		1.20		7.367e-03		122.223		2.412e-03		19.682
4		0.00		1.60		6.852e-03		116.721		2.284e-03		30.726
4		0.00		2.00		5.977e-03		121.464		2.269e-03		33.890
4		0.00		2.40		5.793e-03		118.330		2.152e-03		32.957
4		0.00		2.80		4.769e-03		124.582		1.580e-03		32.746
4		0.00		3.20		3.989e-03		113.084		1.674e-03		36.181
4		0.00		3.60		3.314e-03		105.485		1.502e-03		48.175
4		0.00		4.00		2.811e-03		85.212		1.195e-03		66.796
4		0.00		4.40		2.475e-03		56.675		1.023e-03		78.020
4		0.00		4.80		1.840e-03		32.058		7.908e-04		84.933
4		0.00		5.20		1.983e-03		-34.252		8.198e-04		80.086
4		0.00		5.60		2.074e-03		-53.959		8.675e-04		60.299
4		0.00		6.00		2.811e-03		-71.191		1.063e-03		38.934
4		0.00		6.40		3.689e-03		-54.903		1.306e-03		31.198
4		0.00		6.80		4.711e-03		-53.439		1.667e-03		28.884
4		0.00		7.20		5.678e-03		-44.016		1.986e-03		28.052
4		0.00		7.60		7.593e-03		-51.647		2.287e-03		18.983
4		0.00		8.00		9.532e-03		-56.725		2.740e-03		14.050
4		0.00		8.40		1.091e-02		-55.570		2.674e-03		15.892
4		0.00		8.80		1.321e-02		-54.436		3.627e-03		13.584
4		0.00		9.20		1.447e-02		-55.243		4.268e-03		17.221
4		0.00		9.60		1.661e-02		-55.956		5.195e-03		18.723
4		0.00		10.00		1.989e-02		-55.082		6.642e-03		15.935
4		0.00		9.60		2.167e-02		-52.327		6.933e-03		10.805
4		0.00		9.20		2.297e-02		-54.040		6.797e-03		10.529
4		0.00		8.80		2.318e-02		-55.510		6.568e-03		13.555
4		0.00		8.40		2.331e-02		-56.282		6.597e-03		13.472
4		0.00		8.00		2.307e-02		-55.203		6.849e-03		13.313
4		0.00		7.60		2.231e-02		-57.120		6.998e-03		20.237
4		0.00		7.20		2.210e-02		-52.059		6.951e-03		21.600
4		0.00		6.80		2.249e-02		-50.082		6.843e-03		11.970
4		0.00		6.40		2.305e-02		-52.728		6.284e-03		10.999
4		0.00		6.00		2.302e-02		-55.861		5.783e-03		10.233
4		0.00		5.60		2.202e-02		-54.195		5.517e-03		12.888
4		0.00		5.20		2.179e-02		-52.468		6.083e-03		13.202
4		0.00		4.80		2.135e-02		-53.118		5.998e-03		14.413
4		0.00		4.40		2.084e-02		-51.041		6.352e-03		16.073
4		0.00		4.00		2.151e-02		-53.048		6.740e-03		13.764
4		0.00		3.60		2.123e-02		-52.628		6.321e-03		11.525
4		0.00		3.20		2.158e-02		-54.570		5.502e-03		13.465
4		0.00		2.80		2.112e-02		-54.225		5.587e-03		12.389
4		0.00		2.40		2.064e-02		-53.379		6.137e-03		14.398
4		0.00		2.00		2.018e-02		-54.493		6.811e-03		16.999
4		0.00		1.60		1.994e-02		-47.376		6.744e-03		20.308
4		0.00		1.20		2.013e-02		-54.123		6.970e-03		12.102
4		0.00		0.80		2.086e-02		-55.083		6.271e-03		12.288
4		0.00		0.40		2.043e-02		-55.579		5.725e-03		13.263
4		0.00		0.00		2.008e-02		-54.839		5.904e-03		13.313
4		0.00		-0.40		1.964e-02		-54.062		6.024e-03		16.934
4		0.00		-0.80		1.965e-02		-53.880		6.399e-03		21.440
4		0.00		-1.20		1.998e-02		-49.970		6.913e-03		13.398
4		0.00		-1.60		1.983e-02		-54.672		5.682e-03		11.118
4		0.00		-2.00		1.990e-02		-55.751		5.196e-03		12.834
4		0.00		-2.40		1.856e-02		-54.979		4.973e-03		14.363
4		0.00		-2.80		1.834e-02		-53.165		5.310e-03		14.767
4		0.00		-3.20		1.775e-02		-51.487		5.389e-03		15.613
4		0.00		-3.60		1.773e-02		-53.326		5.336e-03		11.970
4		0.00		-4.00		1.696e-02		-51.849		4.553e-03		12.496
4		0.00		-4.40		1.522e-02		-56.442		3.853e-03		15.270
4		0.00		-4.80		1.423e-02		-55.201		3.964e-03		14.992
4		0.00		-5.20		1.226e-02		-52.526		3.573e-03		16.460
4		0.00		-5.60		1.042e-02		-50.265		3.287e-03		22.075
4		0.00		-6.00		8.278e-03		-56.117		2.486e-03		14.329
4		0.00		-6.40		6.129e-03		-56.827		1.721e-03		18.917
4		0.00		-6.80		3.658e-03		-52.846		1.209e-03		28.870
4		0.00		-7.20		1.676e-03		18.837		6.622e-04		77.843
4		0.00		-7.60		3.311e-03		105.562		1.504e-03		51.070
4		0.00		-8.00		5.957e-03		124.986		2.045e-03		26.515
4		0.00		-8.40		8.586e-03		120.105		2.745e-03		24.956
4		0.00		-8.80		1.022e-02		127.064		3.157e-03		13.088
4		0.00		-9.20		1.127e-02		125.715		3.488e-03		15.651
4		0.00		-9.60		1.269e-02		119.699		4.090e-03		25.800
4		0.00		-10.00		1.389e-02		124.315		4.758e-03		17.755
4		0.00		-9.60		1.526e-02		125.226		4.475e-03		10.444
4		0.00		-9.20		1.506e-02		125.336		3.819e-03		11.489
4		0.00		-8.80		1.504e-02		125.124		3.963e-03		12.083
4		0.00		-8.40		1.419e-02		122.973		4.189e-03		17.220
4		0.00		-8.00		1.427e-02		126.139		4.374e-03		21.315
4		0.00		-7.60		1.419e-02		125.135		4.328e-03		11.416
4		0.00		-7.20		1.409e-02		126.587		3.722e-03		10.781
4		0.00		-6.80		1.343e-02		126.232		3.499e-03		13.104
4		0.00		-6.40		1.306e-02		126.879		3.386e-03		13.693
4		0.00		-6.00		1.259e-02		119.364		3.810e-03		26.689
4		0.00		-5.60		1.236e-02		126.028		3.947e-03		15.891
4		0.00		-5.20		1.248e-02		125.645		3.517e-03		10.531
4		0.00		-4.80		1.173e-02		125.686		3.313e-03		13.252
4		0.00		-4.40		1.143e-02		125.140		3.517e-03		14.925
4		0.00		-4.00		1.114e-02		119.714		3.725e-03		22.386
4		0.00		-3.60		1.027e-02		116.622		3.588e-03		28.189
4		0.00		-3.20		1.047e-02		124.211		3.573e-03		20.926
4		0.00		-2.80		1.016e-02		123.110		2.945e-03		12.857
4		0.00		-2.40		9.811e-03		125.300		2.803e-03		12.215
4		0.00		-2.00		9.483e-03		123.719		2.925e-03		18.538
4		0.00		-1.60		8.889e-03		120.835		2.761e-03		27.501
4		0.00		-1.20		8.950e-03		122.847		3.047e-03		16.022
4		0.00		-0.80		8.944e-03		125.804		2.656e-03		13.715
4		0.00		-0.40		9.067e-03		124.673		2.387e-03		12.767
5		0.00		0.00		8.245e-03		127.268		2.386e-03		13.417
5		0.00		0.40		8.118e-03		121.882		2.500e-03		23.330
5		0.00		0.80		8.048e-03		121.405		2.553e-03		26.697
5		0.00		1.20		7.675e-03		125.982		2.562e-03		17.287
5		0.00		1.60		7.148e-03		130.990		2.039e-03		14.425
5		0.00		2.00		6.676e-03		126.651		1.826e-03		25.577
5		0.00		2.40		5.956e-03		122.999		1.893e-03		24.683
5		0.00		2.80		5.321e-03		121.251		1.832e-03		28.184
5		0.00		3.20		4.684e-03		122.865		1.801e-03		40.250
5		0.00		3.60		4.014e-03		115.592		1.392e-03		35.981
5		0.00		4.00		3.071e-03		108.326		1.148e-03		57.035
5		0.00		4.40		2.845e-03		82.185		1.104e-03		77.393
5		0.00		4.80		2.444e-03		75.318		1.032e-03		78.855
5		0.00		5.20		1.748e-03		-9.174		7.620e-04		78.833
5		0.00		5.60		2.018e-03		-38.687		8.273e-04		64.977
5		0.00		6.00		2.766e-03		-61.585		1.278e-03		50.430
5		0.00		6.40		3.136e-03		-54.351		1.376e-03		39.102
5		0.00		6.80		3.768e-03		-58.333		1.461e-03		26.787
5		0.00		7.20		5.166e-03		-52.935		1.890e-03		26.222
5		0.00		7.60		6.521e-03		-49.830		2.175e-03		18.189
5		0.00		8.00		8.302e-03		-62.756		2.239e-03		17.673
5		0.00		8.40		9.609e-03		-54.625		2.483e-03		16.373
5		0.00		8.80		1.124e-02		-56.219		3.183e-03		14.868
5		0.00		9.20		1.386e-02		-56.458		3.837e-03		18.708
5		0.00		9.60		1.628e-02		-54.025		4.217e-03		10.116
5		0.00		10.00		1.855e-02		-54.683		4.355e-03		11.896
5		0.00		9.60		1.985e-02		-54.213		4.833e-03		11.860
5		0.00		9.20		2.065e-02		-54.112		5.830e-03		16.899
5		0.00		8.80		2.103e-02		-50.622		6.394e-03		15.051
5		0.00		8.40		2.230e-02		-51.414		6.093e-03		9.640
5		0.00		8.00		2.244e-02		-55.727		5.106e-03		10.479
5		0.00		7.60		2.189e-02		-54.973		5.513e-03		13.186
5		0.00		7.20		2.187e-02		-53.273		6.240e-03		15.342
5		0.00		6.80		2.162e-02		-54.703		6.392e-03		17.303
5		0.00		6.40		2.178e-02		-52.405		6.193e-03		10.061
5		0.00		6.00		2.172e-02		-54.463		5.221e-03		10.372
5		0.00		5.60		2.113e-02		-55.829		5.549e-03		13.155
5		0.00		5.20		2.062e-02		-53.928		5.516e-03		13.370
5		0.00		4.80		2.033e-02		-52.459		6.103e-03		20.854
5		0.00		4.40		2.036e-02		-52.636		6.242e-03		10.870
5		0.00		4.00		2.070e-02		-54.266		5.224e-03		10.915
5		0.00		3.60		2.088e-02		-54.966		4.982e-03		13.197
5		0.00		3.20		2.056e-02		-53.303		4.735e-03		11.958
5		0.00		2.80		2.024e-02		-50.913		5.237e-03		14.045
5		0.00		2.40		2.039e-02		-52.650		5.311e-03		11.364
5		0.00		2.00		2.098e-02		-52.393		4.784e-03		9.206
5		0.00		1.60		2.111e-02		-53.844		4.265e-03		10.514
5		0.00		1.20		2.152e-02		-49.998		3.882e-03		11.042
5		0.00		0.80		2.029e-02		-52.045		4.888e-03		14.845
5		0.00		0.40		1.999e-02		-50.718		5.408e-03		13.821
5		0.00		0.00		2.045e-02		-54.348		4.925e-03		12.320
5		0.00		-0.40		2.077e-02		-51.333		4.301e-03		9.656
5		0.00		-0.80		2.058e-02		-53.327		4.299e-03		10.861
5		0.00		-1.20		1.988e-02		-53.453		4.725e-03		11.210
5		0.00		-1.60		1.930e-02		-54.010		5.311e-03		13.391
5		0.00		-2.00		1.942e-02		-50.805		5.634e-03		10.011
5		0.00		-2.40		1.966e-02		-52.933		4.570e-03		9.183
5		0.00		-2.80		1.962e-02		-51.694		3.801e-03		10.724
5		0.00		-3.20		1.916e-02		-51.969		4.127e-03		10.674
5		0.00		-3.60		1.809e-02		-49.799		4.347e-03		13.338
5		0.00		-4.00		1.649e-02		-52.795		4.554e-03		12.651
5		0.00		-4.40		1.580e-02		-51.275		3.726e-03		11.547
5		0.00		-4.80		1.524e-02		-55.748		3.165e-03		12.057
5		0.00		-5.20		1.345e-02		-52.856		2.417e-03		11.165
5		0.00		-5.60		1.074e-02		-51.018		2.360e-03		14.053
5		0.00		-6.00		8.507e-03		-54.113		2.309e-03		15.491
5		0.00		-6.40		6.228e-03		-49.088		1.968e-03		18.067
5		0.00		-6.80		4.336e-03		-66.577		1.218e-03		22.134
5		0.00		-7.20		2.354e-03		-50.504		1.009e-03		50.853
5		0.00		-7.60		2.526e-03		88.545		1.019e-03		60.659
5		0.00		-8.00		4.938e-03		118.647		1.648e-03		28.363
5		0.00		-8.40		7.969e-03		120.944		2.360e-03		24.393
5		0.00		-8.80		1.041e-02		125.534		2.633e-03		13.747
5		0.00		-9.20		1.225e-02		124.058		2.911e-03		10.638
5		0.00		-9.60		1.376e-02		126.526		3.333e-03		11.139
5		0.00		-10.00		1.487e-02		123.431		3.941e-03		17.351
5		0.00		-9.60		1.558e-02		125.350		4.889e-03		19.192
5		0.00		-9.20		1.615e-02		126.321		4.364e-03		9.196
5		0.00		-8.80		1.593e-02		126.039		3.678e-03		9.831
5		0.00		-8.40		1.551e-02		127.459		3.868e-03		11.478
5		0.00		-8.00		1.496e-02		122.940		3.974e-03		15.296
5		0.00		-7.60		1.469e-02		123.464		4.459e-03		19.522
5		0.00		-7.20		1.453e-02		128.909		3.982e-03		9.911
5		0.00		-6.80		1.435e-02		123.795		3.662e-03		11.358
5		0.00		-6.40		1.344e-02		126.411		3.215e-03		11.355
5		0.00		-6.00		1.340e-02		124.525		3.510e-03		14.926
5		0.00		-5.60		1.275e-02		122.771		3.581e-03		21.425
5		0.00		-5.20		1.276e-02		125.768		3.357e-03		11.315
5		0.00		-4.80		1.226e-02		127.206		2.778e-03		10.120
5		0.00		-4.40		1.236e-02		129.113		2.668e-03		10.681
5		0.00		-4.00		1.188e-02		126.354		2.759e-03		15.384
5		0.00		-3.60		1.125e-02		127.541		3.155e-03		19.978
5		0.00		-3.20		1.106e-02		127.651		2.838e-03		11.673
5		0.00		-2.80		1.073e-02		126.113		2.550e-03		9.525
5		0.00		-2.40		9.976e-03		127.048		2.414e-03		12.951
5		0.00		-2.00		9.986e-03		125.720		2.702e-03		17.585
5		0.00		-1.60		9.748e-03		120.942		2.918e-03		25.034
5		0.00		-1.20		9.834e-03		121.985		2.965e-03		22.438
5		0.00		-0.80		9.949e-03		127.921		2.392e-03		13.185
5		0.00		-0.40		9.330e-03		124.372		2.227e-03		12.491
6		0.00		0.00		9.776e-03		123.510		2.392e-03		14.464
6		0.00		0.40		9.156e-03		123.888		2.712e-03		23.366
6		0.00		0.80		8.832e-03		129.997		2.564e-03		13.115
6		0.00		1.20		8.935e-03		126.732		2.164e-03		12.164
6		0.00		1.60		8.115e-03		124.360		2.038e-03		12.210
6		0.00		2.00		7.452e-03		129.652		1.909e-03		14.470
6		0.00		2.40		6.766e-03		124.937		1.950e-03		24.523
6		0.00		2.80		5.923e-03		125.611		1.724e-03		23.268
6		0.00		3.20		5.404e-03		128.586		1.703e-03		18.104
6		0.00		3.60		4.826e-03		130.433		1.574e-03		23.223
6		0.00		4.00		3.759e-03		114.644		1.148e-03		50.047
6		0.00		4.40		3.165e-03		92.522		1.295e-03		65.647
6		0.00		4.80		2.566e-03		78.700		1.106e-03		77.394
6		0.00		5.20		1.841e-03		22.798		7.248e-04		79.753
6		0.00		5.60		1.720e-03		-1.741		7.460e-04		80.983
6		0.00		6.00		2.005e-03		-49.184		7.508e-04		67.124
6		0.00		6.40		3.017e-03		-56.157		1.163e-03		34.928
6		0.00		6.80		4.000e-03		-55.623		1.386e-03		29.352
6		0.00		7.20		5.635e-03		-60.828		1.817e-03		20.922
6		0.00		7.60		6.893e-03		-51.278		1.844e-03		17.773
6		0.00		8.00		7.165e-03		-56.360		2.168e-03		19.463
6		0.00		8.40		9.043e-03		-57.161		2.634e-03		18.953
6		0.00		8.80		1.104e-02		-57.400		3.693e-03		14.833
6		0.00		9.20		1.362e-02		-55.983		3.833e-03		12.391
6		0.00		9.60		1.631e-02		-53.709		3.792e-03		11.517
6		0.00		10.00		1.848e-02		-55.816		4.689e-03		12.351
6		0.00		9.60		1.926e-02		-53.027		5.474e-03		13.271
6		0.00		9.20		2.053e-02		-52.818		6.385e-03		13.605
6		0.00		8.80		2.118e-02		-53.200		6.213e-03		9.947
6		0.00		8.40		2.200e-02		-53.893		5.187e-03		10.090
6		0.00		8.00		2.163e-02		-55.370		4.938e-03		12.019
6		0.00		7.60		2.109e-02		-53.001		5.056e-03		12.255
6		0.00		7.20		2.109e-02		-53.783		5.538e-03		16.978
6		0.00		6.80		2.085e-02		-50.688		5.781e-03		12.127
6		0.00		6.40		2.134e-02		-53.815		5.394e-03		10.124
6		0.00		6.00		2.094e-02		-53.162		4.574e-03		10.540
6		0.00		5.60		2.116e-02		-52.683		4.539e-03		11.122
6		0.00		5.20		2.041e-02		-51.714		4.685e-03		11.133
6		0.00		4.80		2.016e-02		-51.749		5.208e-03		12.008
6		0.00		4.40		1.986e-02		-51.023		5.645e-03		14.698
6		0.00		4.00		2.009e-02		-50.954		5.500e-03		9.945
6		0.00		3.60		2.064e-02		-50.857		4.634e-03		9.958
6		0.00		3.20		2.043e-02		-53.038		4.243e-03		11.049
6		0.00		2.80		2.008e-02		-51.615		4.739e-03		12.601
6		0.00		2.40		1.938e-02		-52.918		5.077e-03		13.307
6		0.00		2.00		1.936e-02		-52.006		5.528e-03		14.722
6		0.00		1.60		2.003e-02		-53.453		4.960e-03		9.830
6		0.00		1.20		2.045e-02		-54.504		4.579e-03		9.270
6		0.00		0.80		2.028e-02		-53.033		4.086e-03		10.422
6		0.00		0.40		1.971e-02		-52.371		4.642e-03		12.376
6		0.00		0.00		1.969e-02		-51.894		4.902e-03		12.796
6		0.00		-0.40		1.957e-02		-49.692		5.337e-03		11.085
6		0.00		-0.80		2.012e-02		-52.485		4.934e-03		9.029
6		0.00		-1.20		2.066e-02		-52.775		4.017e-03		8.425
6		0.00		-1.60		2.101e-02		-53.504		3.642e-03		9.342
6		0.00		-2.00		2.017e-02		-51.636		4.194e-03		11.639
6		0.00		-2.40		1.903e-02		-52.706		4.512e-03		12.692
6		0.00		-2.80		1.897e-02		-51.239		4.499e-03		11.908
6		0.00		-3.20		1.798e-02		-51.498		4.692e-03		10.936
6		0.00		-3.60		1.736e-02		-53.133		3.930e-03		10.298
6		0.00		-4.00		1.719e-02		-52.975		3.458e-03		9.682
6		0.00		-4.40		1.560e-02		-52.658		3.291e-03		11.862
6		0.00		-4.80		1.401e-02		-51.549		3.315e-03		12.932
6		0.00		-5.20		1.255e-02		-54.475		3.306e-03		16.243
6		0.00		-5.60		1.084e-02		-49.837		3.182e-03		18.916
6		0.00		-6.00		8.972e-03		-56.921		2.611e-03		15.377
6		0.00		-6.40		6.912e-03		-50.096		1.882e-03		17.254
6		0.00		-6.80		5.196e-03		-54.111		1.555e-03		19.420
6		0.00		-7.20		2.943e-03		-45.791		1.134e-03		31.041
6		0.00		-7.60		1.892e-03		25.557		8.554e-04		80.638
6		0.00		-8.00		3.107e-03		98.298		1.271e-03		60.774
6		0.00		-8.40		6.325e-03		125.891		2.029e-03		19.753
6		0.00		-8.80		8.809e-03		115.963		2.568e-03		31.889
6		0.00		-9.20		1.051e-02		123.925		2.672e-03		11.493
6		0.00		-9.60		1.270e-02		123.813		2.820e-03		10.850
6		0.00		-10.00		1.472e-02		126.174		3.438e-03		10.883
6		0.00		-9.60		1.597e-02		130.002		3.350e-03		11.677
6		0.00		-9.20		1.610e-02		124.627		4.076e-03		16.179
6		0.00		-8.80		1.604e-02		127.213		4.043e-03		19.542
6		0.00		-8.40		1.554e-02		124.530		4.147e-03		17.216
6		0.00		-8.00		1.508e-02		125.940		4.041e-03		11.082
6		0.00		-7.60		1.543e-02		125.328		3.587e-03		10.817
6		0.00		-7.20		1.514e-02		127.121		3.083e-03		10.125
6		0.00		-6.80		1.434e-02		128.448		2.990e-03		10.545
6		0.00		-6.40		1.395e-02		126.221		3.073e-03		11.434
6		0.00		-6.00		1.342e-02		130.213		3.355e-03		13.424
6		0.00		-5.60		1.349e-02		124.188		3.348e-03		16.984
6		0.00		-5.20		1.258e-02		121.935		3.595e-03		24.376
6		0.00		-4.80		1.212e-02		123.948		3.758e-03		21.484
6		0.00		-4.40		1.186e-02		125.601		3.451e-03		11.443
6		0.00		-4.00		1.203e-02		126.500		2.934e-03		11.779
6		0.00		-3.60		1.147e-02		126.944		2.764e-03		11.441
6		0.00		-3.20		1.103e-02		122.318		2.625e-03		11.672
6		0.00		-2.80		1.131e-02		123.873		2.320e-03		12.892
6		0.00		-2.40		1.087e-02		126.523		2.620e-03		13.791
6		0.00		-2.00		1.068e-02		127.212		2.678e-03		15.991
6		0.00		-1.60		1.019e-02		126.091		2.690e-03		19.873
6		0.00		-1.20		1.022e-02		123.252		2.768e-03		12.622
6		0.00		-0.80		9.949e-03		127.016		2.774e-03		13.506
6		0.00		-0.40		9.577e-03		126.221		2.482e-03		10.879
7		0.00		0.00		9.748e-03		126.396		2.494e-03		11.419
7		0.00		0.40		9.416e-03		124.095		2.159e-03		14.409
7		0.00		0.80		9.669e-03		126.823		2.421e-03		10.987
7		0.00		1.20		8.996e-03		126.276		2.038e-03		13.200
7		0.00		1.60		8.240e-03		126.726		2.447e-03		16.119
7		0.00		2.00		7.536e-03		128.911		2.044e-03		21.637
7		0.00		2.40		6.824e-03		125.590		2.117e-03		29.270
7		0.00		2.80		6.252e-03		122.485		2.156e-03		27.680
7		0.00		3.20		5.297e-03		122.547		1.814e-03		23.559
7		0.00		3.60		4.608e-03		119.754		1.672e-03		19.951
7		0.00		4.00		3.922e-03		116.533		1.330e-03		36.811
7		0.00		4.40		3.333e-03		108.624		1.118e-03		44.910
7		0.00		4.80		2.384e-03		69.036		1.078e-03		79.822
7		0.00		5.20		1.979e-03		37.338		8.636e-04		90.187
7		0.00		5.60		1.693e-03		-20.369		6.901e-04		80.534
7		0.00		6.00		2.200e-03		-52.488		8.363e-04		54.107
7		0.00		6.40		2.733e-03		-51.161		1.219e-03		50.739
7		0.00		6.80		3.480e-03		-54.062		1.350e-03		38.989
7		0.00		7.20		4.956e-03		-55.947		1.933e-03		22.336
7		0.00		7.60		6.105e-03		-60.643		2.009e-03		20.890
7		0.00		8.00		7.305e-03		-59.252		2.120e-03		15.980
7		0.00		8.40		8.755e-03		-56.591		2.293e-03		17.532
7		0.00		8.80		1.088e-02		-52.785		2.865e-03		13.964
7		0.00		9.20		1.288e-02		-55.302		3.531e-03		14.165
7		0.00		9.60		1.521e-02		-56.542		4.513e-03		15.407
7		0.00		10.00		1.745e-02		-54.237		5.124e-03		17.362
7		0.00		9.60		1.880e-02		-53.349		5.701e-03		14.658
7		0.00		9.20		2.020e-02		-53.138		6.165e-03		13.469
7		0.00		8.80		2.120e-02		-53.426		6.089e-03		9.657
7		0.00		8.40		2.162e-02		-53.835		5.741e-03		9.348
7		0.00		8.00		2.209e-02		-52.803		5.298e-03		11.439
7		0.00		7.60		2.125e-02		-53.118		5.015e-03		12.137
7		0.00		7.20		2.095e-02		-51.940		5.245e-03		12.230
7		0.00		6.80		2.103e-02		-52.260		5.094e-03		11.783
7		0.00		6.40		2.061e-02		-52.058		5.335e-03		13.261
7		0.00		6.00		2.027e-02		-53.885		5.482e-03		15.294
7		0.00		5.60		2.044e-02		-53.150		5.808e-03		13.053
7		0.00		5.20		2.062e-02		-52.289		5.393e-03		9.212
7		0.00		4.80		2.078e-02		-52.184		4.903e-03		7.754
7		0.00		4.40		2.041e-02		-53.243		4.359e-03		10.783
7		0.00		4.00		2.055e-02		-52.818		4.203e-03		10.530
7		0.00		3.60		1.971e-02		-51.284		4.278e-03		11.834
7		0.00		3.20		1.928e-02		-48.351		4.707e-03		13.150
7		0.00		2.80		1.902e-02		-50.529		5.132e-03		13.235
7		0.00		2.40		1.899e-02		-51.232		5.529e-03		16.475
7		0.00		2.00		1.876e-02		-52.286		5.818e-03		11.620
7		0.00		1.60		1.927e-02		-49.330		5.444e-03		10.671
7		0.00		1.20		1.946e-02		-52.726		5.061e-03		10.167
7		0.00		0.80		1.946e-02		-52.967		4.488e-03		11.916
7		0.00		0.40		1.969e-02		-54.653		4.694e-03		11.641
7		0.00		0.00		1.919e-02		-53.789		4.948e-03		12.952
7		0.00		-0.40		1.946e-02		-55.094		5.262e-03		15.371
7		0.00		-0.80		1.861e-02		-53.299		5.254e-03		15.307
7		0.00		-1.20		1.832e-02		-50.522		5.435e-03		11.913
7		0.00		-1.60		1.883e-02		-55.493		4.762e-03		9.394
7		0.00		-2.00		1.909e-02		-55.717		3.937e-03		9.379
7		0.00		-2.40		1.877e-02		-53.878		3.485e-03		10.234
7		0.00		-2.80		1.871e-02		-53.194		3.785e-03		11.393
7		0.00		-3.20		1.719e-02		-53.081		3.909e-03		12.272
7		0.00		-3.60		1.641e-02		-51.243		3.997e-03		12.351
7		0.00		-4.00		1.570e-02		-51.776		4.329e-03		12.246
7		0.00		-4.40		1.495e-02		-51.627		3.947e-03		10.581
7		0.00		-4.80		1.424e-02		-52.933		2.977e-03		11.366
7		0.00		-5.20		1.278e-02		-54.351		2.604e-03		14.081
7		0.00		-5.60		1.138e-02		-49.102		2.195e-03		13.923
7		0.00		-6.00		9.510e-03		-53.670		2.130e-03		13.348
7		0.00		-6.40		7.650e-03		-53.695		2.053e-03		17.819
7		0.00		-6.80		5.616e-03		-52.502		1.688e-03		20.317
7		0.00		-7.20		2.862e-03		-43.014		1.105e-03		40.406
7		0.00		-7.60		1.729e-03		21.491		6.937e-04		80.544
7		0.00		-8.00		3.952e-03		115.554		1.419e-03		25.969
7		0.00		-8.40		6.368e-03		121.602		1.819e-03		17.353
7		0.00		-8.80		8.930e-03		126.613		2.444e-03		16.711
7		0.00		-9.20		1.031e-02		123.760		2.918e-03		19.695
7		0.00		-9.60		1.146e-02		122.655		3.570e-03		25.606
7		0.00		-10.00		1.328e-02		126.081		3.777e-03		10.878
7		0.00		-9.60		1.413e-02		126.327		3.123e-03		10.039
7		0.00		-9.20		1.455e-02		124.864		3.125e-03		11.603
7		0.00		-8.80		1.478e-02		127.751		2.908e-03		11.222
7		0.00		-8.40		1.397e-02		126.446		3.609e-03		13.786
7		0.00		-8.00		1.453e-02		125.936		3.973e-03		18.253
7		0.00		-7.60		1.426e-02		126.756		3.756e-03		11.656
7		0.00		-7.20		1.397e-02		125.345		3.486e-03		9.759
7		0.00		-6.80		1.423e-02		123.835		2.916e-03		9.827
7		0.00		-6.40		1.372e-02		128.606		2.772e-03		10.324
7		0.00		-6.00		1.385e-02		125.607		3.015e-03		10.527
7		0.00		-5.60		1.269e-02		123.751		3.223e-03		16.479
7		0.00		-5.20		1.202e-02		124.985		3.740e-03		24.878
7		0.00		-4.80		1.227e-02		123.425		3.668e-03		12.268
7		0.00		-4.40		1.206e-02		126.148		3.348e-03		12.267
7		0.00		-4.00		1.161e-02		123.979		3.187e-03		12.337
7		0.00		-3.60		1.105e-02		122.421		2.978e-03		13.640
7		0.00		-3.20		1.047e-02		127.975		2.968e-03		15.039
7		0.00		-2.80		1.038e-02		122.966		3.101e-03		22.588
7		0.00		-2.40		9.996e-03		122.023		3.339e-03		19.391
7		0.00		-2.00		1.013e-02		125.823		2.813e-03		10.631
7		0.00		-1.60		9.923e-03		124.597		2.430e-03		11.823
7		0.00		-1.20		9.680e-03		127.245		2.364e-03		12.179
7		0.00		-0.80		9.177e-03		129.767		2.355e-03		15.657
7		0.00		-0.40		9.085e-03		121.619		2.652e-03		23.494
8		0.00		0.00		8.938e-03		127.715		2.560e-03		15.475
8		0.00		0.40		8.651e-03		123.029		2.277e-03		12.129
8		0.00		0.80		8.556e-03		126.988		2.307e-03		12.373
8		0.00		1.20		7.872e-03		124.665		1.745e-03		12.805
8		0.00		1.60		7.523e-03		125.969		1.907e-03		18.884
8		0.00		2.00		7.120e-03		127.610		1.896e-03		20.959
8		0.00		2.40		6.800e-03		121.791		1.986e-03		24.385
8		0.00		2.80		6.058e-03		127.102		1.791e-03		13.277
8		0.00		3.20		5.630e-03		126.990		1.646e-03		16.571
8		0.00		3.60		4.783e-03		128.671		1.485e-03		29.780
8		0.00		4.00		3.944e-03		125.340		1.223e-03		22.072
8		0.00		4.40		2.841e-03		88.952		1.222e-03		58.604
8		0.00		4.80		2.799e-03		92.964		1.078e-03		59.507
8		0.00		5.20		2.205e-03		58.493		9.295e-04		87.037
8		0.00		5.60		1.845e-03		36.133		6.862e-04		82.042
8		0.00		6.00		2.030e-03		-55.126		7.072e-04		65.680
8		0.00		6.40		2.413e-03		-50.907		1.140e-03		57.784
8		0.00		6.80		3.130e-03		-48.639		1.271e-03		38.329
8		0.00		7.20		4.818e-03		-47.997		1.711e-03		20.082
8		0.00		7.60		6.103e-03		-53.548		1.655e-03		15.961
8		0.00		8.00		8.096e-03		-52.779		1.721e-03		14.391
8		0.00		8.40		8.977e-03		-59.157		2.282e-03		16.346
8		0.00		8.80		1.096e-02		-54.729		2.914e-03		20.298
8		0.00		9.20		1.292e-02		-52.033		3.582e-03		12.375
8		0.00		9.60		1.574e-02		-53.124		3.882e-03		9.006
8		0.00		10.00		1.790e-02		-52.948		3.454e-03		10.042
8		0.00		9.60		1.949e-02		-51.839		4.164e-03		11.657
8		0.00		9.20		1.956e-02		-52.569		4.785e-03		13.935
8		0.00		8.80		2.041e-02		-52.731		5.281e-03		15.431
8		0.00		8.40		2.043e-02		-52.423		5.571e-03		10.473
8		0.00		8.00		2.073e-02		-53.573		4.882e-03		10.183
8		0.00		7.60		2.109e-02		-55.397		4.602e-03		11.680
8		0.00		7.20		2.072e-02		-53.133		5.018e-03		12.069
8		0.00		6.80		2.026e-02		-52.058		5.594e-03		13.625
8		0.00		6.40		2.018e-02		-52.338		5.789e-03		12.382
8		0.00		6.00		1.973e-02		-52.425		5.359e-03		9.309
8		0.00		5.60		2.027e-02		-52.440		4.436e-03		9.569
8		0.00		5.20		1.989e-02		-53.391		4.567e-03		10.765
8		0.00		4.80		1.946e-02		-52.330		5.185e-03		12.399
8		0.00		4.40		1.853e-02		-53.429		5.059e-03		15.171
8		0.00		4.00		1.881e-02		-53.136		4.819e-03		10.599
8		0.00		3.60		1.958e-02		-53.341		4.062e-03		9.337
8		0.00		3.20		1.931e-02		-54.938		3.791e-03		10.116
8		0.00		2.80		1.910e-02		-50.698		3.930e-03		9.685
8		0.00		2.40		1.875e-02		-51.745		4.356e-03		14.768
8		0.00		2.00		1.845e-02		-49.005		4.822e-03		11.176
8		0.00		1.60		1.930e-02		-49.692		4.438e-03		9.479
8		0.00		1.20		1.957e-02		-53.594		3.561e-03		11.505
8		0.00		0.80		1.920e-02		-50.193		3.561e-03		10.926
8		0.00		0.40		1.917e-02		-52.012		3.964e-03		10.594
8		0.00		0.00		1.891e-02		-50.973		4.525e-03		13.581
8		0.00		-0.40		1.864e-02		-51.156		5.002e-03		12.221
8		0.00		-0.80		1.883e-02		-53.289		4.869e-03		9.906
8		0.00		-1.20		1.879e-02		-53.680		3.948e-03		9.357
8		0.00		-1.60		1.875e-02		-52.532		3.496e-03		10.986
8		0.00		-2.00		1.857e-02		-51.368		4.063e-03		10.329
8		0.00		-2.40		1.784e-02		-51.414		4.819e-03		12.898
8		0.00		-2.80		1.746e-02		-50.562		4.681e-03		12.256
8		0.00		-3.20		1.689e-02		-51.411		4.190e-03		10.969
8		0.00		-3.60		1.680e-02		-53.645		3.372e-03		9.729
8		0.00		-4.00		1.652e-02		-50.083		3.135e-03		11.141
8		0.00		-4.40		1.514e-02		-50.675		3.356e-03		11.865
8		0.00		-4.80		1.390e-02		-52.578		3.285e-03		13.907
8		0.00		-5.20		1.238e-02		-48.077		3.193e-03		14.879
8		0.00		-5.60		1.095e-02		-50.308		2.733e-03		11.951
8		0.00		-6.00		9.186e-03		-52.751		2.321e-03		14.889
8		0.00		-6.40		7.253e-03		-63.821		1.599e-03		16.248
8		0.00		-6.80		3.794e-03		-40.951		1.410e-03		25.748
8		0.00		-7.20		1.983e-03		-19.234		7.707e-04		54.832
8		0.00		-7.60		2.458e-03		63.811		9.818e-04		75.089
8		0.00		-8.00		4.695e-03		121.550		1.572e-03		23.217
8		0.00		-8.40		6.611e-03		125.481		1.777e-03		14.140
8		0.00		-8.80		8.958e-03		124.489		2.285e-03		15.002
8		0.00		-9.20		1.111e-02		128.511		3.037e-03		16.476
8		0.00		-9.60		1.338e-02		127.789		3.737e-03		18.798
8		0.00		-10.00		1.439e-02		123.501		4.282e-03		20.184
8		0.00		-9.60		1.495e-02		125.307		4.363e-03		11.498
8		0.00		-9.20		1.580e-02		128.599		3.788e-03		9.159
8		0.00		-8.80		1.544e-02		125.264		3.525e-03		10.823
8		0.00		-8.40		1.468e-02		124.454		3.791e-03		12.668
8		0.00		-8.00		1.422e-02		124.606		4.120e-03		19.161
8		0.00		-7.60		1.446e-02		124.976		4.429e-03		15.345
8		0.00		-7.20		1.392e-02		127.238		4.036e-03		8.956
8		0.00		-6.80		1.429e-02		127.911		3.115e-03		9.318
8		0.00		-6.40		1.372e-02		126.747		3.208e-03		10.579
8		0.00		-6.00		1.323e-02		126.296		3.261e-03		15.120
8		0.00		-5.60		1.280e-02		125.219		3.337e-03		19.098
8		0.00		-5.20		1.280e-02		126.562		3.331e-03		12.548
8		0.00		-4.80		1.278e-02		126.700		3.059e-03		11.134
8		0.00		-4.40		1.238e-02		125.360		2.476e-03		10.982
8		0.00		-4.00		1.195e-02		126.672		2.673e-03		11.136
8		0.00		-3.60		1.134e-02		125.767		3.000e-03		15.941
8		0.00		-3.20		1.127e-02		125.786		3.014e-03		19.878
8		0.00		-2.80		1.139e-02		128.812		2.584e-03		13.131
8		0.00		-2.40		1.141e-02		128.497		2.379e-03		10.554
8		0.00		-2.00		1.089e-02		129.185		2.416e-03		11.325
8		0.00		-1.60		1.041e-02		124.762		2.460e-03		16.783
8		0.00		-1.20		1.032e-02		121.873		2.863e-03		19.573
8		0.00		-0.80		1.069e-02		124.535		2.838e-03		11.709
8		0.00		-0.40		1.053e-02		128.553		2.400e-03		9.069
