# Date of analysis: 2023-11-20 16;19
# 
# Loop index	Read Volt (V)	Write Volt (V)	Amplitude (a.u)	Phase (deg)	Sigma Amp (a.u)	Sigma Pha (deg)	
1		0.00		0.00		1.548e-02		-45.483		2.730e-03		8.529
1		0.00		0.40		1.502e-02		-45.973		2.992e-03		12.183
1		0.00		0.80		1.532e-02		-45.630		3.033e-03		10.618
1		0.00		1.20		1.560e-02		-46.929		2.622e-03		7.931
1		0.00		1.60		1.546e-02		-48.494		2.699e-03		8.769
1		0.00		2.00		1.542e-02		-44.763		2.850e-03		9.690
1		0.00		2.40		1.480e-02		-45.883		3.485e-03		11.699
1		0.00		2.80		1.486e-02		-47.122		3.062e-03		10.497
1		0.00		3.20		1.578e-02		-48.170		2.952e-03		9.394
1		0.00		3.60		1.549e-02		-49.015		2.827e-03		10.314
1		0.00		4.00		1.533e-02		-48.356		3.437e-03		11.198
1		0.00		4.40		1.609e-02		-47.897		3.942e-03		11.014
1		0.00		4.80		1.645e-02		-46.626		3.323e-03		11.244
1		0.00		5.20		1.761e-02		-49.142		3.462e-03		10.028
1		0.00		5.60		1.790e-02		-47.339		3.480e-03		9.175
1		0.00		6.00		1.876e-02		-47.430		4.285e-03		9.622
1		0.00		6.40		1.938e-02		-48.728		4.422e-03		11.205
1		0.00		6.80		2.091e-02		-48.687		3.585e-03		10.329
1		0.00		7.20		2.117e-02		-47.482		3.468e-03		8.418
1		0.00		7.60		2.226e-02		-49.072		4.109e-03		7.437
1		0.00		8.00		2.223e-02		-48.300		4.677e-03		9.833
1		0.00		8.40		2.403e-02		-50.118		4.340e-03		8.384
1		0.00		8.80		2.497e-02		-50.031		3.756e-03		6.482
1		0.00		9.20		2.591e-02		-48.773		4.298e-03		8.878
1		0.00		9.60		2.644e-02		-48.448		4.920e-03		9.374
1		0.00		10.00		2.737e-02		-51.210		5.706e-03		8.085
1		0.00		9.60		2.889e-02		-48.849		4.349e-03		7.424
1		0.00		9.20		2.992e-02		-49.208		4.041e-03		6.393
1		0.00		8.80		3.012e-02		-49.361		5.147e-03		6.383
1		0.00		8.40		2.892e-02		-52.584		6.223e-03		10.218
1		0.00		8.00		2.896e-02		-50.623		5.949e-03		8.656
1		0.00		7.60		2.986e-02		-50.680		4.441e-03		7.319
1		0.00		7.20		2.942e-02		-49.466		4.591e-03		6.811
1		0.00		6.80		2.921e-02		-48.910		5.596e-03		8.584
1		0.00		6.40		2.788e-02		-50.900		6.222e-03		9.410
1		0.00		6.00		2.876e-02		-50.948		4.948e-03		8.016
1		0.00		5.60		2.911e-02		-49.969		3.918e-03		6.447
1		0.00		5.20		2.838e-02		-50.686		4.750e-03		5.969
1		0.00		4.80		2.760e-02		-50.168		5.878e-03		8.956
1		0.00		4.40		2.760e-02		-49.532		5.501e-03		8.613
1		0.00		4.00		2.816e-02		-50.574		4.160e-03		6.285
1		0.00		3.60		2.786e-02		-49.864		4.296e-03		7.590
1		0.00		3.20		2.777e-02		-49.328		5.012e-03		8.392
1		0.00		2.80		2.705e-02		-50.181		5.739e-03		9.560
1		0.00		2.40		2.740e-02		-49.913		4.783e-03		8.209
1		0.00		2.00		2.787e-02		-50.428		3.556e-03		6.535
1		0.00		1.60		2.791e-02		-48.234		4.111e-03		7.165
1		0.00		1.20		2.693e-02		-48.963		5.456e-03		8.193
1		0.00		0.80		2.666e-02		-49.502		5.491e-03		9.186
1		0.00		0.40		2.776e-02		-49.541		4.425e-03		7.210
1		0.00		0.00		2.763e-02		-50.336		4.213e-03		7.118
1		0.00		-0.40		2.702e-02		-48.539		4.900e-03		7.790
1		0.00		-0.80		2.588e-02		-51.106		5.948e-03		10.537
1		0.00		-1.20		2.543e-02		-49.732		5.740e-03		8.384
1		0.00		-1.60		2.621e-02		-50.286		4.392e-03		7.002
1		0.00		-2.00		2.523e-02		-47.047		3.919e-03		7.809
1		0.00		-2.40		2.477e-02		-47.991		5.114e-03		7.912
1		0.00		-2.80		2.441e-02		-48.264		5.705e-03		9.139
1		0.00		-3.20		2.372e-02		-49.308		4.826e-03		9.004
1		0.00		-3.60		2.424e-02		-51.448		4.148e-03		8.186
1		0.00		-4.00		2.374e-02		-47.377		4.083e-03		6.536
1		0.00		-4.40		2.223e-02		-47.991		4.654e-03		9.520
1		0.00		-4.80		2.179e-02		-49.542		4.564e-03		10.998
1		0.00		-5.20		2.180e-02		-47.140		3.895e-03		8.716
1		0.00		-5.60		2.001e-02		-48.805		3.355e-03		7.820
1		0.00		-6.00		1.916e-02		-51.233		3.608e-03		14.970
1		0.00		-6.40		1.842e-02		-46.912		3.547e-03		9.893
1		0.00		-6.80		1.706e-02		-47.444		3.732e-03		9.945
1		0.00		-7.20		1.609e-02		-48.034		2.788e-03		8.993
1		0.00		-7.60		1.449e-02		-46.408		2.169e-03		10.080
1		0.00		-8.00		1.254e-02		-48.472		2.420e-03		12.918
1		0.00		-8.40		1.004e-02		-42.826		2.333e-03		13.386
1		0.00		-8.80		8.019e-03		-42.917		1.924e-03		15.043
1		0.00		-9.20		6.551e-03		-36.993		1.457e-03		17.286
1		0.00		-9.60		3.162e-03		-29.414		9.558e-04		32.178
1		0.00		-10.00		1.969e-03		-2.261		7.317e-04		50.418
1		0.00		-9.60		2.178e-03		52.869		8.365e-04		62.053
1		0.00		-9.20		2.400e-03		63.881		1.007e-03		48.559
1		0.00		-8.80		2.772e-03		87.160		8.845e-04		38.600
1		0.00		-8.40		3.018e-03		95.170		1.204e-03		35.874
1		0.00		-8.00		2.847e-03		92.265		1.153e-03		43.287
1		0.00		-7.60		2.771e-03		80.648		1.136e-03		42.502
1		0.00		-7.20		2.540e-03		73.999		9.844e-04		57.887
1		0.00		-6.80		2.570e-03		77.081		1.020e-03		48.566
1		0.00		-6.40		2.458e-03		85.578		9.777e-04		46.392
1		0.00		-6.00		2.323e-03		58.596		1.029e-03		60.800
1		0.00		-5.60		2.150e-03		51.556		8.609e-04		61.383
1		0.00		-5.20		1.917e-03		35.352		8.555e-04		62.975
1		0.00		-4.80		2.077e-03		43.284		9.818e-04		66.653
1		0.00		-4.40		2.037e-03		53.772		7.980e-04		55.260
1		0.00		-4.00		1.944e-03		41.192		7.666e-04		61.548
1		0.00		-3.60		2.063e-03		50.163		8.857e-04		63.972
1		0.00		-3.20		1.873e-03		26.765		8.095e-04		60.170
1		0.00		-2.80		1.961e-03		37.217		7.539e-04		67.523
1		0.00		-2.40		2.109e-03		35.980		8.197e-04		61.012
1		0.00		-2.00		1.827e-03		34.204		8.681e-04		61.785
1		0.00		-1.60		1.748e-03		18.915		7.077e-04		66.695
1		0.00		-1.20		1.984e-03		26.545		7.871e-04		65.345
1		0.00		-0.80		1.897e-03		8.328		7.788e-04		63.882
1		0.00		-0.40		1.908e-03		26.689		7.686e-04		53.036
2		0.00		0.00		1.780e-03		12.438		7.803e-04		62.854
2		0.00		0.40		1.988e-03		11.114		7.443e-04		64.175
2		0.00		0.80		1.812e-03		30.349		7.599e-04		62.562
2		0.00		1.20		1.919e-03		19.662		7.536e-04		61.934
2		0.00		1.60		1.975e-03		13.379		8.579e-04		54.073
2		0.00		2.00		1.936e-03		-4.227		7.618e-04		54.766
2		0.00		2.40		2.312e-03		-12.527		9.321e-04		44.357
2		0.00		2.80		1.960e-03		-40.077		7.930e-04		50.542
2		0.00		3.20		2.657e-03		-32.073		1.180e-03		41.714
2		0.00		3.60		3.210e-03		-32.372		1.175e-03		32.401
2		0.00		4.00		4.317e-03		-50.567		1.319e-03		28.958
2		0.00		4.40		4.733e-03		-37.317		1.261e-03		20.524
2		0.00		4.80		6.071e-03		-44.232		1.388e-03		16.154
2		0.00		5.20		6.468e-03		-49.300		1.438e-03		15.752
2		0.00		5.60		7.250e-03		-41.591		1.726e-03		17.827
2		0.00		6.00		8.002e-03		-42.884		1.794e-03		16.607
2		0.00		6.40		9.385e-03		-47.728		1.819e-03		12.875
2		0.00		6.80		9.989e-03		-43.748		1.747e-03		13.622
2		0.00		7.20		1.151e-02		-50.763		2.217e-03		13.977
2		0.00		7.60		1.164e-02		-46.735		2.345e-03		13.587
2		0.00		8.00		1.224e-02		-53.073		2.609e-03		11.139
2		0.00		8.40		1.373e-02		-48.649		2.098e-03		9.608
2		0.00		8.80		1.522e-02		-49.914		2.017e-03		9.073
2		0.00		9.20		1.611e-02		-49.641		2.934e-03		9.400
2		0.00		9.60		1.706e-02		-49.478		3.588e-03		8.780
2		0.00		10.00		1.879e-02		-51.145		3.666e-03		7.800
2		0.00		9.60		2.027e-02		-49.128		2.771e-03		7.506
2		0.00		9.20		2.106e-02		-48.027		3.056e-03		7.375
2		0.00		8.80		2.105e-02		-48.698		3.846e-03		7.845
2		0.00		8.40		2.091e-02		-47.984		4.263e-03		9.571
2		0.00		8.00		2.144e-02		-50.244		3.382e-03		6.182
2		0.00		7.60		2.148e-02		-47.599		2.776e-03		7.446
2		0.00		7.20		2.141e-02		-49.086		3.535e-03		8.039
2		0.00		6.80		2.078e-02		-47.783		3.770e-03		9.457
2		0.00		6.40		2.074e-02		-52.069		4.226e-03		8.832
2		0.00		6.00		2.113e-02		-49.201		2.941e-03		8.081
2		0.00		5.60		2.106e-02		-47.513		2.809e-03		7.153
2		0.00		5.20		2.073e-02		-48.947		3.571e-03		8.861
2		0.00		4.80		2.093e-02		-48.198		4.115e-03		9.555
2		0.00		4.40		2.055e-02		-48.920		3.692e-03		7.731
2		0.00		4.00		2.078e-02		-50.527		3.362e-03		7.521
2		0.00		3.60		2.065e-02		-49.973		3.650e-03		7.430
2		0.00		3.20		2.029e-02		-49.306		4.181e-03		8.145
2		0.00		2.80		1.978e-02		-48.494		4.636e-03		8.922
2		0.00		2.40		1.960e-02		-49.827		3.699e-03		9.970
2		0.00		2.00		2.034e-02		-48.239		3.044e-03		8.142
2		0.00		1.60		1.995e-02		-49.528		3.718e-03		8.530
2		0.00		1.20		1.973e-02		-48.056		4.431e-03		11.161
2		0.00		0.80		1.932e-02		-47.492		4.177e-03		9.357
2		0.00		0.40		1.978e-02		-47.800		3.291e-03		9.135
2		0.00		0.00		2.009e-02		-50.280		2.941e-03		7.178
2		0.00		-0.40		1.934e-02		-47.488		3.478e-03		9.653
2		0.00		-0.80		1.905e-02		-47.982		3.656e-03		10.199
2		0.00		-1.20		1.899e-02		-46.673		3.574e-03		8.677
2		0.00		-1.60		1.899e-02		-48.663		2.732e-03		7.394
2		0.00		-2.00		1.879e-02		-45.845		2.592e-03		9.102
2		0.00		-2.40		1.809e-02		-48.207		3.558e-03		9.132
2		0.00		-2.80		1.723e-02		-46.407		3.555e-03		10.203
2		0.00		-3.20		1.718e-02		-48.594		2.895e-03		8.532
2		0.00		-3.60		1.727e-02		-48.828		2.385e-03		8.692
2		0.00		-4.00		1.621e-02		-47.756		2.670e-03		8.327
2		0.00		-4.40		1.569e-02		-46.842		3.141e-03		9.248
2		0.00		-4.80		1.472e-02		-47.138		3.048e-03		9.723
2		0.00		-5.20		1.484e-02		-45.979		2.903e-03		9.928
2		0.00		-5.60		1.405e-02		-45.381		2.071e-03		9.848
2		0.00		-6.00		1.331e-02		-46.619		2.488e-03		12.232
2		0.00		-6.40		1.193e-02		-47.289		2.643e-03		13.178
2		0.00		-6.80		1.142e-02		-48.380		2.366e-03		13.056
2		0.00		-7.20		1.034e-02		-50.167		2.070e-03		13.860
2		0.00		-7.60		9.407e-03		-45.805		1.589e-03		11.292
2		0.00		-8.00		7.538e-03		-45.873		1.615e-03		14.751
2		0.00		-8.40		5.889e-03		-42.612		1.495e-03		20.063
2		0.00		-8.80		4.705e-03		-53.459		1.543e-03		22.461
2		0.00		-9.20		3.027e-03		-16.247		1.135e-03		33.437
2		0.00		-9.60		1.826e-03		-12.106		8.319e-04		64.555
2		0.00		-10.00		2.630e-03		83.848		9.769e-04		51.569
2		0.00		-9.60		3.371e-03		103.977		1.177e-03		37.620
2		0.00		-9.20		4.387e-03		111.020		1.278e-03		22.093
2		0.00		-8.80		4.290e-03		112.582		1.265e-03		22.310
2		0.00		-8.40		4.490e-03		109.622		1.340e-03		23.571
2		0.00		-8.00		4.660e-03		111.804		1.219e-03		18.950
2		0.00		-7.60		4.504e-03		118.505		1.485e-03		22.152
2		0.00		-7.20		4.620e-03		113.401		1.412e-03		21.431
2		0.00		-6.80		4.110e-03		110.074		1.419e-03		29.141
2		0.00		-6.40		3.875e-03		110.000		1.325e-03		22.864
2		0.00		-6.00		3.592e-03		106.685		1.284e-03		30.597
2		0.00		-5.60		3.265e-03		101.711		1.134e-03		28.420
2		0.00		-5.20		3.250e-03		102.162		1.284e-03		39.449
2		0.00		-4.80		3.289e-03		101.930		1.354e-03		34.815
2		0.00		-4.40		3.459e-03		104.410		1.131e-03		46.493
2		0.00		-4.00		3.111e-03		98.616		1.011e-03		41.560
2		0.00		-3.60		2.974e-03		96.648		1.093e-03		43.847
2		0.00		-3.20		3.063e-03		96.832		1.103e-03		47.232
2		0.00		-2.80		2.935e-03		95.138		1.250e-03		33.242
2		0.00		-2.40		2.713e-03		88.406		1.126e-03		46.904
2		0.00		-2.00		2.834e-03		91.437		9.432e-04		39.449
2		0.00		-1.60		2.543e-03		90.263		8.697e-04		37.847
2		0.00		-1.20		2.640e-03		91.062		9.053e-04		45.971
2		0.00		-0.80		2.983e-03		101.334		1.126e-03		38.426
2		0.00		-0.40		2.631e-03		85.582		1.151e-03		46.406
3		0.00		0.00		2.703e-03		84.793		1.107e-03		49.968
3		0.00		0.40		2.528e-03		80.093		1.018e-03		54.116
3		0.00		0.80		2.790e-03		86.575		1.047e-03		53.751
3		0.00		1.20		2.660e-03		74.731		9.983e-04		59.190
3		0.00		1.60		2.539e-03		82.289		1.059e-03		38.312
3		0.00		2.00		2.134e-03		63.844		8.417e-04		61.461
3		0.00		2.40		1.797e-03		25.295		7.743e-04		60.297
3		0.00		2.80		1.841e-03		11.499		6.156e-04		65.816
3		0.00		3.20		2.242e-03		-20.589		9.161e-04		52.009
3		0.00		3.60		2.463e-03		-28.072		8.886e-04		45.388
3		0.00		4.00		2.446e-03		-38.492		9.956e-04		42.256
3		0.00		4.40		3.407e-03		-37.527		1.084e-03		23.651
3		0.00		4.80		4.102e-03		-38.084		1.217e-03		21.461
3		0.00		5.20		5.258e-03		-44.814		1.513e-03		21.920
3		0.00		5.60		5.758e-03		-47.505		1.528e-03		16.120
3		0.00		6.00		6.812e-03		-39.574		1.534e-03		18.676
3		0.00		6.40		7.819e-03		-42.538		1.327e-03		15.206
3		0.00		6.80		8.625e-03		-43.689		1.574e-03		12.723
3		0.00		7.20		9.379e-03		-48.174		1.738e-03		13.198
3		0.00		7.60		9.797e-03		-44.156		1.907e-03		14.655
3		0.00		8.00		1.073e-02		-45.863		2.046e-03		10.466
3		0.00		8.40		1.215e-02		-46.888		1.833e-03		9.155
3		0.00		8.80		1.319e-02		-50.466		2.089e-03		10.302
3		0.00		9.20		1.450e-02		-48.763		2.549e-03		8.868
3		0.00		9.60		1.563e-02		-49.083		3.390e-03		9.109
3		0.00		10.00		1.790e-02		-49.070		3.517e-03		9.174
3		0.00		9.60		1.905e-02		-50.835		3.297e-03		10.605
3		0.00		9.20		1.996e-02		-49.357		3.098e-03		8.972
3		0.00		8.80		2.056e-02		-52.415		3.660e-03		7.240
3		0.00		8.40		2.005e-02		-47.913		4.429e-03		10.576
3		0.00		8.00		2.036e-02		-49.805		4.634e-03		9.587
3		0.00		7.60		2.042e-02		-50.390		3.305e-03		8.361
3		0.00		7.20		2.088e-02		-50.641		2.993e-03		8.950
3		0.00		6.80		2.016e-02		-47.743		3.496e-03		8.233
3		0.00		6.40		1.982e-02		-49.803		4.107e-03		8.733
3		0.00		6.00		1.965e-02		-48.000		4.401e-03		9.594
3		0.00		5.60		1.931e-02		-49.308		3.512e-03		8.836
3		0.00		5.20		1.941e-02		-49.839		3.039e-03		9.419
3		0.00		4.80		1.993e-02		-46.451		3.255e-03		8.086
3		0.00		4.40		1.931e-02		-49.083		3.601e-03		9.849
3		0.00		4.00		1.878e-02		-50.251		3.766e-03		10.449
3		0.00		3.60		1.943e-02		-47.073		3.070e-03		8.698
3		0.00		3.20		1.926e-02		-47.689		2.510e-03		8.661
3		0.00		2.80		1.940e-02		-47.045		3.077e-03		8.670
3		0.00		2.40		1.877e-02		-48.983		3.576e-03		10.538
3		0.00		2.00		1.890e-02		-48.477		3.742e-03		9.239
3		0.00		1.60		1.923e-02		-45.968		3.122e-03		7.300
3		0.00		1.20		1.952e-02		-48.983		2.835e-03		7.941
3		0.00		0.80		1.917e-02		-46.534		3.029e-03		7.955
3		0.00		0.40		1.822e-02		-48.895		3.563e-03		8.933
3		0.00		0.00		1.840e-02		-47.400		3.713e-03		8.245
3		0.00		-0.40		1.888e-02		-47.907		3.035e-03		7.853
3		0.00		-0.80		1.905e-02		-49.935		2.734e-03		8.436
3		0.00		-1.20		1.826e-02		-47.818		3.169e-03		9.758
3		0.00		-1.60		1.784e-02		-46.025		3.719e-03		9.590
3		0.00		-2.00		1.773e-02		-50.079		3.369e-03		8.797
3		0.00		-2.40		1.795e-02		-48.668		2.616e-03		10.152
3		0.00		-2.80		1.747e-02		-46.713		2.931e-03		9.612
3		0.00		-3.20		1.623e-02		-47.334		3.073e-03		10.617
3		0.00		-3.60		1.551e-02		-48.203		3.470e-03		8.648
3		0.00		-4.00		1.576e-02		-47.624		2.670e-03		10.944
3		0.00		-4.40		1.532e-02		-46.719		2.031e-03		9.419
3		0.00		-4.80		1.434e-02		-46.969		2.753e-03		10.857
3		0.00		-5.20		1.310e-02		-46.931		2.739e-03		12.151
3		0.00		-5.60		1.325e-02		-45.525		2.464e-03		9.046
3		0.00		-6.00		1.280e-02		-49.024		1.887e-03		10.439
3		0.00		-6.40		1.141e-02		-45.563		1.593e-03		13.657
3		0.00		-6.80		1.036e-02		-49.750		2.125e-03		12.004
3		0.00		-7.20		9.804e-03		-45.777		1.882e-03		11.265
3		0.00		-7.60		8.825e-03		-44.853		1.636e-03		13.896
3		0.00		-8.00		7.542e-03		-44.727		1.520e-03		13.701
3		0.00		-8.40		5.975e-03		-37.479		1.660e-03		19.145
3		0.00		-8.80		4.233e-03		-21.328		1.475e-03		24.227
3		0.00		-9.20		3.070e-03		-32.587		1.201e-03		35.161
3		0.00		-9.60		1.841e-03		16.227		7.043e-04		66.432
3		0.00		-10.00		2.402e-03		69.805		9.959e-04		58.403
3		0.00		-9.60		3.562e-03		105.605		1.361e-03		32.993
3		0.00		-9.20		3.782e-03		107.062		1.333e-03		33.052
3		0.00		-8.80		4.545e-03		106.893		1.372e-03		18.144
3		0.00		-8.40		4.530e-03		115.434		1.359e-03		23.048
3		0.00		-8.00		4.324e-03		112.412		1.580e-03		25.443
3		0.00		-7.60		3.999e-03		102.742		1.507e-03		43.981
3		0.00		-7.20		3.823e-03		108.586		1.367e-03		31.764
3		0.00		-6.80		4.090e-03		108.713		1.456e-03		36.255
3		0.00		-6.40		3.655e-03		99.083		1.434e-03		54.495
3		0.00		-6.00		3.887e-03		111.768		1.244e-03		26.681
3		0.00		-5.60		3.710e-03		105.914		1.342e-03		27.565
3		0.00		-5.20		3.305e-03		97.815		1.186e-03		37.405
3		0.00		-4.80		3.534e-03		106.141		1.094e-03		37.198
3		0.00		-4.40		3.433e-03		94.109		1.304e-03		30.877
3		0.00		-4.00		3.093e-03		93.802		1.167e-03		34.993
3		0.00		-3.60		3.374e-03		98.868		1.222e-03		44.152
3		0.00		-3.20		2.951e-03		94.937		1.030e-03		41.217
3		0.00		-2.80		3.303e-03		97.377		1.101e-03		52.795
3		0.00		-2.40		3.107e-03		101.475		1.101e-03		32.747
3		0.00		-2.00		2.901e-03		79.743		1.104e-03		48.466
3		0.00		-1.60		2.822e-03		89.954		1.072e-03		38.172
3		0.00		-1.20		3.010e-03		87.141		8.975e-04		60.392
3		0.00		-0.80		3.050e-03		86.784		1.147e-03		41.078
3		0.00		-0.40		2.891e-03		96.768		1.097e-03		40.016
4		0.00		0.00		2.827e-03		82.345		1.104e-03		42.790
4		0.00		0.40		2.741e-03		93.839		9.825e-04		50.857
4		0.00		0.80		2.866e-03		95.071		1.131e-03		57.754
4		0.00		1.20		2.840e-03		89.050		1.131e-03		44.789
4		0.00		1.60		2.812e-03		77.563		1.130e-03		58.137
4		0.00		2.00		2.556e-03		86.077		9.194e-04		40.808
4		0.00		2.40		1.920e-03		50.689		9.026e-04		67.402
4		0.00		2.80		1.934e-03		42.512		8.331e-04		65.046
4		0.00		3.20		2.067e-03		18.802		9.066e-04		70.365
4		0.00		3.60		2.025e-03		-17.117		8.760e-04		52.532
4		0.00		4.00		2.271e-03		-45.585		9.250e-04		42.668
4		0.00		4.40		3.040e-03		-44.517		1.088e-03		27.869
4		0.00		4.80		4.099e-03		-40.444		1.147e-03		26.638
4		0.00		5.20		4.794e-03		-47.342		1.127e-03		18.389
4		0.00		5.60		5.695e-03		-52.589		1.542e-03		18.933
4		0.00		6.00		6.345e-03		-47.066		1.529e-03		14.838
4		0.00		6.40		7.447e-03		-40.838		1.308e-03		16.844
4		0.00		6.80		8.092e-03		-52.043		1.732e-03		15.877
4		0.00		7.20		8.451e-03		-49.732		2.015e-03		12.706
4		0.00		7.60		9.320e-03		-51.161		1.695e-03		13.131
4		0.00		8.00		1.044e-02		-46.858		1.895e-03		14.060
4		0.00		8.40		1.087e-02		-47.811		2.717e-03		14.044
4		0.00		8.80		1.215e-02		-51.047		2.562e-03		10.797
4		0.00		9.20		1.361e-02		-47.158		2.288e-03		9.987
4		0.00		9.60		1.422e-02		-46.873		2.951e-03		10.814
4		0.00		10.00		1.571e-02		-49.463		4.043e-03		10.032
4		0.00		9.60		1.643e-02		-48.033		3.396e-03		9.059
4		0.00		9.20		1.714e-02		-49.948		3.000e-03		12.058
4		0.00		8.80		1.787e-02		-51.644		3.682e-03		8.798
4		0.00		8.40		1.777e-02		-48.293		3.893e-03		9.841
4		0.00		8.00		1.795e-02		-51.352		2.803e-03		9.713
4		0.00		7.60		1.810e-02		-48.589		2.555e-03		8.949
4		0.00		7.20		1.790e-02		-48.965		3.672e-03		7.612
4		0.00		6.80		1.772e-02		-50.522		3.468e-03		10.945
4		0.00		6.40		1.790e-02		-48.912		2.669e-03		8.260
4		0.00		6.00		1.772e-02		-50.823		3.095e-03		9.756
4		0.00		5.60		1.713e-02		-48.358		3.530e-03		8.253
4		0.00		5.20		1.775e-02		-49.006		2.647e-03		8.403
4		0.00		4.80		1.795e-02		-50.064		2.798e-03		8.142
4		0.00		4.40		1.691e-02		-49.889		3.502e-03		11.714
4		0.00		4.00		1.708e-02		-48.061		3.309e-03		9.234
4		0.00		3.60		1.737e-02		-50.393		2.646e-03		9.309
4		0.00		3.20		1.717e-02		-48.565		3.144e-03		10.236
4		0.00		2.80		1.692e-02		-49.954		3.567e-03		9.795
4		0.00		2.40		1.746e-02		-48.279		2.633e-03		9.603
4		0.00		2.00		1.712e-02		-46.599		2.560e-03		8.703
4		0.00		1.60		1.676e-02		-49.131		3.308e-03		10.748
4		0.00		1.20		1.687e-02		-47.788		3.267e-03		10.926
4		0.00		0.80		1.706e-02		-47.924		2.680e-03		8.058
4		0.00		0.40		1.715e-02		-48.128		2.933e-03		10.261
4		0.00		0.00		1.630e-02		-49.763		3.680e-03		9.655
4		0.00		-0.40		1.718e-02		-45.708		2.577e-03		8.934
4		0.00		-0.80		1.676e-02		-48.392		2.563e-03		7.293
4		0.00		-1.20		1.629e-02		-47.392		3.445e-03		9.703
4		0.00		-1.60		1.620e-02		-46.481		3.191e-03		7.622
4		0.00		-2.00		1.610e-02		-47.998		2.547e-03		9.526
4		0.00		-2.40		1.537e-02		-47.156		2.608e-03		9.629
4		0.00		-2.80		1.505e-02		-45.664		3.313e-03		10.161
4		0.00		-3.20		1.454e-02		-48.129		2.541e-03		10.360
4		0.00		-3.60		1.425e-02		-47.229		2.173e-03		9.272
4		0.00		-4.00		1.350e-02		-49.251		2.796e-03		11.779
4		0.00		-4.40		1.276e-02		-47.553		2.745e-03		9.711
4		0.00		-4.80		1.322e-02		-46.476		2.079e-03		9.876
4		0.00		-5.20		1.196e-02		-40.493		2.000e-03		9.694
4		0.00		-5.60		1.136e-02		-49.681		2.600e-03		10.616
4		0.00		-6.00		1.088e-02		-46.168		2.222e-03		9.400
4		0.00		-6.40		9.867e-03		-48.642		1.824e-03		14.569
4		0.00		-6.80		8.704e-03		-51.073		2.303e-03		16.162
4		0.00		-7.20		8.071e-03		-45.486		1.887e-03		15.353
4		0.00		-7.60		6.978e-03		-37.262		1.530e-03		19.841
4		0.00		-8.00		5.827e-03		-42.473		1.563e-03		23.627
4		0.00		-8.40		4.445e-03		-39.573		1.270e-03		25.583
4		0.00		-8.80		3.998e-03		-26.175		1.242e-03		21.393
4		0.00		-9.20		2.388e-03		-27.266		1.007e-03		47.397
4		0.00		-9.60		1.824e-03		-8.150		6.815e-04		71.524
4		0.00		-10.00		2.870e-03		100.511		1.047e-03		43.147
4		0.00		-9.60		3.876e-03		106.250		1.524e-03		28.971
4		0.00		-9.20		4.664e-03		108.933		1.176e-03		24.641
4		0.00		-8.80		4.775e-03		115.937		1.519e-03		23.477
4		0.00		-8.40		4.783e-03		105.290		1.612e-03		21.144
4		0.00		-8.00		4.907e-03		115.053		1.434e-03		39.594
4		0.00		-7.60		5.097e-03		114.952		1.436e-03		19.000
4		0.00		-7.20		4.623e-03		114.334		1.397e-03		30.801
4		0.00		-6.80		4.359e-03		109.338		1.530e-03		29.995
4		0.00		-6.40		4.490e-03		116.696		1.354e-03		34.411
4		0.00		-6.00		4.222e-03		103.092		1.455e-03		28.938
4		0.00		-5.60		3.747e-03		106.252		1.216e-03		28.040
4		0.00		-5.20		3.725e-03		112.728		1.167e-03		27.705
4		0.00		-4.80		3.933e-03		114.716		1.111e-03		19.227
4		0.00		-4.40		3.585e-03		108.148		1.229e-03		35.456
4		0.00		-4.00		3.459e-03		102.252		1.371e-03		30.262
4		0.00		-3.60		3.714e-03		109.728		1.168e-03		23.102
4		0.00		-3.20		3.634e-03		107.094		1.315e-03		25.999
4		0.00		-2.80		3.159e-03		98.785		1.207e-03		38.953
4		0.00		-2.40		3.490e-03		100.776		1.231e-03		36.130
4		0.00		-2.00		3.589e-03		109.156		1.212e-03		26.825
4		0.00		-1.60		3.469e-03		98.150		1.258e-03		32.552
4		0.00		-1.20		3.480e-03		108.769		1.162e-03		29.689
4		0.00		-0.80		3.877e-03		108.271		1.307e-03		30.502
4		0.00		-0.40		3.382e-03		100.238		1.255e-03		41.808
5		0.00		0.00		3.169e-03		92.699		1.182e-03		38.611
5		0.00		0.40		3.138e-03		95.604		1.087e-03		38.087
5		0.00		0.80		3.198e-03		91.276		1.108e-03		41.817
5		0.00		1.20		3.082e-03		90.453		1.229e-03		46.175
5		0.00		1.60		2.965e-03		98.661		1.218e-03		42.579
5		0.00		2.00		2.522e-03		82.288		8.904e-04		55.001
5		0.00		2.40		2.328e-03		64.523		1.012e-03		62.593
5		0.00		2.80		2.322e-03		54.060		9.640e-04		59.225
5		0.00		3.20		1.905e-03		37.616		8.307e-04		57.565
5		0.00		3.60		1.887e-03		3.597		7.008e-04		60.122
5		0.00		4.00		2.150e-03		-18.827		8.509e-04		51.410
5		0.00		4.40		2.738e-03		-53.176		1.063e-03		33.979
5		0.00		4.80		3.337e-03		-48.849		1.055e-03		28.504
5		0.00		5.20		4.331e-03		-43.880		1.498e-03		27.747
5		0.00		5.60		4.984e-03		-33.839		1.214e-03		16.750
5		0.00		6.00		5.644e-03		-45.585		1.495e-03		19.298
5		0.00		6.40		6.426e-03		-47.162		1.692e-03		16.654
5		0.00		6.80		7.264e-03		-52.005		1.693e-03		13.299
5		0.00		7.20		8.158e-03		-50.134		1.530e-03		15.180
5		0.00		7.60		8.268e-03		-43.034		2.010e-03		16.069
5		0.00		8.00		9.167e-03		-45.979		2.458e-03		15.125
5		0.00		8.40		1.105e-02		-48.856		2.102e-03		9.883
5		0.00		8.80		1.140e-02		-48.041		2.467e-03		11.874
5		0.00		9.20		1.230e-02		-49.260		3.025e-03		13.396
5		0.00		9.60		1.397e-02		-48.260		2.163e-03		11.088
5		0.00		10.00		1.527e-02		-50.503		2.565e-03		9.247
5		0.00		9.60		1.569e-02		-48.603		3.455e-03		9.720
5		0.00		9.20		1.642e-02		-47.918		2.920e-03		9.069
5		0.00		8.80		1.737e-02		-48.067		2.989e-03		9.343
5		0.00		8.40		1.712e-02		-47.923		3.645e-03		9.579
5		0.00		8.00		1.733e-02		-49.018		3.354e-03		8.225
5		0.00		7.60		1.752e-02		-48.553		2.530e-03		9.060
5		0.00		7.20		1.717e-02		-49.561		3.479e-03		10.350
5		0.00		6.80		1.730e-02		-47.059		3.765e-03		8.057
5		0.00		6.40		1.745e-02		-49.245		2.607e-03		9.662
5		0.00		6.00		1.741e-02		-50.662		3.301e-03		8.808
5		0.00		5.60		1.659e-02		-47.291		3.809e-03		10.183
5		0.00		5.20		1.718e-02		-45.973		2.905e-03		9.439
5		0.00		4.80		1.652e-02		-47.835		2.763e-03		9.282
5		0.00		4.40		1.648e-02		-47.880		3.614e-03		10.577
5		0.00		4.00		1.643e-02		-48.273		2.891e-03		9.887
5		0.00		3.60		1.660e-02		-47.718		2.799e-03		9.414
5		0.00		3.20		1.612e-02		-48.874		3.485e-03		9.347
5		0.00		2.80		1.600e-02		-50.620		2.920e-03		9.310
5		0.00		2.40		1.637e-02		-48.229		2.531e-03		7.547
5		0.00		2.00		1.614e-02		-48.729		2.938e-03		7.860
5		0.00		1.60		1.565e-02		-46.663		3.413e-03		8.613
5		0.00		1.20		1.620e-02		-50.305		2.438e-03		9.089
5		0.00		0.80		1.594e-02		-48.027		2.993e-03		8.398
5		0.00		0.40		1.542e-02		-48.001		3.139e-03		8.949
5		0.00		0.00		1.618e-02		-46.937		2.335e-03		9.409
5		0.00		-0.40		1.634e-02		-47.090		2.791e-03		9.860
5		0.00		-0.80		1.590e-02		-48.383		3.421e-03		8.480
5		0.00		-1.20		1.586e-02		-47.079		3.104e-03		7.383
5		0.00		-1.60		1.600e-02		-47.154		2.340e-03		8.397
5		0.00		-2.00		1.525e-02		-43.417		2.845e-03		12.048
5		0.00		-2.40		1.488e-02		-47.067		3.190e-03		9.314
5		0.00		-2.80		1.490e-02		-49.069		2.236e-03		8.194
5		0.00		-3.20		1.395e-02		-46.511		2.856e-03		9.936
5		0.00		-3.60		1.317e-02		-44.503		3.174e-03		10.483
5		0.00		-4.00		1.361e-02		-48.446		2.708e-03		8.079
5		0.00		-4.40		1.300e-02		-44.499		2.515e-03		11.162
5		0.00		-4.80		1.201e-02		-51.338		2.775e-03		11.515
5		0.00		-5.20		1.160e-02		-46.976		2.347e-03		8.223
5		0.00		-5.60		1.135e-02		-45.059		1.937e-03		11.167
5		0.00		-6.00		9.996e-03		-46.827		2.480e-03		12.689
5		0.00		-6.40		9.511e-03		-44.844		2.116e-03		11.831
5		0.00		-6.80		8.777e-03		-48.738		1.731e-03		12.828
5		0.00		-7.20		7.508e-03		-48.214		2.197e-03		16.498
5		0.00		-7.60		6.217e-03		-48.326		1.731e-03		18.468
5		0.00		-8.00		5.693e-03		-54.583		1.431e-03		17.036
5		0.00		-8.40		4.210e-03		-57.079		1.238e-03		17.184
5		0.00		-8.80		2.951e-03		-50.901		1.168e-03		44.713
5		0.00		-9.20		2.052e-03		-6.495		1.005e-03		51.305
5		0.00		-9.60		1.973e-03		30.244		9.275e-04		59.825
5		0.00		-10.00		2.857e-03		86.522		1.243e-03		58.386
5		0.00		-9.60		4.177e-03		110.948		1.128e-03		28.303
5		0.00		-9.20		4.637e-03		110.884		1.215e-03		34.643
5		0.00		-8.80		4.557e-03		111.436		1.477e-03		28.016
5		0.00		-8.40		4.577e-03		109.511		1.516e-03		37.414
5		0.00		-8.00		5.164e-03		118.324		1.558e-03		19.464
5		0.00		-7.60		5.004e-03		117.187		1.503e-03		20.315
5		0.00		-7.20		4.657e-03		116.212		1.474e-03		26.288
5		0.00		-6.80		4.683e-03		117.013		1.228e-03		19.751
5		0.00		-6.40		4.511e-03		116.044		1.319e-03		20.113
5		0.00		-6.00		4.239e-03		109.283		1.312e-03		24.139
5		0.00		-5.60		4.226e-03		107.931		1.334e-03		23.134
5		0.00		-5.20		4.184e-03		113.553		1.346e-03		20.884
5		0.00		-4.80		4.226e-03		106.770		1.360e-03		26.077
5		0.00		-4.40		3.937e-03		103.257		1.443e-03		37.732
5		0.00		-4.00		4.045e-03		112.871		1.328e-03		33.036
5		0.00		-3.60		4.114e-03		110.636		1.335e-03		24.972
5		0.00		-3.20		3.550e-03		108.748		1.276e-03		37.751
5		0.00		-2.80		3.739e-03		104.730		1.232e-03		34.789
5		0.00		-2.40		3.497e-03		103.336		1.322e-03		30.238
5		0.00		-2.00		3.601e-03		105.876		1.260e-03		35.789
5		0.00		-1.60		3.685e-03		113.078		1.204e-03		21.741
5		0.00		-1.20		3.489e-03		105.260		9.934e-04		29.448
5		0.00		-0.80		3.657e-03		99.671		1.201e-03		31.554
5		0.00		-0.40		3.563e-03		105.820		1.282e-03		34.400
6		0.00		0.00		3.629e-03		104.157		1.075e-03		25.024
6		0.00		0.40		3.628e-03		105.237		1.163e-03		23.830
6		0.00		0.80		3.268e-03		105.490		1.215e-03		41.025
6		0.00		1.20		3.032e-03		95.886		1.246e-03		42.693
6		0.00		1.60		2.646e-03		93.220		9.423e-04		38.956
6		0.00		2.00		2.611e-03		81.213		1.175e-03		47.178
6		0.00		2.40		2.373e-03		81.148		9.250e-04		49.471
6		0.00		2.80		2.035e-03		64.686		8.372e-04		44.669
6		0.00		3.20		1.836e-03		29.425		8.599e-04		65.470
6		0.00		3.60		1.900e-03		2.038		7.960e-04		63.388
6		0.00		4.00		1.931e-03		-26.990		8.903e-04		61.281
6		0.00		4.40		2.487e-03		-31.270		9.187e-04		40.887
6		0.00		4.80		2.823e-03		-49.106		9.883e-04		27.831
6		0.00		5.20		3.830e-03		-61.632		1.271e-03		18.347
6		0.00		5.60		4.621e-03		-47.465		1.418e-03		24.638
6		0.00		6.00		5.663e-03		-45.022		1.542e-03		17.341
6		0.00		6.40		6.446e-03		-48.774		1.424e-03		15.489
6		0.00		6.80		7.455e-03		-48.038		1.732e-03		14.927
6		0.00		7.20		7.937e-03		-42.343		1.941e-03		13.948
6		0.00		7.60		8.891e-03		-51.788		1.688e-03		13.924
6		0.00		8.00		9.338e-03		-45.428		1.876e-03		13.874
6		0.00		8.40		1.029e-02		-53.899		2.437e-03		15.389
6		0.00		8.80		1.105e-02		-44.088		2.401e-03		12.552
6		0.00		9.20		1.239e-02		-47.276		1.930e-03		10.526
6		0.00		9.60		1.339e-02		-45.522		2.250e-03		9.804
6		0.00		10.00		1.474e-02		-48.090		3.080e-03		9.852
6		0.00		9.60		1.543e-02		-49.031		3.214e-03		9.872
6		0.00		9.20		1.626e-02		-50.282		2.741e-03		9.743
6		0.00		8.80		1.632e-02		-50.210		2.809e-03		9.704
6		0.00		8.40		1.636e-02		-45.230		3.706e-03		9.368
6		0.00		8.00		1.662e-02		-49.758		3.226e-03		10.235
6		0.00		7.60		1.674e-02		-50.687		2.389e-03		8.647
6		0.00		7.20		1.694e-02		-47.911		2.904e-03		9.494
6		0.00		6.80		1.623e-02		-50.409		3.768e-03		9.866
6		0.00		6.40		1.653e-02		-47.239		3.211e-03		8.674
6		0.00		6.00		1.624e-02		-48.896		2.590e-03		9.570
6		0.00		5.60		1.576e-02		-48.918		3.092e-03		8.647
6		0.00		5.20		1.529e-02		-47.113		3.629e-03		9.792
6		0.00		4.80		1.586e-02		-49.056		2.653e-03		10.052
6		0.00		4.40		1.567e-02		-51.167		2.549e-03		8.560
6		0.00		4.00		1.521e-02		-49.829		3.178e-03		11.169
6		0.00		3.60		1.505e-02		-46.859		3.269e-03		9.732
6		0.00		3.20		1.545e-02		-48.926		2.566e-03		9.222
6		0.00		2.80		1.573e-02		-47.482		2.515e-03		9.904
6		0.00		2.40		1.537e-02		-48.256		3.172e-03		9.504
6		0.00		2.00		1.500e-02		-47.666		3.149e-03		8.269
6		0.00		1.60		1.556e-02		-46.836		2.264e-03		11.053
6		0.00		1.20		1.582e-02		-50.675		2.726e-03		8.693
6		0.00		0.80		1.544e-02		-50.003		3.339e-03		9.346
6		0.00		0.40		1.556e-02		-44.809		3.176e-03		9.723
6		0.00		0.00		1.559e-02		-49.225		2.454e-03		8.932
6		0.00		-0.40		1.559e-02		-45.658		2.635e-03		8.564
6		0.00		-0.80		1.449e-02		-50.983		3.429e-03		13.630
6		0.00		-1.20		1.430e-02		-46.833		3.171e-03		10.284
6		0.00		-1.60		1.476e-02		-47.093		2.443e-03		9.690
6		0.00		-2.00		1.407e-02		-46.246		3.031e-03		11.341
6		0.00		-2.40		1.338e-02		-47.590		3.431e-03		11.378
6		0.00		-2.80		1.332e-02		-46.228		2.871e-03		10.870
6		0.00		-3.20		1.318e-02		-46.642		2.590e-03		10.705
6		0.00		-3.60		1.265e-02		-46.746		2.767e-03		10.416
6		0.00		-4.00		1.198e-02		-47.256		2.859e-03		13.906
6		0.00		-4.40		1.220e-02		-43.729		2.525e-03		12.058
6		0.00		-4.80		1.165e-02		-45.464		2.052e-03		10.995
6		0.00		-5.20		1.126e-02		-48.839		2.240e-03		12.565
6		0.00		-5.60		1.060e-02		-48.707		2.369e-03		12.325
6		0.00		-6.00		9.973e-03		-46.518		2.108e-03		11.380
6		0.00		-6.40		8.908e-03		-43.653		1.605e-03		14.733
6		0.00		-6.80		7.394e-03		-49.048		1.811e-03		22.681
6		0.00		-7.20		6.937e-03		-44.608		1.532e-03		19.456
6		0.00		-7.60		6.072e-03		-44.457		1.416e-03		14.806
6		0.00		-8.00		5.103e-03		-44.364		1.380e-03		17.439
6		0.00		-8.40		4.529e-03		-52.447		1.308e-03		20.356
6		0.00		-8.80		3.359e-03		-35.208		1.214e-03		28.866
6		0.00		-9.20		2.306e-03		-24.820		1.022e-03		47.159
6		0.00		-9.60		1.950e-03		20.687		8.450e-04		69.664
6		0.00		-10.00		2.516e-03		82.803		9.854e-04		41.972
6		0.00		-9.60		3.382e-03		99.538		1.207e-03		47.199
6		0.00		-9.20		4.019e-03		109.109		1.422e-03		46.178
6		0.00		-8.80		4.099e-03		103.415		1.376e-03		31.439
6		0.00		-8.40		4.540e-03		114.636		1.254e-03		19.945
6		0.00		-8.00		4.504e-03		120.387		1.548e-03		22.498
6		0.00		-7.60		4.047e-03		109.917		1.307e-03		23.844
6		0.00		-7.20		4.201e-03		120.685		1.191e-03		29.505
6		0.00		-6.80		4.059e-03		102.403		1.524e-03		33.970
6		0.00		-6.40		3.876e-03		112.684		1.154e-03		29.858
6		0.00		-6.00		3.813e-03		111.188		1.281e-03		30.855
6		0.00		-5.60		3.599e-03		113.042		1.345e-03		40.374
6		0.00		-5.20		3.659e-03		115.012		1.158e-03		30.798
6		0.00		-4.80		3.238e-03		105.111		1.324e-03		32.259
6		0.00		-4.40		3.539e-03		111.023		1.347e-03		34.028
6		0.00		-4.00		3.491e-03		107.010		1.189e-03		27.503
6		0.00		-3.60		3.194e-03		106.031		1.020e-03		28.841
6		0.00		-3.20		3.250e-03		92.444		1.219e-03		41.120
6		0.00		-2.80		3.187e-03		101.704		1.308e-03		40.866
6		0.00		-2.40		3.137e-03		96.423		1.159e-03		43.377
6		0.00		-2.00		3.117e-03		102.143		1.215e-03		37.094
6		0.00		-1.60		3.333e-03		95.046		1.170e-03		48.698
6		0.00		-1.20		3.342e-03		97.316		1.125e-03		44.817
6		0.00		-0.80		3.155e-03		108.989		1.110e-03		37.087
6		0.00		-0.40		3.250e-03		101.630		1.236e-03		38.576
7		0.00		0.00		2.954e-03		96.321		1.063e-03		37.906
7		0.00		0.40		3.029e-03		97.373		1.119e-03		35.132
7		0.00		0.80		3.020e-03		95.268		1.079e-03		35.017
7		0.00		1.20		2.938e-03		90.614		1.198e-03		39.136
7		0.00		1.60		2.763e-03		81.416		1.140e-03		58.305
7		0.00		2.00		2.991e-03		96.895		1.070e-03		47.816
7		0.00		2.40		2.860e-03		77.436		1.040e-03		57.222
7		0.00		2.80		2.131e-03		57.557		9.686e-04		53.897
7		0.00		3.20		2.004e-03		41.407		8.411e-04		57.586
7		0.00		3.60		1.905e-03		-6.306		8.896e-04		58.818
7		0.00		4.00		2.133e-03		-30.091		8.646e-04		48.460
7		0.00		4.40		2.646e-03		-38.968		1.034e-03		38.580
7		0.00		4.80		3.110e-03		-43.951		1.063e-03		32.085
7		0.00		5.20		3.894e-03		-56.426		1.195e-03		28.580
7		0.00		5.60		5.021e-03		-40.196		1.356e-03		19.328
7		0.00		6.00		5.946e-03		-44.292		1.489e-03		15.006
7		0.00		6.40		6.855e-03		-43.150		1.538e-03		14.786
7		0.00		6.80		7.266e-03		-48.988		1.658e-03		17.625
7		0.00		7.20		8.525e-03		-44.570		1.940e-03		11.286
7		0.00		7.60		9.108e-03		-50.349		1.765e-03		15.927
7		0.00		8.00		9.927e-03		-51.310		1.780e-03		12.223
7		0.00		8.40		1.004e-02		-46.246		2.398e-03		12.313
7		0.00		8.80		1.095e-02		-51.993		2.392e-03		10.469
7		0.00		9.20		1.224e-02		-46.178		1.874e-03		10.752
7		0.00		9.60		1.352e-02		-51.268		2.565e-03		8.465
7		0.00		10.00		1.462e-02		-46.192		3.460e-03		9.301
7		0.00		9.60		1.552e-02		-48.778		2.743e-03		8.851
7		0.00		9.20		1.631e-02		-49.164		2.561e-03		8.733
7		0.00		8.80		1.591e-02		-49.132		3.333e-03		9.898
7		0.00		8.40		1.588e-02		-51.027		3.687e-03		11.390
7		0.00		8.00		1.631e-02		-50.234		2.387e-03		9.315
7		0.00		7.60		1.623e-02		-46.276		2.958e-03		9.226
7		0.00		7.20		1.600e-02		-48.374		3.495e-03		10.046
7		0.00		6.80		1.593e-02		-47.504		3.040e-03		8.832
7		0.00		6.40		1.641e-02		-49.500		2.556e-03		8.103
7		0.00		6.00		1.590e-02		-47.628		2.968e-03		8.631
7		0.00		5.60		1.550e-02		-50.539		3.147e-03		9.681
7		0.00		5.20		1.595e-02		-46.253		2.439e-03		9.332
7		0.00		4.80		1.582e-02		-48.032		2.422e-03		8.316
7		0.00		4.40		1.547e-02		-48.964		3.320e-03		10.947
7		0.00		4.00		1.524e-02		-47.021		2.824e-03		9.888
7		0.00		3.60		1.560e-02		-47.468		2.565e-03		9.960
7		0.00		3.20		1.548e-02		-50.018		3.274e-03		12.727
7		0.00		2.80		1.513e-02		-46.344		3.388e-03		9.405
7		0.00		2.40		1.541e-02		-46.848		2.537e-03		7.809
7		0.00		2.00		1.499e-02		-47.679		3.121e-03		10.791
7		0.00		1.60		1.464e-02		-49.343		3.720e-03		10.255
7		0.00		1.20		1.495e-02		-48.696		3.209e-03		8.425
7		0.00		0.80		1.481e-02		-47.937		2.826e-03		8.289
7		0.00		0.40		1.428e-02		-48.452		3.605e-03		10.302
7		0.00		0.00		1.439e-02		-45.494		3.103e-03		8.924
7		0.00		-0.40		1.449e-02		-48.918		2.425e-03		9.169
7		0.00		-0.80		1.394e-02		-47.719		3.381e-03		11.561
7		0.00		-1.20		1.399e-02		-51.678		3.290e-03		9.685
7		0.00		-1.60		1.397e-02		-47.165		2.733e-03		9.625
7		0.00		-2.00		1.349e-02		-47.985		2.817e-03		10.732
7		0.00		-2.40		1.359e-02		-48.184		3.307e-03		9.790
7		0.00		-2.80		1.352e-02		-48.089		2.580e-03		8.705
7		0.00		-3.20		1.275e-02		-46.273		2.226e-03		9.277
7		0.00		-3.60		1.289e-02		-48.460		2.964e-03		12.234
7		0.00		-4.00		1.255e-02		-45.037		2.189e-03		10.804
7		0.00		-4.40		1.207e-02		-46.188		2.026e-03		10.872
7		0.00		-4.80		1.159e-02		-47.211		2.452e-03		11.737
7		0.00		-5.20		1.069e-02		-44.061		2.036e-03		10.727
7		0.00		-5.60		1.072e-02		-43.669		1.939e-03		13.257
7		0.00		-6.00		9.687e-03		-44.153		2.092e-03		12.245
7		0.00		-6.40		8.487e-03		-45.785		1.895e-03		15.662
7		0.00		-6.80		8.036e-03		-45.982		1.418e-03		13.230
7		0.00		-7.20		7.361e-03		-42.057		1.695e-03		15.818
7		0.00		-7.60		6.064e-03		-44.747		1.555e-03		16.054
7		0.00		-8.00		5.562e-03		-44.937		1.279e-03		17.604
7		0.00		-8.40		3.634e-03		-47.052		1.208e-03		26.495
7		0.00		-8.80		3.059e-03		-49.997		1.111e-03		34.040
7		0.00		-9.20		2.062e-03		-10.472		7.376e-04		53.866
7		0.00		-9.60		1.745e-03		31.550		7.804e-04		48.138
7		0.00		-10.00		2.618e-03		92.985		8.940e-04		36.423
7		0.00		-9.60		3.565e-03		107.427		1.148e-03		35.720
7		0.00		-9.20		4.262e-03		114.899		1.525e-03		21.837
7		0.00		-8.80		4.392e-03		107.112		1.594e-03		21.291
7		0.00		-8.40		5.102e-03		112.033		1.403e-03		17.623
7		0.00		-8.00		4.610e-03		114.213		1.366e-03		19.377
7		0.00		-7.60		4.519e-03		114.501		1.393e-03		27.033
7		0.00		-7.20		4.442e-03		113.318		1.431e-03		18.391
7		0.00		-6.80		4.632e-03		117.647		1.375e-03		27.380
7		0.00		-6.40		4.456e-03		114.716		1.514e-03		25.854
7		0.00		-6.00		4.481e-03		108.782		1.356e-03		23.640
7		0.00		-5.60		3.915e-03		110.084		1.422e-03		29.334
7		0.00		-5.20		4.024e-03		103.922		1.356e-03		23.037
7		0.00		-4.80		4.043e-03		111.715		1.415e-03		25.691
7		0.00		-4.40		3.995e-03		118.090		1.360e-03		24.137
7		0.00		-4.00		3.839e-03		109.559		1.379e-03		25.715
7		0.00		-3.60		4.062e-03		111.571		1.125e-03		33.165
7		0.00		-3.20		3.977e-03		111.758		1.002e-03		30.125
7		0.00		-2.80		3.667e-03		108.257		1.275e-03		28.059
7		0.00		-2.40		3.563e-03		109.310		1.250e-03		34.864
7		0.00		-2.00		3.682e-03		111.971		1.190e-03		43.079
7		0.00		-1.60		3.767e-03		109.869		1.245e-03		29.759
7		0.00		-1.20		3.345e-03		99.097		1.330e-03		41.505
7		0.00		-0.80		3.788e-03		110.753		1.278e-03		28.278
7		0.00		-0.40		3.546e-03		106.652		1.130e-03		27.417
8		0.00		0.00		3.486e-03		96.788		1.246e-03		25.261
8		0.00		0.40		3.424e-03		100.376		1.255e-03		28.495
8		0.00		0.80		3.469e-03		112.475		1.337e-03		26.683
8		0.00		1.20		3.178e-03		100.286		1.215e-03		33.146
8		0.00		1.60		3.353e-03		99.059		1.142e-03		30.585
8		0.00		2.00		2.996e-03		92.203		1.058e-03		41.534
8		0.00		2.40		2.664e-03		85.445		1.005e-03		48.249
8		0.00		2.80		2.352e-03		67.500		9.603e-04		61.625
8		0.00		3.20		1.834e-03		60.082		8.552e-04		64.071
8		0.00		3.60		1.742e-03		32.965		7.037e-04		55.950
8		0.00		4.00		1.904e-03		7.749		8.061e-04		57.814
8		0.00		4.40		2.035e-03		-19.147		7.767e-04		58.850
8		0.00		4.80		2.690e-03		-35.220		1.091e-03		35.261
8		0.00		5.20		3.352e-03		-39.883		1.203e-03		28.125
8		0.00		5.60		4.547e-03		-39.319		1.261e-03		23.851
8		0.00		6.00		5.349e-03		-50.089		1.607e-03		17.949
8		0.00		6.40		6.150e-03		-42.555		1.610e-03		14.410
8		0.00		6.80		7.124e-03		-47.997		1.265e-03		14.721
8		0.00		7.20		7.634e-03		-48.967		1.875e-03		15.263
8		0.00		7.60		8.102e-03		-46.210		1.921e-03		14.364
8		0.00		8.00		8.681e-03		-50.594		1.455e-03		12.751
8		0.00		8.40		9.765e-03		-49.612		1.753e-03		11.820
8		0.00		8.80		1.066e-02		-48.729		2.570e-03		13.762
8		0.00		9.20		1.162e-02		-46.114		2.202e-03		12.617
8		0.00		9.60		1.267e-02		-48.776		2.322e-03		11.111
8		0.00		10.00		1.413e-02		-50.079		3.290e-03		10.926
8		0.00		9.60		1.479e-02		-52.695		2.391e-03		10.265
8		0.00		9.20		1.521e-02		-52.059		2.771e-03		10.093
8		0.00		8.80		1.495e-02		-48.378		3.339e-03		9.388
8		0.00		8.40		1.566e-02		-48.684		2.548e-03		8.797
8		0.00		8.00		1.553e-02		-47.950		2.490e-03		8.851
8		0.00		7.60		1.517e-02		-47.308		3.206e-03		10.229
8		0.00		7.20		1.545e-02		-46.014		2.277e-03		8.734
8		0.00		6.80		1.507e-02		-47.680		2.126e-03		9.730
8		0.00		6.40		1.502e-02		-50.215		3.196e-03		9.066
8		0.00		6.00		1.508e-02		-46.946		2.643e-03		9.230
8		0.00		5.60		1.504e-02		-48.172		2.537e-03		10.999
8		0.00		5.20		1.491e-02		-49.083		3.229e-03		8.299
8		0.00		4.80		1.515e-02		-48.657		2.362e-03		11.007
8		0.00		4.40		1.515e-02		-46.680		2.247e-03		8.429
8		0.00		4.00		1.472e-02		-48.510		3.418e-03		10.440
8		0.00		3.60		1.455e-02		-48.778		2.639e-03		8.806
8		0.00		3.20		1.438e-02		-46.613		2.563e-03		10.072
8		0.00		2.80		1.397e-02		-49.197		3.387e-03		12.620
8		0.00		2.40		1.478e-02		-47.043		2.908e-03		9.871
8		0.00		2.00		1.423e-02		-46.021		2.635e-03		10.066
8		0.00		1.60		1.402e-02		-47.408		3.353e-03		11.950
8		0.00		1.20		1.403e-02		-49.668		2.821e-03		9.874
8		0.00		0.80		1.396e-02		-49.185		2.583e-03		9.308
8		0.00		0.40		1.347e-02		-48.592		3.148e-03		14.231
8		0.00		0.00		1.396e-02		-47.312		2.806e-03		9.367
8		0.00		-0.40		1.411e-02		-45.705		2.657e-03		9.444
8		0.00		-0.80		1.360e-02		-49.344		3.164e-03		11.791
8		0.00		-1.20		1.343e-02		-46.880		2.462e-03		7.833
8		0.00		-1.60		1.339e-02		-49.557		2.358e-03		10.103
8		0.00		-2.00		1.290e-02		-49.009		2.656e-03		10.221
8		0.00		-2.40		1.327e-02		-46.664		2.285e-03		9.297
8		0.00		-2.80		1.272e-02		-45.901		2.328e-03		10.346
8		0.00		-3.20		1.219e-02		-48.464		2.610e-03		13.052
8		0.00		-3.60		1.216e-02		-45.573		2.175e-03		8.514
8		0.00		-4.00		1.150e-02		-46.873		1.968e-03		10.816
8		0.00		-4.40		1.122e-02		-46.366		2.315e-03		10.696
8		0.00		-4.80		1.069e-02		-45.868		2.090e-03		10.502
8		0.00		-5.20		1.038e-02		-43.333		1.773e-03		9.850
8		0.00		-5.60		9.319e-03		-46.797		1.926e-03		11.954
8		0.00		-6.00		8.887e-03		-48.645		1.823e-03		13.617
8		0.00		-6.40		8.489e-03		-50.639		1.450e-03		13.057
8		0.00		-6.80		7.245e-03		-47.863		1.717e-03		15.194
8		0.00		-7.20		6.065e-03		-44.999		1.723e-03		18.360
8		0.00		-7.60		5.804e-03		-39.282		1.449e-03		18.351
8		0.00		-8.00		4.494e-03		-44.202		1.261e-03		20.612
8		0.00		-8.40		3.318e-03		-60.620		1.169e-03		27.733
8		0.00		-8.80		2.563e-03		-46.018		1.039e-03		33.925
8		0.00		-9.20		1.831e-03		-9.269		7.344e-04		55.611
8		0.00		-9.60		1.825e-03		7.852		7.635e-04		70.470
8		0.00		-10.00		2.121e-03		69.725		8.949e-04		63.321
8		0.00		-9.60		2.751e-03		94.127		1.031e-03		34.884
8		0.00		-9.20		3.195e-03		102.667		1.311e-03		39.467
8		0.00		-8.80		3.553e-03		113.356		1.072e-03		22.538
8		0.00		-8.40		3.771e-03		107.655		1.310e-03		29.829
8		0.00		-8.00		4.018e-03		105.017		1.450e-03		34.661
8		0.00		-7.60		4.527e-03		110.911		1.288e-03		22.265
8		0.00		-7.20		4.575e-03		115.294		1.361e-03		27.379
8		0.00		-6.80		3.876e-03		108.073		1.439e-03		26.374
8		0.00		-6.40		3.797e-03		109.322		1.251e-03		33.104
8		0.00		-6.00		3.779e-03		113.599		1.424e-03		33.845
8		0.00		-5.60		3.484e-03		100.248		1.159e-03		28.124
8		0.00		-5.20		3.647e-03		107.300		1.097e-03		32.244
8		0.00		-4.80		3.469e-03		98.831		1.334e-03		46.306
8		0.00		-4.40		3.811e-03		111.885		1.186e-03		27.075
8		0.00		-4.00		3.478e-03		107.532		1.248e-03		29.372
8		0.00		-3.60		3.357e-03		109.660		1.311e-03		34.413
8		0.00		-3.20		3.601e-03		103.803		1.268e-03		29.792
8		0.00		-2.80		3.274e-03		102.160		1.071e-03		41.207
8		0.00		-2.40		3.040e-03		100.074		1.114e-03		42.012
8		0.00		-2.00		3.200e-03		94.411		1.241e-03		38.365
8		0.00		-1.60		3.205e-03		109.749		1.227e-03		30.442
8		0.00		-1.20		3.023e-03		93.225		1.177e-03		43.016
8		0.00		-0.80		3.021e-03		104.952		1.195e-03		44.968
8		0.00		-0.40		3.074e-03		99.723		1.132e-03		47.725
