# Date of analysis: 2024-03-08 10;59
# Segment other properties: height: -50.42839129479981, diff height: 223.97006984306464, deflection: 35.77155690821124, deflection error: 3.080239215136727, adhesion: 37.47887041450956, phase offset: 0
# 
# Loop index	Read Volt (V)	Write Volt (V)	Amplitude (a.u)	Phase (deg)	Sigma Amp (a.u)	Sigma Pha (deg)	
1		0.00		0.00		1.021e-02		-51.745		3.130e-03		21.643
1		0.00		0.40		9.863e-03		-49.511		2.993e-03		17.152
1		0.00		0.80		9.773e-03		-48.981		3.412e-03		17.094
1		0.00		1.20		1.003e-02		-48.359		3.164e-03		17.421
1		0.00		1.60		9.912e-03		-54.309		2.848e-03		15.751
1		0.00		2.00		9.658e-03		-53.341		3.046e-03		19.462
1		0.00		2.40		9.587e-03		-55.352		2.854e-03		19.180
1		0.00		2.80		9.667e-03		-53.264		2.844e-03		20.690
1		0.00		3.20		9.851e-03		-51.774		3.251e-03		17.346
1		0.00		3.60		1.008e-02		-51.023		2.920e-03		19.669
1		0.00		4.00		1.088e-02		-49.370		3.203e-03		19.277
1		0.00		4.40		1.134e-02		-54.131		3.499e-03		15.695
1		0.00		4.80		1.185e-02		-52.606		2.929e-03		15.632
1		0.00		5.20		1.247e-02		-58.091		3.414e-03		16.358
1		0.00		5.60		1.279e-02		-56.009		3.429e-03		15.865
1		0.00		6.00		1.336e-02		-53.839		3.924e-03		14.983
1		0.00		6.40		1.388e-02		-54.886		4.082e-03		17.742
1		0.00		6.80		1.497e-02		-55.004		4.817e-03		17.205
1		0.00		7.20		1.654e-02		-53.038		5.022e-03		13.226
1		0.00		7.60		1.727e-02		-50.116		4.747e-03		13.042
1		0.00		8.00		1.855e-02		-56.520		5.055e-03		15.271
1		0.00		8.40		1.986e-02		-55.617		5.774e-03		14.491
1		0.00		8.80		2.144e-02		-53.501		6.722e-03		14.838
1		0.00		9.20		2.314e-02		-54.553		7.035e-03		14.576
1		0.00		9.60		2.491e-02		-56.439		8.148e-03		16.806
1		0.00		10.00		2.640e-02		-53.244		9.148e-03		15.830
1		0.00		9.60		2.836e-02		-54.378		9.523e-03		13.344
1		0.00		9.20		2.958e-02		-55.467		9.969e-03		10.490
1		0.00		8.80		3.012e-02		-55.860		9.233e-03		10.527
1		0.00		8.40		3.030e-02		-57.719		8.536e-03		11.822
1		0.00		8.00		2.972e-02		-56.611		8.546e-03		14.511
1		0.00		7.60		2.919e-02		-55.272		8.618e-03		15.574
1		0.00		7.20		2.841e-02		-54.936		8.465e-03		17.311
1		0.00		6.80		2.863e-02		-54.823		8.187e-03		18.593
1		0.00		6.40		2.797e-02		-50.951		8.425e-03		12.275
1		0.00		6.00		2.792e-02		-53.818		8.264e-03		12.155
1		0.00		5.60		2.821e-02		-55.562		7.831e-03		11.641
1		0.00		5.20		2.816e-02		-55.926		7.642e-03		12.603
1		0.00		4.80		2.748e-02		-55.341		7.413e-03		13.394
1		0.00		4.40		2.753e-02		-54.304		7.597e-03		14.648
1		0.00		4.00		2.653e-02		-52.744		7.483e-03		15.387
1		0.00		3.60		2.659e-02		-53.783		8.524e-03		15.069
1		0.00		3.20		2.544e-02		-52.130		8.721e-03		15.793
1		0.00		2.80		2.552e-02		-52.174		9.116e-03		14.016
1		0.00		2.40		2.596e-02		-54.374		8.818e-03		12.670
1		0.00		2.00		2.605e-02		-57.045		8.283e-03		15.445
1		0.00		1.60		2.611e-02		-57.516		8.019e-03		14.570
1		0.00		1.20		2.539e-02		-57.881		7.986e-03		15.752
1		0.00		0.80		2.500e-02		-56.085		7.576e-03		15.515
1		0.00		0.40		2.429e-02		-54.772		8.066e-03		17.855
1		0.00		0.00		2.471e-02		-53.954		8.018e-03		18.332
1		0.00		-0.40		2.441e-02		-53.746		7.653e-03		14.495
1		0.00		-0.80		2.442e-02		-52.948		7.555e-03		11.826
1		0.00		-1.20		2.517e-02		-55.165		7.302e-03		10.513
1		0.00		-1.60		2.511e-02		-55.771		6.913e-03		11.914
1		0.00		-2.00		2.402e-02		-56.558		6.447e-03		13.389
1		0.00		-2.40		2.360e-02		-53.991		6.810e-03		14.278
1		0.00		-2.80		2.302e-02		-54.413		6.472e-03		14.304
1		0.00		-3.20		2.256e-02		-54.749		6.494e-03		15.678
1		0.00		-3.60		2.146e-02		-53.092		6.558e-03		11.830
1		0.00		-4.00		2.071e-02		-54.630		6.306e-03		14.220
1		0.00		-4.40		1.964e-02		-54.437		5.590e-03		13.020
1		0.00		-4.80		1.844e-02		-53.349		5.097e-03		13.627
1		0.00		-5.20		1.638e-02		-54.068		4.198e-03		16.084
1		0.00		-5.60		1.340e-02		-51.681		3.813e-03		15.891
1		0.00		-6.00		1.007e-02		-51.023		2.755e-03		19.402
1		0.00		-6.40		6.572e-03		-48.431		1.981e-03		22.269
1		0.00		-6.80		3.085e-03		-32.613		1.437e-03		32.838
1		0.00		-7.20		2.520e-03		32.736		1.022e-03		68.791
1		0.00		-7.60		3.841e-03		95.742		1.531e-03		55.825
1		0.00		-8.00		5.823e-03		101.944		2.416e-03		39.227
1		0.00		-8.40		8.409e-03		115.409		2.893e-03		29.857
1		0.00		-8.80		9.821e-03		116.137		3.314e-03		19.196
1		0.00		-9.20		1.133e-02		120.681		3.309e-03		16.718
1		0.00		-9.60		1.225e-02		121.215		3.628e-03		12.571
1		0.00		-10.00		1.351e-02		119.436		4.122e-03		18.106
1		0.00		-9.60		1.356e-02		119.125		4.597e-03		23.051
1		0.00		-9.20		1.419e-02		120.511		4.673e-03		22.787
1		0.00		-8.80		1.428e-02		120.679		4.445e-03		14.684
1		0.00		-8.40		1.430e-02		117.982		4.435e-03		18.956
1		0.00		-8.00		1.447e-02		121.726		3.910e-03		15.482
1		0.00		-7.60		1.413e-02		119.375		3.973e-03		15.589
1		0.00		-7.20		1.385e-02		125.099		4.021e-03		13.284
1		0.00		-6.80		1.332e-02		120.106		4.185e-03		15.836
1		0.00		-6.40		1.305e-02		119.669		4.060e-03		22.691
1		0.00		-6.00		1.224e-02		115.273		4.385e-03		25.865
1		0.00		-5.60		1.186e-02		116.002		4.258e-03		25.783
1		0.00		-5.20		1.200e-02		120.186		4.366e-03		20.190
1		0.00		-4.80		1.166e-02		117.768		4.116e-03		27.102
1		0.00		-4.40		1.150e-02		122.770		3.654e-03		15.532
1		0.00		-4.00		1.101e-02		116.283		3.629e-03		33.938
1		0.00		-3.60		1.088e-02		120.414		3.522e-03		17.852
1		0.00		-3.20		1.031e-02		118.793		3.472e-03		21.856
1		0.00		-2.80		9.900e-03		120.037		3.341e-03		25.688
1		0.00		-2.40		1.001e-02		116.973		3.385e-03		18.322
1		0.00		-2.00		9.883e-03		124.473		3.370e-03		17.743
1		0.00		-1.60		9.777e-03		119.922		2.954e-03		25.810
1		0.00		-1.20		9.685e-03		121.486		2.658e-03		15.371
1		0.00		-0.80		9.205e-03		118.810		2.944e-03		24.192
1		0.00		-0.40		9.278e-03		121.530		2.750e-03		21.105
2		0.00		0.00		9.175e-03		123.174		2.869e-03		17.737
2		0.00		0.40		8.474e-03		121.201		2.726e-03		22.866
2		0.00		0.80		8.405e-03		120.540		3.002e-03		23.541
2		0.00		1.20		8.240e-03		122.798		2.782e-03		16.169
2		0.00		1.60		7.193e-03		122.951		2.417e-03		24.042
2		0.00		2.00		6.519e-03		121.007		2.068e-03		26.018
2		0.00		2.40		5.830e-03		124.430		1.823e-03		27.417
2		0.00		2.80		5.017e-03		120.964		1.757e-03		32.295
2		0.00		3.20		4.454e-03		113.708		1.741e-03		30.367
2		0.00		3.60		3.787e-03		104.752		1.655e-03		46.237
2		0.00		4.00		3.395e-03		82.586		1.392e-03		60.638
2		0.00		4.40		2.538e-03		73.872		1.187e-03		63.318
2		0.00		4.80		2.404e-03		53.221		1.033e-03		82.848
2		0.00		5.20		1.949e-03		27.630		8.651e-04		85.590
2		0.00		5.60		1.927e-03		-15.874		8.048e-04		72.391
2		0.00		6.00		2.176e-03		-34.694		1.020e-03		50.294
2		0.00		6.40		2.774e-03		-50.195		1.027e-03		40.388
2		0.00		6.80		3.918e-03		-52.695		1.488e-03		28.632
2		0.00		7.20		5.216e-03		-57.670		1.785e-03		28.098
2		0.00		7.60		6.970e-03		-54.852		2.187e-03		18.481
2		0.00		8.00		9.193e-03		-62.554		2.565e-03		14.839
2		0.00		8.40		1.138e-02		-56.940		3.190e-03		16.318
2		0.00		8.80		1.456e-02		-57.378		4.059e-03		14.566
2		0.00		9.20		1.717e-02		-54.463		4.889e-03		13.312
2		0.00		9.60		1.985e-02		-53.380		5.969e-03		14.379
2		0.00		10.00		2.309e-02		-53.777		7.746e-03		16.035
2		0.00		9.60		2.514e-02		-52.748		8.644e-03		14.139
2		0.00		9.20		2.678e-02		-54.892		8.570e-03		12.214
2		0.00		8.80		2.720e-02		-54.604		8.022e-03		10.876
2		0.00		8.40		2.844e-02		-57.083		7.972e-03		9.970
2		0.00		8.00		2.803e-02		-55.562		7.976e-03		11.594
2		0.00		7.60		2.807e-02		-56.095		8.274e-03		12.772
2		0.00		7.20		2.706e-02		-53.803		8.190e-03		14.504
2		0.00		6.80		2.638e-02		-54.335		7.968e-03		16.784
2		0.00		6.40		2.586e-02		-52.513		7.685e-03		14.056
2		0.00		6.00		2.655e-02		-52.876		7.722e-03		10.373
2		0.00		5.60		2.679e-02		-53.569		6.945e-03		10.105
2		0.00		5.20		2.584e-02		-55.063		6.555e-03		10.319
2		0.00		4.80		2.642e-02		-55.788		6.413e-03		11.587
2		0.00		4.40		2.569e-02		-54.544		6.514e-03		11.042
2		0.00		4.00		2.483e-02		-52.033		6.243e-03		13.351
2		0.00		3.60		2.472e-02		-51.645		6.218e-03		13.568
2		0.00		3.20		2.439e-02		-50.976		6.481e-03		12.961
2		0.00		2.80		2.464e-02		-51.324		6.449e-03		12.520
2		0.00		2.40		2.506e-02		-51.855		6.950e-03		10.220
2		0.00		2.00		2.443e-02		-52.073		6.816e-03		11.712
2		0.00		1.60		2.460e-02		-53.253		6.643e-03		10.536
2		0.00		1.20		2.473e-02		-53.365		5.947e-03		10.131
2		0.00		0.80		2.518e-02		-53.000		5.798e-03		10.664
2		0.00		0.40		2.555e-02		-53.555		5.796e-03		10.801
2		0.00		0.00		2.515e-02		-53.759		5.830e-03		10.521
2		0.00		-0.40		2.425e-02		-51.838		5.887e-03		10.974
2		0.00		-0.80		2.364e-02		-52.447		6.119e-03		12.133
2		0.00		-1.20		2.341e-02		-54.932		6.427e-03		14.909
2		0.00		-1.60		2.307e-02		-50.815		6.523e-03		14.986
2		0.00		-2.00		2.294e-02		-51.529		6.137e-03		11.055
2		0.00		-2.40		2.260e-02		-50.154		5.761e-03		10.847
2		0.00		-2.80		2.195e-02		-52.742		5.780e-03		12.042
2		0.00		-3.20		2.161e-02		-52.996		5.474e-03		11.581
2		0.00		-3.60		2.067e-02		-52.247		4.743e-03		10.157
2		0.00		-4.00		1.933e-02		-55.004		4.332e-03		10.505
2		0.00		-4.40		1.780e-02		-54.833		4.035e-03		12.984
2		0.00		-4.80		1.607e-02		-54.183		3.638e-03		11.451
2		0.00		-5.20		1.476e-02		-50.418		3.228e-03		11.997
2		0.00		-5.60		1.213e-02		-53.531		3.365e-03		13.607
2		0.00		-6.00		1.007e-02		-50.057		2.787e-03		13.374
2		0.00		-6.40		7.415e-03		-47.306		2.286e-03		17.599
2		0.00		-6.80		5.208e-03		-39.329		1.600e-03		25.212
2		0.00		-7.20		2.321e-03		-20.826		1.198e-03		59.833
2		0.00		-7.60		2.123e-03		34.979		8.917e-04		61.360
2		0.00		-8.00		4.333e-03		101.575		1.783e-03		41.020
2		0.00		-8.40		6.089e-03		110.811		2.264e-03		26.616
2		0.00		-8.80		8.608e-03		119.828		2.733e-03		17.562
2		0.00		-9.20		1.100e-02		122.557		3.377e-03		14.982
2		0.00		-9.60		1.301e-02		121.550		3.383e-03		12.117
2		0.00		-10.00		1.379e-02		122.883		3.940e-03		12.074
2		0.00		-9.60		1.485e-02		123.501		3.758e-03		13.194
2		0.00		-9.20		1.449e-02		121.361		3.896e-03		16.649
2		0.00		-8.80		1.465e-02		123.481		4.306e-03		19.713
2		0.00		-8.40		1.467e-02		124.789		4.330e-03		15.849
2		0.00		-8.00		1.417e-02		125.750		4.272e-03		14.004
2		0.00		-7.60		1.438e-02		120.851		4.144e-03		11.556
2		0.00		-7.20		1.400e-02		124.686		3.920e-03		13.051
2		0.00		-6.80		1.424e-02		122.694		3.759e-03		12.980
2		0.00		-6.40		1.424e-02		122.638		3.413e-03		10.551
2		0.00		-6.00		1.400e-02		123.170		3.221e-03		12.703
2		0.00		-5.60		1.268e-02		124.327		3.486e-03		12.292
2		0.00		-5.20		1.265e-02		123.240		3.382e-03		12.107
2		0.00		-4.80		1.193e-02		122.249		3.558e-03		17.449
2		0.00		-4.40		1.176e-02		122.727		3.711e-03		20.533
2		0.00		-4.00		1.120e-02		116.558		3.579e-03		22.435
2		0.00		-3.60		1.109e-02		119.491		3.608e-03		20.382
2		0.00		-3.20		1.089e-02		123.494		3.244e-03		19.688
2		0.00		-2.80		1.098e-02		127.083		3.397e-03		11.783
2		0.00		-2.40		1.063e-02		121.762		3.000e-03		18.893
2		0.00		-2.00		1.048e-02		124.414		2.779e-03		13.967
2		0.00		-1.60		1.065e-02		122.761		2.802e-03		14.036
2		0.00		-1.20		1.025e-02		121.776		2.689e-03		11.846
2		0.00		-0.80		9.666e-03		122.207		2.707e-03		16.211
2		0.00		-0.40		9.859e-03		121.304		2.867e-03		18.620
3		0.00		0.00		9.306e-03		124.000		2.702e-03		24.963
3		0.00		0.40		8.711e-03		122.861		2.717e-03		22.768
3		0.00		0.80		8.493e-03		125.432		2.655e-03		17.613
3		0.00		1.20		8.607e-03		123.752		2.489e-03		12.486
3		0.00		1.60		7.653e-03		124.731		2.400e-03		13.678
3		0.00		2.00		7.229e-03		124.010		2.229e-03		20.351
3		0.00		2.40		6.521e-03		125.612		2.056e-03		19.584
3		0.00		2.80		5.675e-03		118.429		1.771e-03		19.251
3		0.00		3.20		4.991e-03		122.631		1.605e-03		20.305
3		0.00		3.60		4.125e-03		114.591		1.501e-03		34.033
3		0.00		4.00		3.726e-03		106.313		1.309e-03		46.655
3		0.00		4.40		3.314e-03		100.400		1.218e-03		53.426
3		0.00		4.80		2.487e-03		86.257		1.014e-03		55.263
3		0.00		5.20		1.987e-03		29.182		9.101e-04		80.355
3		0.00		5.60		1.842e-03		8.019		8.191e-04		78.942
3		0.00		6.00		1.967e-03		-29.934		9.028e-04		59.576
3		0.00		6.40		2.762e-03		-42.734		1.087e-03		46.508
3		0.00		6.80		3.298e-03		-48.593		1.170e-03		32.239
3		0.00		7.20		4.510e-03		-53.533		1.567e-03		24.728
3		0.00		7.60		6.093e-03		-57.653		1.765e-03		20.135
3		0.00		8.00		7.577e-03		-53.912		2.019e-03		23.085
3		0.00		8.40		9.676e-03		-58.160		2.563e-03		18.128
3		0.00		8.80		1.262e-02		-53.665		3.179e-03		13.108
3		0.00		9.20		1.617e-02		-51.672		4.325e-03		13.594
3		0.00		9.60		1.946e-02		-52.104		5.542e-03		15.482
3		0.00		10.00		2.254e-02		-53.762		6.120e-03		15.026
3		0.00		9.60		2.419e-02		-52.485		7.280e-03		16.353
3		0.00		9.20		2.529e-02		-53.563		7.651e-03		13.789
3		0.00		8.80		2.501e-02		-54.269		7.439e-03		11.276
3		0.00		8.40		2.595e-02		-52.140		7.148e-03		11.341
3		0.00		8.00		2.614e-02		-53.876		6.993e-03		9.467
3		0.00		7.60		2.673e-02		-53.596		6.625e-03		10.090
3		0.00		7.20		2.643e-02		-51.196		6.349e-03		10.903
3		0.00		6.80		2.599e-02		-55.315		6.280e-03		9.800
3		0.00		6.40		2.529e-02		-55.187		6.237e-03		11.255
3		0.00		6.00		2.488e-02		-55.259		6.209e-03		11.687
3		0.00		5.60		2.509e-02		-53.815		6.286e-03		12.134
3		0.00		5.20		2.374e-02		-52.149		5.963e-03		14.662
3		0.00		4.80		2.319e-02		-52.868		5.895e-03		13.181
3		0.00		4.40		2.278e-02		-52.276		6.273e-03		14.331
3		0.00		4.00		2.348e-02		-51.865		6.574e-03		10.924
3		0.00		3.60		2.306e-02		-49.194		6.391e-03		12.182
3		0.00		3.20		2.287e-02		-51.620		6.284e-03		11.272
3		0.00		2.80		2.318e-02		-51.247		6.212e-03		9.804
3		0.00		2.40		2.319e-02		-53.981		5.991e-03		10.227
3		0.00		2.00		2.321e-02		-52.493		5.517e-03		10.559
3		0.00		1.60		2.258e-02		-53.483		5.609e-03		11.010
3		0.00		1.20		2.267e-02		-55.588		6.044e-03		13.229
3		0.00		0.80		2.266e-02		-53.197		5.960e-03		12.932
3		0.00		0.40		2.219e-02		-53.189		6.078e-03		13.026
3		0.00		0.00		2.167e-02		-51.796		5.938e-03		13.968
3		0.00		-0.40		2.149e-02		-51.154		6.165e-03		13.055
3		0.00		-0.80		2.104e-02		-53.089		6.197e-03		15.123
3		0.00		-1.20		2.055e-02		-51.836		6.318e-03		15.289
3		0.00		-1.60		2.040e-02		-53.644		6.411e-03		15.346
3		0.00		-2.00		2.059e-02		-51.943		6.114e-03		10.827
3		0.00		-2.40		2.034e-02		-53.906		5.561e-03		12.248
3		0.00		-2.80		2.053e-02		-53.205		5.266e-03		10.494
3		0.00		-3.20		1.976e-02		-53.045		4.831e-03		12.421
3		0.00		-3.60		1.908e-02		-53.285		4.576e-03		12.756
3		0.00		-4.00		1.761e-02		-52.288		4.334e-03		12.379
3		0.00		-4.40		1.684e-02		-52.238		4.005e-03		10.536
3		0.00		-4.80		1.519e-02		-51.875		3.660e-03		13.861
3		0.00		-5.20		1.321e-02		-49.776		3.590e-03		14.473
3		0.00		-5.60		1.206e-02		-47.170		3.467e-03		14.526
3		0.00		-6.00		9.782e-03		-46.931		2.815e-03		13.346
3		0.00		-6.40		7.784e-03		-48.094		2.191e-03		16.969
3		0.00		-6.80		5.026e-03		-30.934		1.905e-03		21.004
3		0.00		-7.20		3.675e-03		-47.407		1.521e-03		33.354
3		0.00		-7.60		1.865e-03		11.012		6.702e-04		55.653
3		0.00		-8.00		2.546e-03		75.338		1.075e-03		48.603
3		0.00		-8.40		4.879e-03		115.421		1.695e-03		32.630
3		0.00		-8.80		6.680e-03		116.541		2.148e-03		23.686
3		0.00		-9.20		9.310e-03		124.534		2.537e-03		14.676
3		0.00		-9.60		1.108e-02		121.780		3.070e-03		17.124
3		0.00		-10.00		1.313e-02		121.023		3.657e-03		16.039
3		0.00		-9.60		1.328e-02		123.171		3.857e-03		17.351
3		0.00		-9.20		1.366e-02		120.505		4.211e-03		21.020
3		0.00		-8.80		1.384e-02		122.120		3.959e-03		18.571
3		0.00		-8.40		1.372e-02		123.057		4.117e-03		13.471
3		0.00		-8.00		1.371e-02		121.779		3.912e-03		10.693
3		0.00		-7.60		1.353e-02		122.502		3.450e-03		10.555
3		0.00		-7.20		1.326e-02		123.494		3.372e-03		10.420
3		0.00		-6.80		1.314e-02		120.435		2.985e-03		13.517
3		0.00		-6.40		1.307e-02		121.689		3.129e-03		11.935
3		0.00		-6.00		1.252e-02		121.145		2.891e-03		13.675
3		0.00		-5.60		1.210e-02		125.133		3.027e-03		12.751
3		0.00		-5.20		1.159e-02		121.588		2.883e-03		11.791
3		0.00		-4.80		1.069e-02		121.645		3.220e-03		20.467
3		0.00		-4.40		1.048e-02		117.938		3.213e-03		22.782
3		0.00		-4.00		1.043e-02		120.523		3.269e-03		25.938
3		0.00		-3.60		1.016e-02		119.777		3.275e-03		23.766
3		0.00		-3.20		9.989e-03		117.609		3.483e-03		24.040
3		0.00		-2.80		9.743e-03		123.474		3.120e-03		12.465
3		0.00		-2.40		9.963e-03		124.802		2.875e-03		11.725
3		0.00		-2.00		1.002e-02		120.416		2.900e-03		14.127
3		0.00		-1.60		9.652e-03		120.750		2.763e-03		14.669
3		0.00		-1.20		9.780e-03		121.337		2.606e-03		15.948
3		0.00		-0.80		9.397e-03		121.819		2.559e-03		13.327
3		0.00		-0.40		9.135e-03		125.095		2.301e-03		14.117
4		0.00		0.00		9.143e-03		126.255		2.704e-03		13.483
4		0.00		0.40		8.376e-03		120.546		2.339e-03		18.366
4		0.00		0.80		8.290e-03		121.889		2.576e-03		19.069
4		0.00		1.20		7.450e-03		121.372		2.101e-03		29.347
4		0.00		1.60		6.972e-03		120.984		2.411e-03		27.370
4		0.00		2.00		6.451e-03		126.128		2.251e-03		22.856
4		0.00		2.40		6.165e-03		123.921		1.913e-03		25.708
4		0.00		2.80		5.271e-03		118.891		1.635e-03		21.104
4		0.00		3.20		5.060e-03		121.413		1.577e-03		21.121
4		0.00		3.60		3.990e-03		107.874		1.360e-03		39.864
4		0.00		4.00		3.055e-03		93.304		1.285e-03		61.341
4		0.00		4.40		3.192e-03		107.617		1.200e-03		49.818
4		0.00		4.80		2.320e-03		69.629		8.559e-04		65.827
4		0.00		5.20		1.840e-03		28.200		8.017e-04		67.586
4		0.00		5.60		1.833e-03		-2.723		7.416e-04		81.407
4		0.00		6.00		2.111e-03		-21.529		8.771e-04		75.437
4		0.00		6.40		2.359e-03		-51.862		1.016e-03		51.342
4		0.00		6.80		3.440e-03		-56.120		1.334e-03		29.381
4		0.00		7.20		3.980e-03		-62.537		1.303e-03		25.501
4		0.00		7.60		5.679e-03		-51.361		1.380e-03		18.359
4		0.00		8.00		7.222e-03		-57.571		1.836e-03		18.544
4		0.00		8.40		8.893e-03		-50.580		2.194e-03		17.520
4		0.00		8.80		1.096e-02		-54.645		3.086e-03		18.995
4		0.00		9.20		1.335e-02		-49.870		3.663e-03		16.880
4		0.00		9.60		1.621e-02		-51.680		4.792e-03		16.893
4		0.00		10.00		1.957e-02		-52.040		5.550e-03		11.144
4		0.00		9.60		2.202e-02		-53.955		5.872e-03		10.622
4		0.00		9.20		2.283e-02		-53.097		5.620e-03		11.445
4		0.00		8.80		2.352e-02		-55.442		6.306e-03		11.988
4		0.00		8.40		2.334e-02		-53.662		6.281e-03		11.116
4		0.00		8.00		2.294e-02		-55.997		6.908e-03		12.848
4		0.00		7.60		2.276e-02		-52.710		7.133e-03		13.959
4		0.00		7.20		2.272e-02		-51.839		7.201e-03		12.997
4		0.00		6.80		2.265e-02		-53.841		7.126e-03		10.259
4		0.00		6.40		2.267e-02		-53.607		6.494e-03		9.993
4		0.00		6.00		2.287e-02		-54.743		5.905e-03		10.746
4		0.00		5.60		2.200e-02		-53.942		5.742e-03		12.367
4		0.00		5.20		2.256e-02		-53.563		5.729e-03		12.652
4		0.00		4.80		2.184e-02		-53.951		5.470e-03		15.613
4		0.00		4.40		2.160e-02		-50.601		5.953e-03		13.454
4		0.00		4.00		2.141e-02		-50.630		6.090e-03		10.449
4		0.00		3.60		2.158e-02		-53.273		5.650e-03		9.913
4		0.00		3.20		2.156e-02		-50.683		5.298e-03		11.076
4		0.00		2.80		2.196e-02		-54.066		4.916e-03		11.172
4		0.00		2.40		2.167e-02		-54.840		5.176e-03		12.638
4		0.00		2.00		2.114e-02		-54.062		4.934e-03		13.031
4		0.00		1.60		2.089e-02		-51.248		5.045e-03		12.423
4		0.00		1.20		2.079e-02		-50.217		5.477e-03		13.386
4		0.00		0.80		2.040e-02		-50.894		5.958e-03		13.157
4		0.00		0.40		2.100e-02		-51.677		5.801e-03		8.769
4		0.00		0.00		2.134e-02		-54.069		5.444e-03		10.193
4		0.00		-0.40		2.144e-02		-52.497		4.739e-03		9.750
4		0.00		-0.80		2.070e-02		-53.207		4.625e-03		10.552
4		0.00		-1.20		2.122e-02		-53.229		4.972e-03		10.896
4		0.00		-1.60		2.009e-02		-54.630		5.227e-03		12.233
4		0.00		-2.00		2.003e-02		-53.478		5.271e-03		12.355
4		0.00		-2.40		1.923e-02		-53.425		5.368e-03		14.813
4		0.00		-2.80		1.860e-02		-49.535		5.127e-03		10.208
4		0.00		-3.20		1.829e-02		-53.929		5.025e-03		14.081
4		0.00		-3.60		1.812e-02		-52.315		4.728e-03		10.469
4		0.00		-4.00		1.714e-02		-50.820		4.088e-03		10.953
4		0.00		-4.40		1.626e-02		-52.702		3.760e-03		10.629
4		0.00		-4.80		1.479e-02		-52.804		3.462e-03		12.937
4		0.00		-5.20		1.298e-02		-54.351		3.245e-03		12.256
4		0.00		-5.60		1.117e-02		-50.079		3.078e-03		15.749
4		0.00		-6.00		8.846e-03		-50.429		2.570e-03		16.754
4		0.00		-6.40		7.492e-03		-46.002		2.137e-03		18.467
4		0.00		-6.80		5.529e-03		-51.186		1.959e-03		22.844
4		0.00		-7.20		3.212e-03		-46.128		1.433e-03		32.618
4		0.00		-7.60		1.962e-03		10.329		8.173e-04		67.865
4		0.00		-8.00		3.068e-03		81.729		1.313e-03		53.503
4		0.00		-8.40		5.126e-03		107.634		1.797e-03		38.447
4		0.00		-8.80		6.455e-03		113.568		2.105e-03		20.105
4		0.00		-9.20		8.376e-03		117.301		2.629e-03		24.675
4		0.00		-9.60		1.032e-02		117.567		3.349e-03		24.989
4		0.00		-10.00		1.131e-02		119.815		3.952e-03		29.177
4		0.00		-9.60		1.171e-02		119.247		3.964e-03		23.202
4		0.00		-9.20		1.303e-02		120.262		4.145e-03		12.481
4		0.00		-8.80		1.380e-02		119.322		4.063e-03		15.115
4		0.00		-8.40		1.370e-02		124.150		3.625e-03		13.164
4		0.00		-8.00		1.334e-02		122.298		3.247e-03		14.404
4		0.00		-7.60		1.326e-02		123.187		3.382e-03		12.611
4		0.00		-7.20		1.254e-02		119.540		3.625e-03		19.544
4		0.00		-6.80		1.253e-02		122.482		3.691e-03		25.082
4		0.00		-6.40		1.220e-02		119.969		3.940e-03		25.111
4		0.00		-6.00		1.204e-02		121.842		3.714e-03		14.013
4		0.00		-5.60		1.200e-02		123.615		3.475e-03		11.548
4		0.00		-5.20		1.147e-02		122.791		2.792e-03		14.126
4		0.00		-4.80		1.118e-02		124.390		2.702e-03		12.485
4		0.00		-4.40		1.126e-02		123.193		2.877e-03		11.799
4		0.00		-4.00		1.065e-02		122.293		3.208e-03		20.144
4		0.00		-3.60		1.003e-02		117.690		3.237e-03		26.784
4		0.00		-3.20		9.783e-03		121.140		3.259e-03		29.595
4		0.00		-2.80		9.766e-03		123.603		3.126e-03		17.968
4		0.00		-2.40		9.884e-03		123.702		2.907e-03		14.245
4		0.00		-2.00		9.293e-03		123.223		2.842e-03		14.787
4		0.00		-1.60		9.318e-03		124.645		2.619e-03		20.864
4		0.00		-1.20		9.238e-03		122.445		2.964e-03		16.832
4		0.00		-0.80		9.090e-03		121.682		2.652e-03		23.639
4		0.00		-0.40		9.148e-03		116.971		3.070e-03		32.076
5		0.00		0.00		8.625e-03		121.816		2.753e-03		14.471
5		0.00		0.40		8.796e-03		122.088		2.265e-03		18.824
5		0.00		0.80		8.621e-03		120.796		2.375e-03		16.137
5		0.00		1.20		7.490e-03		121.317		2.172e-03		16.180
5		0.00		1.60		7.324e-03		125.435		2.185e-03		18.188
5		0.00		2.00		6.574e-03		121.992		2.263e-03		25.649
5		0.00		2.40		6.258e-03		114.673		2.093e-03		27.755
5		0.00		2.80		5.735e-03		123.391		2.026e-03		25.858
5		0.00		3.20		4.692e-03		116.667		1.461e-03		31.402
5		0.00		3.60		4.007e-03		115.912		1.391e-03		55.156
5		0.00		4.00		3.505e-03		105.005		1.557e-03		44.865
5		0.00		4.40		2.911e-03		91.701		1.039e-03		58.846
5		0.00		4.80		2.201e-03		76.202		9.831e-04		60.123
5		0.00		5.20		1.986e-03		26.089		8.109e-04		76.192
5		0.00		5.60		1.798e-03		-2.583		8.068e-04		76.794
5		0.00		6.00		1.912e-03		-41.815		8.152e-04		75.047
5		0.00		6.40		2.494e-03		-57.412		9.889e-04		38.911
5		0.00		6.80		3.344e-03		-67.988		1.266e-03		29.519
5		0.00		7.20		4.031e-03		-59.547		1.415e-03		21.477
5		0.00		7.60		4.639e-03		-54.390		1.620e-03		23.584
5		0.00		8.00		6.520e-03		-51.502		1.873e-03		20.653
5		0.00		8.40		8.067e-03		-55.061		2.335e-03		17.372
5		0.00		8.80		1.028e-02		-54.834		2.495e-03		12.320
5		0.00		9.20		1.271e-02		-53.997		3.059e-03		13.583
5		0.00		9.60		1.556e-02		-54.754		3.855e-03		14.907
5		0.00		10.00		1.751e-02		-52.537		4.718e-03		13.378
5		0.00		9.60		1.881e-02		-54.354		5.509e-03		16.238
5		0.00		9.20		2.033e-02		-52.349		6.111e-03		14.099
5		0.00		8.80		2.106e-02		-53.446		6.140e-03		11.728
5		0.00		8.40		2.191e-02		-53.266		6.014e-03		10.295
5		0.00		8.00		2.237e-02		-54.163		5.773e-03		11.585
5		0.00		7.60		2.201e-02		-51.494		5.629e-03		12.704
5		0.00		7.20		2.176e-02		-52.478		6.546e-03		12.962
5		0.00		6.80		2.128e-02		-55.333		6.289e-03		17.212
5		0.00		6.40		2.083e-02		-52.820		6.409e-03		11.843
5		0.00		6.00		2.075e-02		-53.975		5.882e-03		10.753
5		0.00		5.60		2.118e-02		-51.289		5.299e-03		11.151
5		0.00		5.20		2.063e-02		-55.994		5.469e-03		13.233
5		0.00		4.80		2.047e-02		-54.441		5.704e-03		14.428
5		0.00		4.40		1.970e-02		-54.793		6.029e-03		18.849
5		0.00		4.00		1.945e-02		-51.713		6.130e-03		16.296
5		0.00		3.60		1.973e-02		-53.983		5.827e-03		10.939
5		0.00		3.20		2.049e-02		-52.508		5.162e-03		9.817
5		0.00		2.80		2.034e-02		-54.729		4.901e-03		11.192
5		0.00		2.40		1.999e-02		-51.997		4.785e-03		11.675
5		0.00		2.00		1.951e-02		-52.276		5.282e-03		12.957
5		0.00		1.60		1.929e-02		-53.103		5.461e-03		14.991
5		0.00		1.20		1.894e-02		-54.234		5.386e-03		12.458
5		0.00		0.80		1.948e-02		-53.060		4.933e-03		8.437
5		0.00		0.40		1.970e-02		-52.561		4.710e-03		12.064
5		0.00		0.00		1.939e-02		-53.188		4.780e-03		13.169
5		0.00		-0.40		1.909e-02		-50.979		5.024e-03		13.848
5		0.00		-0.80		1.871e-02		-49.857		5.416e-03		19.997
5		0.00		-1.20		1.851e-02		-49.865		5.449e-03		10.794
5		0.00		-1.60		1.853e-02		-52.867		5.132e-03		11.415
5		0.00		-2.00		1.820e-02		-54.649		4.652e-03		12.545
5		0.00		-2.40		1.736e-02		-52.638		4.687e-03		14.175
5		0.00		-2.80		1.657e-02		-50.384		5.074e-03		15.338
5		0.00		-3.20		1.616e-02		-50.742		5.157e-03		13.111
5		0.00		-3.60		1.592e-02		-52.857		4.812e-03		9.512
5		0.00		-4.00		1.545e-02		-49.976		4.265e-03		10.286
5		0.00		-4.40		1.441e-02		-54.924		3.895e-03		12.795
5		0.00		-4.80		1.310e-02		-52.347		3.809e-03		14.829
5		0.00		-5.20		1.146e-02		-52.437		3.327e-03		21.358
5		0.00		-5.60		1.088e-02		-55.583		3.092e-03		16.809
5		0.00		-6.00		8.921e-03		-50.206		2.370e-03		16.173
5		0.00		-6.40		7.191e-03		-48.596		1.933e-03		17.273
5		0.00		-6.80		5.688e-03		-54.843		1.715e-03		23.080
5		0.00		-7.20		3.821e-03		-55.087		1.479e-03		25.357
5		0.00		-7.60		2.066e-03		-20.406		9.293e-04		51.813
5		0.00		-8.00		2.489e-03		76.023		9.957e-04		63.186
5		0.00		-8.40		4.164e-03		107.840		1.592e-03		42.229
5		0.00		-8.80		5.857e-03		117.995		2.080e-03		26.077
5		0.00		-9.20		7.797e-03		116.891		2.617e-03		23.183
5		0.00		-9.60		9.908e-03		116.659		3.391e-03		23.470
5		0.00		-10.00		1.195e-02		120.920		3.600e-03		15.960
5		0.00		-9.60		1.260e-02		122.438		3.586e-03		10.638
5		0.00		-9.20		1.261e-02		122.024		3.305e-03		13.510
5		0.00		-8.80		1.292e-02		123.187		3.532e-03		13.554
5		0.00		-8.40		1.286e-02		119.385		4.180e-03		28.305
5		0.00		-8.00		1.276e-02		124.873		3.872e-03		13.320
5		0.00		-7.60		1.314e-02		125.299		3.520e-03		10.293
5		0.00		-7.20		1.265e-02		122.584		3.351e-03		10.444
5		0.00		-6.80		1.247e-02		123.634		3.373e-03		12.374
5		0.00		-6.40		1.165e-02		121.127		3.335e-03		19.875
5		0.00		-6.00		1.152e-02		125.124		3.539e-03		17.202
5		0.00		-5.60		1.129e-02		122.162		3.234e-03		13.725
5		0.00		-5.20		1.132e-02		123.307		2.786e-03		12.146
5		0.00		-4.80		1.113e-02		124.181		2.751e-03		14.823
5		0.00		-4.40		1.065e-02		122.626		2.645e-03		12.637
5		0.00		-4.00		1.018e-02		121.060		3.044e-03		23.872
5		0.00		-3.60		9.895e-03		120.788		3.008e-03		16.656
5		0.00		-3.20		9.727e-03		124.672		2.896e-03		17.110
5		0.00		-2.80		1.001e-02		121.275		2.679e-03		12.760
5		0.00		-2.40		9.544e-03		122.049		2.399e-03		13.570
5		0.00		-2.00		9.292e-03		123.748		2.473e-03		15.253
5		0.00		-1.60		9.366e-03		123.755		2.637e-03		18.516
5		0.00		-1.20		8.709e-03		120.797		2.980e-03		28.134
5		0.00		-0.80		9.079e-03		122.689		3.196e-03		19.613
5		0.00		-0.40		8.739e-03		118.874		2.648e-03		20.091
6		0.00		0.00		8.677e-03		122.539		2.358e-03		14.141
6		0.00		0.40		8.517e-03		121.950		2.569e-03		16.001
6		0.00		0.80		7.995e-03		117.191		2.465e-03		18.671
6		0.00		1.20		7.520e-03		124.945		2.373e-03		21.406
6		0.00		1.60		7.100e-03		115.986		2.347e-03		27.543
6		0.00		2.00		6.535e-03		119.343		2.164e-03		28.184
6		0.00		2.40		6.025e-03		119.635		2.002e-03		26.767
6		0.00		2.80		5.706e-03		121.409		1.734e-03		20.381
6		0.00		3.20		4.665e-03		117.897		1.397e-03		20.750
6		0.00		3.60		4.255e-03		120.727		1.327e-03		31.546
6		0.00		4.00		3.375e-03		101.938		1.453e-03		54.168
6		0.00		4.40		2.801e-03		92.234		1.016e-03		55.594
6		0.00		4.80		2.228e-03		61.940		9.788e-04		70.570
6		0.00		5.20		1.803e-03		19.345		7.562e-04		78.872
6		0.00		5.60		1.762e-03		-5.399		8.399e-04		77.425
6		0.00		6.00		2.006e-03		-39.883		8.884e-04		57.069
6		0.00		6.40		2.854e-03		-52.878		9.987e-04		40.873
6		0.00		6.80		3.382e-03		-43.353		1.241e-03		34.973
6		0.00		7.20		4.370e-03		-48.915		1.416e-03		25.757
6		0.00		7.60		5.160e-03		-46.068		1.721e-03		20.688
6		0.00		8.00		6.134e-03		-45.046		1.983e-03		19.686
6		0.00		8.40		7.720e-03		-51.960		2.252e-03		15.119
6		0.00		8.80		9.995e-03		-55.134		2.907e-03		16.903
6		0.00		9.20		1.277e-02		-57.556		3.336e-03		12.454
6		0.00		9.60		1.540e-02		-54.383		3.765e-03		13.082
6		0.00		10.00		1.760e-02		-54.434		4.697e-03		12.278
6		0.00		9.60		1.867e-02		-52.547		5.176e-03		13.681
6		0.00		9.20		2.021e-02		-54.768		5.514e-03		15.633
6		0.00		8.80		2.041e-02		-53.227		5.894e-03		14.706
6		0.00		8.40		2.058e-02		-51.217		5.975e-03		10.634
6		0.00		8.00		2.095e-02		-55.121		5.636e-03		8.786
6		0.00		7.60		2.124e-02		-54.394		4.901e-03		9.465
6		0.00		7.20		2.090e-02		-55.603		5.143e-03		12.026
6		0.00		6.80		2.082e-02		-53.284		5.175e-03		11.020
6		0.00		6.40		2.037e-02		-52.537		5.386e-03		13.049
6		0.00		6.00		2.043e-02		-53.888		5.719e-03		16.161
6		0.00		5.60		2.010e-02		-53.880		5.605e-03		16.648
6		0.00		5.20		2.022e-02		-52.628		5.686e-03		10.997
6		0.00		4.80		2.049e-02		-52.508		5.750e-03		10.481
6		0.00		4.40		1.990e-02		-54.259		4.871e-03		9.918
6		0.00		4.00		1.957e-02		-56.882		4.927e-03		12.319
6		0.00		3.60		1.931e-02		-54.721		5.089e-03		13.885
6		0.00		3.20		1.919e-02		-54.319		5.155e-03		11.995
6		0.00		2.80		1.839e-02		-52.995		5.271e-03		15.678
6		0.00		2.40		1.885e-02		-53.873		5.731e-03		17.133
6		0.00		2.00		1.797e-02		-48.563		5.630e-03		16.427
6		0.00		1.60		1.856e-02		-50.250		5.736e-03		9.445
6		0.00		1.20		1.892e-02		-52.513		5.236e-03		9.667
6		0.00		0.80		1.869e-02		-53.989		4.486e-03		11.087
6		0.00		0.40		1.869e-02		-54.289		4.437e-03		11.260
6		0.00		0.00		1.834e-02		-52.834		4.145e-03		11.405
6		0.00		-0.40		1.808e-02		-53.896		4.478e-03		12.051
6		0.00		-0.80		1.772e-02		-51.249		4.477e-03		13.286
6		0.00		-1.20		1.793e-02		-52.033		4.708e-03		14.916
6		0.00		-1.60		1.762e-02		-51.585		5.002e-03		13.478
6		0.00		-2.00		1.757e-02		-53.797		4.973e-03		10.718
6		0.00		-2.40		1.741e-02		-50.071		4.552e-03		9.076
6		0.00		-2.80		1.736e-02		-50.882		4.082e-03		9.517
6		0.00		-3.20		1.665e-02		-52.203		4.197e-03		9.334
6		0.00		-3.60		1.637e-02		-53.076		3.844e-03		11.702
6		0.00		-4.00		1.532e-02		-51.984		3.924e-03		12.551
6		0.00		-4.40		1.479e-02		-48.763		3.616e-03		14.403
6		0.00		-4.80		1.376e-02		-48.701		3.768e-03		12.888
6		0.00		-5.20		1.208e-02		-53.215		3.404e-03		11.800
6		0.00		-5.60		1.103e-02		-50.485		3.292e-03		16.977
6		0.00		-6.00		9.356e-03		-51.606		2.705e-03		15.837
6		0.00		-6.40		8.018e-03		-49.399		2.484e-03		19.192
6		0.00		-6.80		5.978e-03		-46.172		2.035e-03		18.515
6		0.00		-7.20		4.395e-03		-41.113		1.669e-03		25.484
6		0.00		-7.60		2.994e-03		-33.730		1.305e-03		46.081
6		0.00		-8.00		1.839e-03		14.336		8.329e-04		70.646
6		0.00		-8.40		3.213e-03		97.488		1.142e-03		42.939
6		0.00		-8.80		5.178e-03		111.380		1.667e-03		30.254
6		0.00		-9.20		6.325e-03		113.728		1.892e-03		19.569
6		0.00		-9.60		8.981e-03		118.510		2.133e-03		14.618
6		0.00		-10.00		1.042e-02		121.018		2.628e-03		12.564
6		0.00		-9.60		1.123e-02		124.076		2.929e-03		13.908
6		0.00		-9.20		1.158e-02		121.637		3.219e-03		17.291
6		0.00		-8.80		1.235e-02		124.243		3.223e-03		16.861
6		0.00		-8.40		1.219e-02		119.148		3.418e-03		24.125
6		0.00		-8.00		1.224e-02		119.475		3.604e-03		23.537
6		0.00		-7.60		1.179e-02		120.212		3.915e-03		25.348
6		0.00		-7.20		1.178e-02		120.024		3.971e-03		18.137
6		0.00		-6.80		1.144e-02		124.359		3.811e-03		16.466
6		0.00		-6.40		1.134e-02		124.133		3.483e-03		11.839
6		0.00		-6.00		1.110e-02		122.882		3.388e-03		13.724
6		0.00		-5.60		1.091e-02		123.240		3.190e-03		11.020
6		0.00		-5.20		1.036e-02		124.284		2.935e-03		12.423
6		0.00		-4.80		1.024e-02		121.859		2.902e-03		14.078
6		0.00		-4.40		1.020e-02		122.910		2.641e-03		12.904
6		0.00		-4.00		9.970e-03		121.207		2.524e-03		14.710
6		0.00		-3.60		9.335e-03		121.273		2.376e-03		13.186
6		0.00		-3.20		9.331e-03		123.568		2.537e-03		15.476
6		0.00		-2.80		8.820e-03		122.339		2.631e-03		25.742
6		0.00		-2.40		9.141e-03		119.070		2.335e-03		18.057
6		0.00		-2.00		9.010e-03		123.562		2.574e-03		16.887
6		0.00		-1.60		8.578e-03		117.342		2.654e-03		24.079
6		0.00		-1.20		8.683e-03		117.175		2.699e-03		22.018
6		0.00		-0.80		8.451e-03		122.583		2.603e-03		20.725
6		0.00		-0.40		8.236e-03		118.734		2.846e-03		20.698
7		0.00		0.00		7.675e-03		116.961		2.568e-03		31.938
7		0.00		0.40		7.674e-03		122.069		2.654e-03		24.226
7		0.00		0.80		7.589e-03		118.772		2.518e-03		21.224
7		0.00		1.20		6.979e-03		120.731		2.229e-03		23.759
7		0.00		1.60		6.563e-03		118.890		1.943e-03		19.721
7		0.00		2.00		6.099e-03		126.413		1.949e-03		17.903
7		0.00		2.40		5.488e-03		124.791		1.772e-03		16.088
7		0.00		2.80		5.052e-03		118.632		1.659e-03		21.460
7		0.00		3.20		4.140e-03		111.412		1.516e-03		35.157
7		0.00		3.60		3.880e-03		113.150		1.453e-03		34.468
7		0.00		4.00		3.177e-03		96.788		1.327e-03		49.704
7		0.00		4.40		2.890e-03		95.138		1.163e-03		63.449
7		0.00		4.80		2.250e-03		64.713		1.014e-03		69.802
7		0.00		5.20		2.071e-03		27.406		9.493e-04		77.756
7		0.00		5.60		2.011e-03		-3.319		9.239e-04		77.057
7		0.00		6.00		1.835e-03		-16.445		8.315e-04		76.645
7		0.00		6.40		2.233e-03		-48.839		9.110e-04		49.476
7		0.00		6.80		3.046e-03		-56.199		1.256e-03		32.487
7		0.00		7.20		3.727e-03		-59.584		1.351e-03		31.419
7		0.00		7.60		4.730e-03		-59.183		1.415e-03		23.597
7		0.00		8.00		6.161e-03		-53.933		1.797e-03		23.190
7		0.00		8.40		7.790e-03		-52.686		1.940e-03		16.525
7		0.00		8.80		9.510e-03		-52.005		2.646e-03		15.335
7		0.00		9.20		1.210e-02		-52.959		3.148e-03		13.642
7		0.00		9.60		1.420e-02		-56.017		3.704e-03		13.827
7		0.00		10.00		1.614e-02		-53.414		4.586e-03		12.172
7		0.00		9.60		1.761e-02		-54.179		5.080e-03		15.431
7		0.00		9.20		1.853e-02		-55.010		5.435e-03		15.634
7		0.00		8.80		1.883e-02		-55.369		5.331e-03		17.231
7		0.00		8.40		1.949e-02		-49.975		5.448e-03		12.194
7		0.00		8.00		1.938e-02		-49.469		5.358e-03		12.720
7		0.00		7.60		1.962e-02		-51.937		5.501e-03		11.526
7		0.00		7.20		1.962e-02		-52.596		5.598e-03		9.414
7		0.00		6.80		1.962e-02		-51.591		5.160e-03		10.512
7		0.00		6.40		1.963e-02		-54.778		5.068e-03		9.522
7		0.00		6.00		1.979e-02		-52.542		4.916e-03		9.248
7		0.00		5.60		1.961e-02		-52.076		4.822e-03		10.531
7		0.00		5.20		1.951e-02		-51.747		4.632e-03		10.607
7		0.00		4.80		2.008e-02		-52.826		4.656e-03		10.286
7		0.00		4.40		1.966e-02		-51.770		4.399e-03		10.027
7		0.00		4.00		1.974e-02		-54.673		4.481e-03		9.763
7		0.00		3.60		1.906e-02		-54.304		4.543e-03		11.015
7		0.00		3.20		1.907e-02		-55.828		4.226e-03		11.238
7		0.00		2.80		1.907e-02		-51.041		4.270e-03		10.673
7		0.00		2.40		1.908e-02		-53.131		4.182e-03		10.544
7		0.00		2.00		1.886e-02		-51.164		4.310e-03		11.064
7		0.00		1.60		1.856e-02		-54.114		3.943e-03		10.970
7		0.00		1.20		1.808e-02		-55.308		4.213e-03		11.616
7		0.00		0.80		1.840e-02		-53.316		4.250e-03		12.046
7		0.00		0.40		1.844e-02		-53.344		4.313e-03		11.979
7		0.00		0.00		1.805e-02		-51.953		4.145e-03		11.485
7		0.00		-0.40		1.800e-02		-50.986		3.909e-03		12.176
7		0.00		-0.80		1.768e-02		-51.595		3.905e-03		11.064
7		0.00		-1.20		1.740e-02		-51.010		3.944e-03		10.849
7		0.00		-1.60		1.720e-02		-49.640		4.080e-03		11.917
7		0.00		-2.00		1.677e-02		-50.558		4.335e-03		12.541
7		0.00		-2.40		1.613e-02		-50.735		4.051e-03		13.246
7		0.00		-2.80		1.644e-02		-52.588		4.067e-03		11.842
7		0.00		-3.20		1.517e-02		-50.022		4.396e-03		14.804
7		0.00		-3.60		1.461e-02		-51.713		4.226e-03		17.096
7		0.00		-4.00		1.428e-02		-55.172		4.182e-03		18.452
7		0.00		-4.40		1.337e-02		-53.118		4.076e-03		16.207
7		0.00		-4.80		1.203e-02		-53.379		3.626e-03		17.621
7		0.00		-5.20		1.117e-02		-53.922		3.409e-03		17.699
7		0.00		-5.60		9.682e-03		-48.928		2.963e-03		16.982
7		0.00		-6.00		8.497e-03		-52.696		2.657e-03		17.469
7		0.00		-6.40		7.027e-03		-50.091		2.347e-03		21.445
7		0.00		-6.80		5.681e-03		-54.689		1.731e-03		17.467
7		0.00		-7.20		3.736e-03		-44.984		1.479e-03		24.978
7		0.00		-7.60		2.320e-03		-46.309		1.013e-03		51.853
7		0.00		-8.00		2.056e-03		41.894		9.496e-04		72.182
7		0.00		-8.40		3.335e-03		100.291		1.154e-03		41.518
7		0.00		-8.80		4.158e-03		102.916		1.572e-03		46.854
7		0.00		-9.20		6.111e-03		121.087		2.033e-03		22.865
7		0.00		-9.60		7.961e-03		118.075		2.558e-03		26.360
7		0.00		-10.00		1.040e-02		121.774		3.270e-03		22.651
7		0.00		-9.60		1.110e-02		118.759		3.307e-03		23.423
7		0.00		-9.20		1.118e-02		122.944		3.176e-03		14.927
7		0.00		-8.80		1.162e-02		120.017		3.119e-03		12.123
7		0.00		-8.40		1.200e-02		123.964		3.312e-03		13.387
7		0.00		-8.00		1.163e-02		122.474		3.176e-03		14.231
7		0.00		-7.60		1.186e-02		120.700		3.063e-03		13.236
7		0.00		-7.20		1.166e-02		122.634		2.919e-03		11.543
7		0.00		-6.80		1.148e-02		123.623		3.229e-03		13.381
7		0.00		-6.40		1.096e-02		122.576		3.097e-03		15.015
7		0.00		-6.00		1.045e-02		122.587		2.948e-03		14.320
7		0.00		-5.60		1.048e-02		121.972		3.043e-03		15.763
7		0.00		-5.20		1.010e-02		121.344		2.784e-03		16.455
7		0.00		-4.80		1.010e-02		122.846		2.846e-03		18.930
7		0.00		-4.40		9.891e-03		121.366		3.017e-03		23.133
7		0.00		-4.00		9.517e-03		120.421		2.877e-03		26.185
7		0.00		-3.60		9.317e-03		121.228		3.125e-03		27.391
7		0.00		-3.20		9.281e-03		123.005		3.009e-03		24.274
7		0.00		-2.80		8.779e-03		122.277		2.698e-03		24.368
7		0.00		-2.40		8.616e-03		121.132		2.817e-03		19.690
7		0.00		-2.00		8.876e-03		120.683		2.861e-03		14.598
7		0.00		-1.60		8.835e-03		118.712		2.708e-03		20.173
7		0.00		-1.20		8.778e-03		120.628		2.657e-03		16.278
7		0.00		-0.80		8.588e-03		122.545		2.767e-03		22.639
7		0.00		-0.40		8.839e-03		124.120		2.465e-03		18.613
8		0.00		0.00		8.337e-03		120.431		2.436e-03		14.094
8		0.00		0.40		8.161e-03		121.262		2.332e-03		14.373
8		0.00		0.80		7.788e-03		124.209		2.196e-03		15.296
8		0.00		1.20		7.443e-03		116.968		2.072e-03		17.256
8		0.00		1.60		7.269e-03		121.844		1.844e-03		19.594
8		0.00		2.00		6.917e-03		119.083		1.972e-03		16.843
8		0.00		2.40		6.149e-03		119.049		2.068e-03		20.110
8		0.00		2.80		5.453e-03		116.708		1.764e-03		31.014
8		0.00		3.20		4.516e-03		111.484		1.378e-03		28.023
8		0.00		3.60		4.167e-03		110.766		1.424e-03		37.161
8		0.00		4.00		3.575e-03		102.366		1.567e-03		53.876
8		0.00		4.40		2.851e-03		94.043		1.203e-03		50.174
8		0.00		4.80		2.361e-03		65.660		1.010e-03		76.350
8		0.00		5.20		1.830e-03		9.830		8.146e-04		80.338
8		0.00		5.60		1.802e-03		-9.967		7.945e-04		78.461
8		0.00		6.00		1.853e-03		-22.662		8.022e-04		67.835
8		0.00		6.40		2.134e-03		-46.202		8.490e-04		53.720
8		0.00		6.80		2.540e-03		-40.721		1.174e-03		49.991
8		0.00		7.20		3.400e-03		-47.897		1.288e-03		35.402
8		0.00		7.60		4.304e-03		-47.605		1.428e-03		22.907
8		0.00		8.00		5.540e-03		-54.078		1.634e-03		19.831
8		0.00		8.40		7.157e-03		-49.291		2.152e-03		19.225
8		0.00		8.80		8.314e-03		-50.816		2.405e-03		13.266
8		0.00		9.20		1.128e-02		-52.050		3.356e-03		15.423
8		0.00		9.60		1.336e-02		-54.871		3.839e-03		13.449
8		0.00		10.00		1.540e-02		-54.567		4.355e-03		13.309
8		0.00		9.60		1.705e-02		-50.556		4.334e-03		11.163
8		0.00		9.20		1.787e-02		-50.658		4.818e-03		15.570
8		0.00		8.80		1.827e-02		-52.669		4.876e-03		14.511
8		0.00		8.40		1.835e-02		-51.174		4.744e-03		13.239
8		0.00		8.00		1.853e-02		-48.174		5.028e-03		13.134
8		0.00		7.60		1.859e-02		-55.331		5.025e-03		15.629
8		0.00		7.20		1.880e-02		-52.218		5.052e-03		13.671
8		0.00		6.80		1.888e-02		-50.921		5.115e-03		12.833
8		0.00		6.40		1.942e-02		-51.330		4.748e-03		13.010
8		0.00		6.00		1.888e-02		-50.857		4.889e-03		12.069
8		0.00		5.60		1.883e-02		-52.291		5.028e-03		13.310
8		0.00		5.20		1.824e-02		-52.378		5.009e-03		13.954
8		0.00		4.80		1.768e-02		-52.544		4.714e-03		14.472
8		0.00		4.40		1.762e-02		-53.466		4.798e-03		16.119
8		0.00		4.00		1.753e-02		-53.558		4.889e-03		14.113
8		0.00		3.60		1.744e-02		-51.998		4.847e-03		14.768
8		0.00		3.20		1.710e-02		-48.899		4.527e-03		13.030
8		0.00		2.80		1.692e-02		-51.739		4.646e-03		16.209
8		0.00		2.40		1.690e-02		-53.499		4.500e-03		12.790
8		0.00		2.00		1.683e-02		-53.052		4.257e-03		12.918
8		0.00		1.60		1.676e-02		-54.624		4.361e-03		15.599
8		0.00		1.20		1.629e-02		-51.127		3.946e-03		14.818
8		0.00		0.80		1.676e-02		-49.993		3.772e-03		13.476
8		0.00		0.40		1.670e-02		-48.730		3.709e-03		10.009
8		0.00		0.00		1.665e-02		-49.890		4.055e-03		12.610
8		0.00		-0.40		1.643e-02		-53.782		4.178e-03		15.794
8		0.00		-0.80		1.633e-02		-51.411		4.190e-03		12.612
8		0.00		-1.20		1.610e-02		-50.980		4.332e-03		15.160
8		0.00		-1.60		1.642e-02		-50.290		4.077e-03		12.398
8		0.00		-2.00		1.612e-02		-50.628		4.167e-03		15.100
8		0.00		-2.40		1.578e-02		-49.685		4.084e-03		14.427
8		0.00		-2.80		1.519e-02		-51.997		3.975e-03		11.932
8		0.00		-3.20		1.539e-02		-49.170		3.903e-03		12.793
8		0.00		-3.60		1.501e-02		-54.898		3.846e-03		15.140
8		0.00		-4.00		1.427e-02		-51.737		3.734e-03		13.548
8		0.00		-4.40		1.381e-02		-50.008		3.454e-03		14.933
8		0.00		-4.80		1.250e-02		-52.215		3.247e-03		14.118
8		0.00		-5.20		1.154e-02		-48.252		3.198e-03		15.794
8		0.00		-5.60		1.057e-02		-50.890		2.796e-03		17.422
8		0.00		-6.00		8.996e-03		-50.526		2.557e-03		15.024
8		0.00		-6.40		7.646e-03		-45.847		2.235e-03		16.490
8		0.00		-6.80		6.214e-03		-50.821		1.704e-03		17.475
8		0.00		-7.20		4.221e-03		-49.190		1.429e-03		23.476
8		0.00		-7.60		2.644e-03		-54.244		1.090e-03		34.652
8		0.00		-8.00		1.809e-03		-4.761		7.882e-04		64.919
8		0.00		-8.40		2.998e-03		88.644		1.215e-03		50.454
8		0.00		-8.80		4.380e-03		109.374		1.554e-03		27.974
8		0.00		-9.20		5.779e-03		110.372		2.063e-03		25.554
8		0.00		-9.60		7.909e-03		117.186		2.451e-03		23.227
8		0.00		-10.00		9.731e-03		118.985		2.867e-03		21.736
8		0.00		-9.60		1.083e-02		122.875		3.448e-03		19.658
8		0.00		-9.20		1.098e-02		119.909		3.534e-03		21.646
8		0.00		-8.80		1.106e-02		116.845		3.668e-03		22.241
8		0.00		-8.40		1.127e-02		119.169		3.693e-03		24.636
8		0.00		-8.00		1.143e-02		122.362		3.443e-03		17.558
8		0.00		-7.60		1.110e-02		121.049		3.405e-03		19.365
8		0.00		-7.20		1.115e-02		120.822		3.368e-03		17.462
8		0.00		-6.80		1.076e-02		124.793		3.150e-03		16.080
8		0.00		-6.40		1.035e-02		120.197		3.212e-03		20.175
8		0.00		-6.00		1.035e-02		119.375		2.701e-03		16.737
8		0.00		-5.60		1.013e-02		126.114		2.763e-03		14.738
8		0.00		-5.20		9.864e-03		125.663		2.591e-03		15.952
8		0.00		-4.80		9.971e-03		124.323		2.444e-03		16.518
8		0.00		-4.40		9.535e-03		122.818		2.470e-03		17.145
8		0.00		-4.00		9.592e-03		124.493		2.594e-03		14.631
8		0.00		-3.60		9.255e-03		125.390		2.660e-03		16.488
8		0.00		-3.20		9.565e-03		121.720		2.449e-03		12.328
8		0.00		-2.80		9.399e-03		123.687		2.496e-03		13.110
8		0.00		-2.40		9.052e-03		125.059		2.326e-03		12.958
8		0.00		-2.00		8.660e-03		123.556		2.263e-03		14.924
8		0.00		-1.60		8.719e-03		123.839		2.302e-03		13.163
8		0.00		-1.20		8.578e-03		121.989		2.307e-03		17.898
8		0.00		-0.80		8.834e-03		126.235		2.209e-03		14.786
8		0.00		-0.40		8.677e-03		118.489		2.230e-03		13.739
