# Date of analysis: 2023-11-20 16;19
# 
# Loop index	Read Volt (V)	Write Volt (V)	Amplitude (a.u)	Phase (deg)	Sigma Amp (a.u)	Sigma Pha (deg)	
1		0.00		0.00		6.631e-03		-5.740		5.597e-03		41.384
1		0.00		0.40		6.467e-03		-2.437		5.422e-03		41.474
1		0.00		0.80		6.069e-03		-8.362		4.846e-03		46.070
1		0.00		1.20		6.077e-03		-12.875		4.704e-03		47.216
1		0.00		1.60		7.019e-03		-67.562		3.806e-03		51.956
1		0.00		2.00		7.149e-03		-76.666		3.916e-03		52.470
1		0.00		2.40		7.340e-03		-84.398		4.300e-03		47.757
1		0.00		2.80		8.122e-03		-82.007		4.597e-03		47.823
1		0.00		3.20		8.373e-03		-63.946		4.699e-03		53.542
1		0.00		3.60		9.228e-03		-62.023		5.496e-03		49.446
1		0.00		4.00		9.212e-03		-62.552		5.430e-03		56.342
1		0.00		4.40		1.026e-02		-46.314		6.789e-03		54.137
1		0.00		4.80		1.068e-02		-43.208		7.547e-03		61.638
1		0.00		5.20		1.197e-02		-44.051		9.006e-03		54.460
1		0.00		5.60		1.257e-02		-46.907		9.432e-03		53.207
1		0.00		6.00		1.345e-02		-34.252		1.030e-02		52.185
1		0.00		6.40		1.415e-02		-37.048		1.024e-02		52.009
1		0.00		6.80		1.492e-02		-36.040		1.142e-02		53.396
1		0.00		7.20		1.453e-02		-36.924		1.129e-02		54.686
1		0.00		7.60		1.459e-02		-47.812		1.057e-02		47.559
1		0.00		8.00		1.467e-02		-44.339		1.083e-02		42.476
1		0.00		8.40		1.322e-02		-44.983		1.017e-02		54.763
1		0.00		8.80		1.454e-02		-44.127		1.124e-02		45.324
1		0.00		9.20		1.359e-02		-47.838		9.797e-03		54.300
1		0.00		9.60		1.344e-02		-42.728		9.793e-03		59.425
1		0.00		10.00		1.350e-02		-45.981		9.477e-03		56.534
1		0.00		9.60		1.306e-02		-46.621		9.662e-03		61.281
1		0.00		9.20		1.328e-02		-48.607		1.038e-02		50.661
1		0.00		8.80		1.312e-02		-48.357		9.655e-03		60.240
1		0.00		8.40		1.214e-02		-46.779		9.998e-03		55.980
1		0.00		8.00		1.237e-02		-50.625		9.677e-03		54.450
1		0.00		7.60		1.232e-02		-46.105		9.948e-03		55.014
1		0.00		7.20		1.199e-02		-50.746		9.227e-03		55.234
1		0.00		6.80		1.172e-02		-46.602		9.201e-03		58.678
1		0.00		6.40		1.184e-02		-48.617		9.171e-03		57.000
1		0.00		6.00		1.205e-02		-42.049		9.587e-03		60.948
1		0.00		5.60		1.074e-02		-51.609		8.969e-03		56.275
1		0.00		5.20		1.101e-02		-49.818		9.088e-03		53.755
1		0.00		4.80		1.115e-02		-43.733		9.157e-03		56.646
1		0.00		4.40		1.067e-02		-49.543		9.145e-03		55.649
1		0.00		4.00		1.029e-02		-48.011		8.601e-03		52.611
1		0.00		3.60		1.046e-02		-51.256		9.269e-03		56.196
1		0.00		3.20		1.039e-02		-46.481		8.510e-03		54.401
1		0.00		2.80		1.016e-02		-41.764		8.483e-03		53.361
1		0.00		2.40		1.017e-02		-50.663		8.265e-03		52.482
1		0.00		2.00		9.664e-03		-54.697		7.740e-03		44.515
1		0.00		1.60		1.009e-02		-48.178		7.873e-03		51.823
1		0.00		1.20		9.923e-03		-37.591		8.286e-03		53.317
1		0.00		0.80		9.244e-03		-46.589		7.521e-03		55.663
1		0.00		0.40		8.990e-03		-44.445		7.377e-03		51.534
1		0.00		0.00		9.085e-03		-32.473		7.400e-03		50.796
1		0.00		-0.40		8.594e-03		-43.356		7.097e-03		51.853
1		0.00		-0.80		8.118e-03		-37.091		6.760e-03		53.531
1		0.00		-1.20		7.745e-03		-37.134		6.747e-03		56.343
1		0.00		-1.60		7.234e-03		-41.821		6.502e-03		53.844
1		0.00		-2.00		7.032e-03		-54.534		6.001e-03		55.003
1		0.00		-2.40		6.388e-03		-56.249		5.628e-03		52.214
1		0.00		-2.80		5.662e-03		-58.556		5.075e-03		52.502
1		0.00		-3.20		5.542e-03		-53.333		4.704e-03		55.532
1		0.00		-3.60		4.991e-03		-57.992		4.611e-03		62.436
1		0.00		-4.00		4.942e-03		-41.348		4.495e-03		63.345
1		0.00		-4.40		4.192e-03		-48.068		3.695e-03		63.789
1		0.00		-4.80		3.913e-03		-46.225		3.495e-03		63.020
1		0.00		-5.20		3.643e-03		-25.984		3.294e-03		66.416
1		0.00		-5.60		3.228e-03		-44.365		2.345e-03		69.178
1		0.00		-6.00		2.998e-03		-43.645		1.928e-03		69.763
1		0.00		-6.40		2.776e-03		-21.332		1.576e-03		73.978
1		0.00		-6.80		2.899e-03		-18.237		1.952e-03		79.586
1		0.00		-7.20		2.579e-03		-10.356		1.404e-03		79.289
1		0.00		-7.60		2.836e-03		-7.232		1.447e-03		77.753
1		0.00		-8.00		2.096e-03		-5.502		1.098e-03		70.430
1		0.00		-8.40		2.766e-03		10.269		1.775e-03		74.664
1		0.00		-8.80		2.517e-03		16.213		1.312e-03		83.373
1		0.00		-9.20		2.513e-03		34.194		1.344e-03		78.777
1		0.00		-9.60		2.950e-03		25.080		1.733e-03		67.869
1		0.00		-10.00		2.851e-03		17.668		1.599e-03		68.477
1		0.00		-9.60		2.852e-03		22.768		1.612e-03		78.453
1		0.00		-9.20		3.076e-03		30.624		1.819e-03		67.700
1		0.00		-8.80		2.939e-03		34.706		1.913e-03		66.236
1		0.00		-8.40		3.053e-03		31.047		1.758e-03		74.113
1		0.00		-8.00		2.829e-03		22.453		1.712e-03		75.892
1		0.00		-7.60		2.790e-03		29.612		1.502e-03		80.588
1		0.00		-7.20		2.984e-03		19.024		1.741e-03		84.673
1		0.00		-6.80		3.246e-03		18.526		2.065e-03		83.688
1		0.00		-6.40		2.922e-03		23.299		1.788e-03		81.997
1		0.00		-6.00		2.783e-03		13.149		1.539e-03		89.711
1		0.00		-5.60		3.431e-03		42.743		2.054e-03		72.921
1		0.00		-5.20		2.930e-03		38.723		1.658e-03		76.030
1		0.00		-4.80		3.141e-03		47.694		3.102e-03		63.845
1		0.00		-4.40		3.306e-03		36.850		1.657e-03		90.434
1		0.00		-4.00		2.736e-03		39.515		1.284e-03		83.565
1		0.00		-3.60		2.671e-03		26.910		1.253e-03		70.805
1		0.00		-3.20		2.751e-03		43.128		3.241e-03		61.638
1		0.00		-2.80		2.486e-03		28.643		2.576e-03		79.806
1		0.00		-2.40		2.412e-03		2.355		2.528e-03		74.047
1		0.00		-2.00		2.539e-03		12.622		3.192e-03		79.103
1		0.00		-1.60		2.259e-03		-5.182		1.692e-03		77.748
1		0.00		-1.20		2.554e-03		8.016		2.271e-03		88.110
1		0.00		-0.80		2.104e-03		-8.005		1.720e-03		86.272
1		0.00		-0.40		2.446e-03		-9.038		1.946e-03		89.953
2		0.00		0.00		2.343e-03		-6.163		2.129e-03		85.747
2		0.00		0.40		2.228e-03		-19.438		1.575e-03		90.123
2		0.00		0.80		2.278e-03		-24.559		1.407e-03		82.627
2		0.00		1.20		2.371e-03		-35.435		1.598e-03		77.071
2		0.00		1.60		2.191e-03		-33.614		1.539e-03		76.001
2		0.00		2.00		2.540e-03		-38.274		1.738e-03		69.026
2		0.00		2.40		3.758e-03		-20.855		2.559e-03		54.508
2		0.00		2.80		4.607e-03		-27.413		3.263e-03		47.503
2		0.00		3.20		5.558e-03		-28.169		4.186e-03		49.768
2		0.00		3.60		6.457e-03		-32.946		4.782e-03		49.322
2		0.00		4.00		7.137e-03		-35.294		5.861e-03		57.360
2		0.00		4.40		8.058e-03		-36.655		6.644e-03		57.186
2		0.00		4.80		8.578e-03		-47.494		6.988e-03		58.652
2		0.00		5.20		9.206e-03		-48.017		7.857e-03		51.430
2		0.00		5.60		9.410e-03		-59.277		7.967e-03		51.987
2		0.00		6.00		1.020e-02		-47.046		8.546e-03		53.450
2		0.00		6.40		1.061e-02		-46.600		8.700e-03		51.453
2		0.00		6.80		1.130e-02		-50.395		8.679e-03		47.677
2		0.00		7.20		1.146e-02		-41.859		9.048e-03		52.633
2		0.00		7.60		1.143e-02		-44.221		8.845e-03		54.304
2		0.00		8.00		1.234e-02		-34.980		9.340e-03		52.514
2		0.00		8.40		1.224e-02		-32.370		9.438e-03		50.256
2		0.00		8.80		1.244e-02		-36.893		9.661e-03		45.537
2		0.00		9.20		1.226e-02		-28.624		9.218e-03		54.196
2		0.00		9.60		1.253e-02		-28.653		9.376e-03		46.065
2		0.00		10.00		1.203e-02		-25.276		8.804e-03		47.880
2		0.00		9.60		1.216e-02		-30.496		8.681e-03		50.202
2		0.00		9.20		1.179e-02		-33.493		8.050e-03		54.165
2		0.00		8.80		1.166e-02		-53.159		7.794e-03		54.945
2		0.00		8.40		9.966e-03		-65.667		6.320e-03		53.026
2		0.00		8.00		1.074e-02		-64.829		6.460e-03		52.300
2		0.00		7.60		1.049e-02		-46.514		7.313e-03		58.953
2		0.00		7.20		1.072e-02		-53.353		7.053e-03		50.715
2		0.00		6.80		9.909e-03		-61.346		5.997e-03		49.544
2		0.00		6.40		1.001e-02		-66.044		6.242e-03		48.495
2		0.00		6.00		1.031e-02		-56.363		6.884e-03		52.703
2		0.00		5.60		8.225e-03		-80.308		4.826e-03		53.092
2		0.00		5.20		9.482e-03		-56.099		6.525e-03		56.280
2		0.00		4.80		9.437e-03		-13.326		8.152e-03		54.279
2		0.00		4.40		9.742e-03		-34.468		6.740e-03		53.683
2		0.00		4.00		9.751e-03		-43.772		6.694e-03		58.935
2		0.00		3.60		9.687e-03		-10.071		8.806e-03		50.933
2		0.00		3.20		9.745e-03		-12.336		9.777e-03		58.681
2		0.00		2.80		9.614e-03		-9.211		9.155e-03		56.140
2		0.00		2.40		9.452e-03		-13.996		9.480e-03		52.195
2		0.00		2.00		9.591e-03		-17.561		9.678e-03		45.899
2		0.00		1.60		9.160e-03		-17.398		9.158e-03		44.679
2		0.00		1.20		9.409e-03		-9.425		8.792e-03		44.687
2		0.00		0.80		8.899e-03		-25.294		8.112e-03		38.852
2		0.00		0.40		8.679e-03		-22.688		7.252e-03		36.391
2		0.00		0.00		8.327e-03		-26.133		6.933e-03		48.081
2		0.00		-0.40		8.155e-03		-27.212		6.623e-03		48.094
2		0.00		-0.80		7.577e-03		-29.188		5.698e-03		48.203
2		0.00		-1.20		7.642e-03		-41.563		5.432e-03		45.093
2		0.00		-1.60		7.070e-03		-48.388		5.179e-03		53.286
2		0.00		-2.00		6.608e-03		-58.552		4.879e-03		50.493
2		0.00		-2.40		6.162e-03		-51.495		4.490e-03		58.772
2		0.00		-2.80		5.823e-03		-71.408		4.280e-03		50.635
2		0.00		-3.20		5.865e-03		-62.053		4.284e-03		51.364
2		0.00		-3.60		5.191e-03		-58.521		3.712e-03		61.077
2		0.00		-4.00		4.472e-03		-55.547		3.215e-03		56.050
2		0.00		-4.40		4.442e-03		-61.787		3.408e-03		51.126
2		0.00		-4.80		3.758e-03		-36.056		2.766e-03		63.103
2		0.00		-5.20		3.509e-03		-35.369		2.463e-03		69.298
2		0.00		-5.60		3.693e-03		-39.842		2.383e-03		63.138
2		0.00		-6.00		3.101e-03		-27.719		1.838e-03		69.300
2		0.00		-6.40		3.042e-03		-21.001		2.960e-03		86.374
2		0.00		-6.80		2.779e-03		8.108		3.091e-03		75.712
2		0.00		-7.20		3.019e-03		9.657		1.592e-03		88.801
2		0.00		-7.60		3.205e-03		17.296		1.510e-03		88.757
2		0.00		-8.00		2.709e-03		-43.206		1.325e-03		78.861
2		0.00		-8.40		2.445e-03		-12.203		1.444e-03		87.695
2		0.00		-8.80		2.856e-03		-18.872		1.653e-03		89.003
2		0.00		-9.20		2.490e-03		-21.594		1.601e-03		80.033
2		0.00		-9.60		2.566e-03		-7.837		1.408e-03		86.233
2		0.00		-10.00		2.751e-03		-12.742		1.531e-03		83.060
2		0.00		-9.60		2.918e-03		0.410		1.964e-03		91.877
2		0.00		-9.20		2.832e-03		2.665		1.707e-03		91.483
2		0.00		-8.80		3.372e-03		33.016		2.134e-03		84.404
2		0.00		-8.40		3.428e-03		28.225		1.826e-03		80.796
2		0.00		-8.00		2.993e-03		43.901		1.538e-03		85.076
2		0.00		-7.60		3.057e-03		19.336		1.719e-03		87.646
2		0.00		-7.20		2.821e-03		31.957		1.734e-03		81.005
2		0.00		-6.80		2.904e-03		18.604		1.898e-03		72.676
2		0.00		-6.40		2.738e-03		37.843		1.558e-03		80.004
2		0.00		-6.00		3.194e-03		26.393		2.262e-03		74.394
2		0.00		-5.60		2.687e-03		26.621		2.150e-03		74.960
2		0.00		-5.20		2.656e-03		12.771		1.772e-03		73.776
2		0.00		-4.80		2.860e-03		22.394		1.933e-03		84.385
2		0.00		-4.40		2.883e-03		22.642		1.825e-03		82.596
2		0.00		-4.00		2.998e-03		46.656		3.207e-03		70.909
2		0.00		-3.60		2.814e-03		7.599		1.424e-03		87.156
2		0.00		-3.20		2.854e-03		-1.327		1.417e-03		96.021
2		0.00		-2.80		2.212e-03		-34.016		1.013e-03		72.651
2		0.00		-2.40		2.210e-03		-17.199		1.166e-03		79.485
2		0.00		-2.00		2.229e-03		-16.916		1.081e-03		71.277
2		0.00		-1.60		2.406e-03		-36.106		1.179e-03		79.014
2		0.00		-1.20		2.326e-03		-41.435		1.148e-03		71.931
2		0.00		-0.80		2.553e-03		-46.033		1.308e-03		74.195
2		0.00		-0.40		2.375e-03		-47.238		1.180e-03		73.581
3		0.00		0.00		2.674e-03		-44.524		1.608e-03		73.013
3		0.00		0.40		2.613e-03		-29.995		1.764e-03		76.327
3		0.00		0.80		2.847e-03		-27.048		2.186e-03		74.076
3		0.00		1.20		3.095e-03		-50.672		2.428e-03		58.778
3		0.00		1.60		3.198e-03		-34.291		2.425e-03		65.106
3		0.00		2.00		3.593e-03		-33.874		2.633e-03		58.460
3		0.00		2.40		3.926e-03		-37.109		2.701e-03		59.382
3		0.00		2.80		4.445e-03		-58.550		2.713e-03		58.744
3		0.00		3.20		4.912e-03		-54.235		3.176e-03		59.825
3		0.00		3.60		5.540e-03		-66.316		3.521e-03		54.985
3		0.00		4.00		6.291e-03		-67.443		4.110e-03		57.305
3		0.00		4.40		7.737e-03		-47.653		5.175e-03		51.658
3		0.00		4.80		7.570e-03		-11.715		7.140e-03		52.326
3		0.00		5.20		8.391e-03		-6.591		7.570e-03		47.833
3		0.00		5.60		8.980e-03		-10.065		7.604e-03		46.228
3		0.00		6.00		9.684e-03		-19.679		7.818e-03		44.007
3		0.00		6.40		1.062e-02		-19.063		8.180e-03		51.667
3		0.00		6.80		1.177e-02		-24.766		9.333e-03		46.412
3		0.00		7.20		1.214e-02		-32.423		9.683e-03		51.651
3		0.00		7.60		1.183e-02		-45.482		9.399e-03		55.213
3		0.00		8.00		1.367e-02		-49.692		1.057e-02		52.350
3		0.00		8.40		1.410e-02		-48.740		1.105e-02		54.511
3		0.00		8.80		1.473e-02		-48.359		1.079e-02		47.499
3		0.00		9.20		1.424e-02		-33.304		9.944e-03		51.447
3		0.00		9.60		1.356e-02		-35.791		9.247e-03		47.444
3		0.00		10.00		1.370e-02		-30.330		9.056e-03		48.819
3		0.00		9.60		1.279e-02		-32.887		9.086e-03		53.894
3		0.00		9.20		1.242e-02		-51.002		7.868e-03		52.560
3		0.00		8.80		1.073e-02		-72.231		7.002e-03		53.249
3		0.00		8.40		1.205e-02		-10.391		1.112e-02		51.059
3		0.00		8.00		1.162e-02		-17.830		1.074e-02		42.793
3		0.00		7.60		1.163e-02		-24.276		9.766e-03		42.448
3		0.00		7.20		1.158e-02		-25.875		9.325e-03		43.758
3		0.00		6.80		1.121e-02		-22.954		7.994e-03		43.306
3		0.00		6.40		1.176e-02		-29.327		8.256e-03		49.525
3		0.00		6.00		1.154e-02		-36.492		8.151e-03		54.637
3		0.00		5.60		1.173e-02		-51.446		8.067e-03		47.783
3		0.00		5.20		1.201e-02		-43.181		8.758e-03		52.203
3		0.00		4.80		1.226e-02		-44.114		9.077e-03		48.695
3		0.00		4.40		1.204e-02		-45.297		9.051e-03		60.419
3		0.00		4.00		1.296e-02		-37.866		9.374e-03		48.073
3		0.00		3.60		1.233e-02		-34.913		8.741e-03		54.519
3		0.00		3.20		1.173e-02		-33.237		8.372e-03		51.539
3		0.00		2.80		1.010e-02		-47.029		6.054e-03		59.238
3		0.00		2.40		1.001e-02		-56.407		6.479e-03		48.699
3		0.00		2.00		9.076e-03		-95.826		5.371e-03		39.374
3		0.00		1.60		9.290e-03		-85.123		5.394e-03		40.841
3		0.00		1.20		8.482e-03		-75.082		5.159e-03		46.004
3		0.00		0.80		9.658e-03		-16.942		8.086e-03		39.911
3		0.00		0.40		9.335e-03		-22.708		7.641e-03		49.939
3		0.00		0.00		9.760e-03		-31.007		7.586e-03		41.984
3		0.00		-0.40		9.987e-03		-26.751		7.755e-03		43.677
3		0.00		-0.80		9.612e-03		-38.566		7.871e-03		48.267
3		0.00		-1.20		9.130e-03		-42.839		8.065e-03		52.621
3		0.00		-1.60		8.811e-03		-44.936		8.134e-03		56.768
3		0.00		-2.00		8.292e-03		-51.049		7.250e-03		50.594
3		0.00		-2.40		7.810e-03		-47.899		6.470e-03		52.670
3		0.00		-2.80		6.940e-03		-27.609		5.292e-03		61.444
3		0.00		-3.20		6.419e-03		-41.513		4.904e-03		50.410
3		0.00		-3.60		5.567e-03		-44.399		4.205e-03		59.254
3		0.00		-4.00		3.779e-03		-50.239		2.571e-03		83.803
3		0.00		-4.40		5.293e-03		-49.357		4.736e-03		46.191
3		0.00		-4.80		5.038e-03		-34.396		4.216e-03		46.864
3		0.00		-5.20		4.399e-03		-32.926		3.321e-03		51.099
3		0.00		-5.60		4.179e-03		-53.738		2.959e-03		55.301
3		0.00		-6.00		3.858e-03		-67.527		2.929e-03		51.430
3		0.00		-6.40		3.662e-03		-64.365		2.728e-03		71.326
3		0.00		-6.80		3.196e-03		-44.435		1.793e-03		77.250
3		0.00		-7.20		2.841e-03		-39.850		1.646e-03		72.494
3		0.00		-7.60		2.938e-03		-21.637		1.705e-03		77.226
3		0.00		-8.00		2.531e-03		-33.010		1.354e-03		68.378
3		0.00		-8.40		2.289e-03		-25.744		1.468e-03		72.335
3		0.00		-8.80		2.841e-03		39.995		1.718e-03		85.836
3		0.00		-9.20		3.416e-03		31.450		2.057e-03		93.071
3		0.00		-9.60		3.524e-03		33.239		2.711e-03		82.104
3		0.00		-10.00		2.962e-03		-18.410		1.944e-03		95.307
3		0.00		-9.60		2.640e-03		-16.944		1.488e-03		85.788
3		0.00		-9.20		2.405e-03		-14.982		1.325e-03		89.368
3		0.00		-8.80		2.475e-03		-9.424		1.117e-03		88.234
3		0.00		-8.40		2.209e-03		-35.637		9.000e-04		90.178
3		0.00		-8.00		2.352e-03		-4.612		1.110e-03		94.882
3		0.00		-7.60		2.611e-03		6.911		1.315e-03		96.194
3		0.00		-7.20		3.176e-03		32.773		1.854e-03		86.186
3		0.00		-6.80		2.753e-03		26.031		1.476e-03		77.790
3		0.00		-6.40		2.621e-03		17.594		1.882e-03		70.440
3		0.00		-6.00		2.661e-03		3.165		1.860e-03		79.737
3		0.00		-5.60		2.995e-03		28.072		1.792e-03		84.279
3		0.00		-5.20		3.470e-03		47.735		3.733e-03		75.718
3		0.00		-4.80		3.182e-03		48.764		3.380e-03		77.955
3		0.00		-4.40		3.205e-03		18.970		3.665e-03		71.634
3		0.00		-4.00		2.230e-03		-31.936		1.111e-03		74.780
3		0.00		-3.60		2.315e-03		-29.499		1.053e-03		74.949
3		0.00		-3.20		2.126e-03		-40.251		9.215e-04		72.260
3		0.00		-2.80		2.576e-03		-27.672		1.402e-03		90.983
3		0.00		-2.40		2.519e-03		-33.709		1.301e-03		88.019
3		0.00		-2.00		2.693e-03		-45.696		1.538e-03		74.057
3		0.00		-1.60		2.591e-03		-21.196		1.782e-03		75.537
3		0.00		-1.20		2.593e-03		-9.476		1.494e-03		66.590
3		0.00		-0.80		2.543e-03		-32.020		1.266e-03		68.913
3		0.00		-0.40		2.569e-03		-26.134		1.400e-03		73.430
4		0.00		0.00		2.705e-03		-26.333		1.965e-03		78.296
4		0.00		0.40		2.869e-03		-53.541		2.324e-03		65.815
4		0.00		0.80		2.972e-03		-43.883		2.447e-03		61.175
4		0.00		1.20		3.366e-03		-20.660		2.652e-03		58.670
4		0.00		1.60		3.528e-03		-26.425		2.525e-03		52.377
4		0.00		2.00		3.790e-03		-33.512		2.812e-03		51.479
4		0.00		2.40		4.721e-03		-22.870		3.469e-03		44.295
4		0.00		2.80		5.201e-03		-32.138		4.196e-03		54.725
4		0.00		3.20		5.984e-03		-36.093		5.294e-03		57.803
4		0.00		3.60		6.614e-03		-56.321		5.768e-03		56.102
4		0.00		4.00		7.486e-03		-41.776		6.274e-03		53.164
4		0.00		4.40		8.340e-03		-48.005		6.520e-03		53.954
4		0.00		4.80		8.349e-03		-32.655		6.398e-03		57.455
4		0.00		5.20		8.326e-03		-48.907		5.018e-03		53.110
4		0.00		5.60		9.522e-03		-61.463		5.890e-03		49.263
4		0.00		6.00		9.900e-03		-72.769		6.700e-03		46.053
4		0.00		6.40		1.110e-02		-59.326		7.618e-03		52.652
4		0.00		6.80		1.186e-02		-59.808		8.457e-03		48.341
4		0.00		7.20		1.194e-02		-15.250		1.134e-02		44.097
4		0.00		7.60		1.177e-02		-7.425		1.104e-02		46.853
4		0.00		8.00		1.151e-02		-19.621		1.041e-02		45.732
4		0.00		8.40		1.171e-02		-18.971		9.342e-03		43.982
4		0.00		8.80		1.172e-02		-24.810		8.865e-03		45.825
4		0.00		9.20		1.242e-02		-24.850		9.338e-03		46.036
4		0.00		9.60		1.307e-02		-40.506		9.063e-03		48.811
4		0.00		10.00		1.321e-02		-33.083		9.818e-03		52.541
4		0.00		9.60		1.265e-02		-40.826		9.457e-03		54.809
4		0.00		9.20		1.245e-02		-54.276		8.852e-03		58.188
4		0.00		8.80		1.239e-02		-51.654		8.904e-03		60.533
4		0.00		8.40		1.358e-02		-42.501		1.070e-02		51.765
4		0.00		8.00		1.331e-02		-53.052		1.007e-02		50.549
4		0.00		7.60		1.393e-02		-48.714		1.038e-02		44.398
4		0.00		7.20		1.319e-02		-42.932		9.665e-03		53.176
4		0.00		6.80		1.221e-02		-37.927		9.207e-03		55.737
4		0.00		6.40		1.169e-02		-30.113		8.911e-03		61.048
4		0.00		6.00		1.053e-02		-53.723		6.816e-03		57.386
4		0.00		5.60		1.059e-02		-59.048		6.674e-03		46.295
4		0.00		5.20		9.746e-03		-78.342		6.082e-03		46.192
4		0.00		4.80		1.003e-02		-70.542		6.885e-03		50.217
4		0.00		4.40		1.010e-02		-64.586		7.014e-03		54.614
4		0.00		4.00		1.034e-02		-14.340		9.557e-03		44.892
4		0.00		3.60		9.780e-03		-15.991		9.318e-03		39.003
4		0.00		3.20		9.794e-03		-19.071		8.984e-03		37.471
4		0.00		2.80		1.020e-02		-17.805		8.167e-03		37.252
4		0.00		2.40		9.939e-03		-25.568		7.913e-03		50.126
4		0.00		2.00		1.003e-02		-27.512		7.555e-03		42.922
4		0.00		1.60		9.848e-03		-31.239		7.724e-03		50.797
4		0.00		1.20		1.066e-02		-28.611		8.047e-03		49.400
4		0.00		0.80		1.032e-02		-43.309		8.477e-03		46.874
4		0.00		0.40		1.046e-02		-42.601		8.445e-03		50.594
4		0.00		0.00		1.012e-02		-45.750		8.058e-03		58.071
4		0.00		-0.40		1.000e-02		-42.863		7.962e-03		56.080
4		0.00		-0.80		9.651e-03		-48.665		7.639e-03		56.607
4		0.00		-1.20		9.771e-03		-41.780		7.334e-03		51.282
4		0.00		-1.60		9.061e-03		-54.315		7.174e-03		39.276
4		0.00		-2.00		8.060e-03		-38.520		6.319e-03		52.573
4		0.00		-2.40		7.370e-03		-43.321		5.592e-03		48.537
4		0.00		-2.80		6.464e-03		-21.704		5.030e-03		53.442
4		0.00		-3.20		5.795e-03		-25.697		4.328e-03		65.159
4		0.00		-3.60		5.052e-03		-44.971		4.225e-03		55.190
4		0.00		-4.00		4.610e-03		-56.259		3.468e-03		65.282
4		0.00		-4.40		4.186e-03		-53.910		3.096e-03		70.259
4		0.00		-4.80		3.739e-03		-50.319		2.256e-03		81.722
4		0.00		-5.20		3.969e-03		-58.942		2.604e-03		71.138
4		0.00		-5.60		3.682e-03		-48.449		2.207e-03		83.012
4		0.00		-6.00		3.280e-03		-47.541		2.425e-03		56.402
4		0.00		-6.40		2.826e-03		-58.851		2.025e-03		54.789
4		0.00		-6.80		2.742e-03		-53.887		1.682e-03		59.585
4		0.00		-7.20		2.782e-03		-35.780		1.490e-03		81.604
4		0.00		-7.60		2.362e-03		-51.011		1.045e-03		65.378
4		0.00		-8.00		2.373e-03		-45.891		1.058e-03		71.127
4		0.00		-8.40		2.507e-03		-17.414		1.219e-03		78.875
4		0.00		-8.80		2.992e-03		-3.745		1.647e-03		94.848
4		0.00		-9.20		2.945e-03		-2.187		1.705e-03		87.795
4		0.00		-9.60		2.155e-03		-27.701		1.132e-03		77.934
4		0.00		-10.00		2.865e-03		0.353		1.615e-03		93.402
4		0.00		-9.60		2.168e-03		-30.214		1.073e-03		90.449
4		0.00		-9.20		3.027e-03		15.761		1.498e-03		89.340
4		0.00		-8.80		2.591e-03		-29.601		1.213e-03		94.406
4		0.00		-8.40		2.643e-03		-21.261		1.321e-03		98.288
4		0.00		-8.00		2.448e-03		-34.838		1.059e-03		87.724
4		0.00		-7.60		2.310e-03		-22.034		1.002e-03		96.415
4		0.00		-7.20		2.528e-03		-10.851		1.222e-03		94.654
4		0.00		-6.80		2.515e-03		-13.997		1.320e-03		90.609
4		0.00		-6.40		2.157e-03		-13.755		1.004e-03		81.806
4		0.00		-6.00		2.803e-03		1.883		1.419e-03		92.883
4		0.00		-5.60		2.029e-03		-5.419		9.712e-04		88.883
4		0.00		-5.20		2.376e-03		-7.345		1.160e-03		96.843
4		0.00		-4.80		2.238e-03		-45.636		1.128e-03		77.183
4		0.00		-4.40		2.348e-03		-37.957		1.100e-03		81.943
4		0.00		-4.00		2.434e-03		-21.047		1.225e-03		89.025
4		0.00		-3.60		2.835e-03		-4.106		1.530e-03		93.228
4		0.00		-3.20		2.247e-03		-24.436		1.188e-03		75.021
4		0.00		-2.80		2.644e-03		-59.145		1.253e-03		75.141
4		0.00		-2.40		2.265e-03		-29.858		1.203e-03		74.309
4		0.00		-2.00		2.585e-03		-58.492		1.280e-03		72.288
4		0.00		-1.60		2.683e-03		-49.089		1.675e-03		71.303
4		0.00		-1.20		2.624e-03		-43.314		1.570e-03		73.798
4		0.00		-0.80		2.736e-03		-41.232		1.883e-03		72.785
4		0.00		-0.40		2.822e-03		-49.005		1.900e-03		71.810
5		0.00		0.00		2.680e-03		-45.532		2.133e-03		66.010
5		0.00		0.40		2.814e-03		-40.963		2.126e-03		72.269
5		0.00		0.80		2.649e-03		-38.506		1.755e-03		75.126
5		0.00		1.20		3.360e-03		-54.766		2.713e-03		63.151
5		0.00		1.60		3.918e-03		-38.685		3.371e-03		62.593
5		0.00		2.00		4.313e-03		-40.306		3.685e-03		46.767
5		0.00		2.40		4.788e-03		-50.868		4.016e-03		45.125
5		0.00		2.80		4.921e-03		-37.528		4.180e-03		52.045
5		0.00		3.20		5.923e-03		-38.539		4.474e-03		51.859
5		0.00		3.60		6.429e-03		-27.697		5.044e-03		47.593
5		0.00		4.00		7.045e-03		-38.850		5.454e-03		41.533
5		0.00		4.40		7.606e-03		-26.619		5.932e-03		47.506
5		0.00		4.80		7.788e-03		-31.803		5.609e-03		42.215
5		0.00		5.20		8.379e-03		-24.238		5.590e-03		51.178
5		0.00		5.60		8.884e-03		-26.331		6.287e-03		45.511
5		0.00		6.00		9.687e-03		-29.007		6.696e-03		39.236
5		0.00		6.40		1.074e-02		-23.792		7.508e-03		48.634
5		0.00		6.80		1.121e-02		-30.619		7.746e-03		49.302
5		0.00		7.20		1.154e-02		-29.796		8.309e-03		42.869
5		0.00		7.60		1.249e-02		-28.151		8.874e-03		47.120
5		0.00		8.00		1.312e-02		-29.318		9.768e-03		43.186
5		0.00		8.40		1.380e-02		-29.705		1.041e-02		45.520
5		0.00		8.80		1.425e-02		-30.501		1.025e-02		49.371
5		0.00		9.20		1.427e-02		-33.574		1.068e-02		43.616
5		0.00		9.60		1.449e-02		-35.161		1.101e-02		46.328
5		0.00		10.00		1.487e-02		-36.209		1.109e-02		42.571
5		0.00		9.60		1.430e-02		-39.161		1.106e-02		48.374
5		0.00		9.20		1.374e-02		-44.341		1.063e-02		44.997
5		0.00		8.80		1.304e-02		-43.697		9.914e-03		56.256
5		0.00		8.40		1.282e-02		-45.875		9.879e-03		51.958
5		0.00		8.00		1.253e-02		-39.873		9.563e-03		47.709
5		0.00		7.60		1.193e-02		-39.253		9.124e-03		49.876
5		0.00		7.20		1.153e-02		-36.802		8.744e-03		52.398
5		0.00		6.80		1.152e-02		-43.087		8.318e-03		55.825
5		0.00		6.40		1.169e-02		-32.704		8.543e-03		52.398
5		0.00		6.00		1.174e-02		-43.163		8.416e-03		51.018
5		0.00		5.60		1.151e-02		-40.328		8.141e-03		51.070
5		0.00		5.20		1.134e-02		-33.329		8.130e-03		46.934
5		0.00		4.80		1.124e-02		-43.466		7.856e-03		50.412
5		0.00		4.40		1.072e-02		-39.773		7.517e-03		55.535
5		0.00		4.00		1.121e-02		-39.116		7.396e-03		46.919
5		0.00		3.60		1.174e-02		-38.966		8.702e-03		48.546
5		0.00		3.20		1.150e-02		-42.016		8.573e-03		54.206
5		0.00		2.80		1.139e-02		-38.801		8.620e-03		52.093
5		0.00		2.40		1.106e-02		-50.102		7.868e-03		53.089
5		0.00		2.00		1.123e-02		-38.954		8.457e-03		55.712
5		0.00		1.60		1.131e-02		-37.370		8.673e-03		43.360
5		0.00		1.20		1.147e-02		-37.843		8.676e-03		43.340
5		0.00		0.80		1.121e-02		-23.264		8.687e-03		47.670
5		0.00		0.40		1.057e-02		-34.726		8.402e-03		46.961
5		0.00		0.00		1.049e-02		-34.271		8.691e-03		45.955
5		0.00		-0.40		9.826e-03		-36.335		8.208e-03		45.654
5		0.00		-0.80		9.298e-03		-41.616		7.484e-03		45.578
5		0.00		-1.20		8.541e-03		-43.850		6.986e-03		45.362
5		0.00		-1.60		8.079e-03		-48.756		6.626e-03		47.604
5		0.00		-2.00		7.916e-03		-48.865		6.176e-03		42.758
5		0.00		-2.40		7.032e-03		-42.824		5.538e-03		42.387
5		0.00		-2.80		6.884e-03		-51.702		5.041e-03		45.408
5		0.00		-3.20		6.146e-03		-57.728		4.518e-03		42.261
5		0.00		-3.60		6.082e-03		-58.790		4.205e-03		46.120
5		0.00		-4.00		5.704e-03		-54.444		3.915e-03		39.799
5		0.00		-4.40		5.193e-03		-49.796		3.618e-03		47.231
5		0.00		-4.80		4.699e-03		-45.495		3.194e-03		47.803
5		0.00		-5.20		4.501e-03		-37.452		3.236e-03		58.421
5		0.00		-5.60		4.214e-03		-37.856		2.905e-03		58.587
5		0.00		-6.00		4.130e-03		-50.838		2.660e-03		45.668
5		0.00		-6.40		3.587e-03		-50.853		2.299e-03		43.927
5		0.00		-6.80		3.165e-03		-47.264		1.845e-03		54.990
5		0.00		-7.20		2.692e-03		-35.665		1.571e-03		65.330
5		0.00		-7.60		2.567e-03		-52.352		1.410e-03		67.553
5		0.00		-8.00		2.254e-03		-54.808		1.066e-03		56.557
5		0.00		-8.40		2.572e-03		-44.023		1.381e-03		71.720
5		0.00		-8.80		2.340e-03		-40.400		1.215e-03		70.861
5		0.00		-9.20		2.718e-03		-31.441		1.547e-03		86.940
5		0.00		-9.60		2.866e-03		-12.273		1.874e-03		95.760
5		0.00		-10.00		3.325e-03		14.850		1.995e-03		92.710
5		0.00		-9.60		3.143e-03		21.905		1.900e-03		95.834
5		0.00		-9.20		3.363e-03		10.673		2.289e-03		91.541
5		0.00		-8.80		3.007e-03		16.291		1.882e-03		85.924
5		0.00		-8.40		2.623e-03		0.486		1.491e-03		91.763
5		0.00		-8.00		3.166e-03		3.533		2.216e-03		98.364
5		0.00		-7.60		3.241e-03		19.206		2.108e-03		93.199
5		0.00		-7.20		3.156e-03		21.278		2.154e-03		97.142
5		0.00		-6.80		2.717e-03		11.732		1.823e-03		86.000
5		0.00		-6.40		3.109e-03		21.302		1.814e-03		86.328
5		0.00		-6.00		3.085e-03		22.239		1.818e-03		84.957
5		0.00		-5.60		3.242e-03		8.362		2.075e-03		89.901
5		0.00		-5.20		2.768e-03		-12.431		1.428e-03		95.699
5		0.00		-4.80		2.871e-03		-9.299		1.687e-03		95.049
5		0.00		-4.40		2.596e-03		15.473		2.275e-03		78.446
5		0.00		-4.00		2.431e-03		-1.007		1.382e-03		83.201
5		0.00		-3.60		2.252e-03		-14.985		1.232e-03		83.837
5		0.00		-3.20		2.448e-03		-13.392		1.420e-03		82.293
5		0.00		-2.80		2.375e-03		-27.910		1.439e-03		71.509
5		0.00		-2.40		2.480e-03		-8.037		1.469e-03		74.746
5		0.00		-2.00		2.346e-03		-20.703		1.183e-03		72.451
5		0.00		-1.60		2.367e-03		-36.174		1.045e-03		68.726
5		0.00		-1.20		2.383e-03		-24.452		1.135e-03		64.634
5		0.00		-0.80		2.586e-03		-44.160		1.350e-03		66.122
5		0.00		-0.40		2.792e-03		-49.413		1.559e-03		59.549
6		0.00		0.00		2.751e-03		-59.172		1.525e-03		57.753
6		0.00		0.40		2.778e-03		-43.908		1.704e-03		69.547
6		0.00		0.80		3.062e-03		-49.161		1.745e-03		63.766
6		0.00		1.20		3.115e-03		-50.558		1.992e-03		58.066
6		0.00		1.60		4.015e-03		-40.149		2.959e-03		51.409
6		0.00		2.00		4.680e-03		-28.846		3.627e-03		45.885
6		0.00		2.40		5.123e-03		-29.616		3.994e-03		46.039
6		0.00		2.80		5.489e-03		-37.072		4.463e-03		42.505
6		0.00		3.20		5.638e-03		-41.643		4.546e-03		46.487
6		0.00		3.60		6.235e-03		-32.651		4.951e-03		51.194
6		0.00		4.00		6.908e-03		-36.790		5.481e-03		55.324
6		0.00		4.40		7.619e-03		-41.453		6.317e-03		49.694
6		0.00		4.80		7.929e-03		-41.223		6.463e-03		47.621
6		0.00		5.20		8.427e-03		-46.125		7.110e-03		49.479
6		0.00		5.60		8.689e-03		-52.335		7.539e-03		46.321
6		0.00		6.00		9.541e-03		-42.119		7.749e-03		47.725
6		0.00		6.40		9.920e-03		-42.096		8.005e-03		49.362
6		0.00		6.80		1.072e-02		-40.282		7.896e-03		56.375
6		0.00		7.20		1.196e-02		-41.888		9.081e-03		52.851
6		0.00		7.60		1.258e-02		-48.247		9.247e-03		46.053
6		0.00		8.00		1.305e-02		-48.618		8.837e-03		50.861
6		0.00		8.40		1.329e-02		-47.539		9.338e-03		52.642
6		0.00		8.80		1.408e-02		-46.700		9.959e-03		45.822
6		0.00		9.20		1.407e-02		-40.229		9.984e-03		54.847
6		0.00		9.60		1.408e-02		-52.396		9.795e-03		56.378
6		0.00		10.00		1.390e-02		-47.936		9.868e-03		50.395
6		0.00		9.60		1.382e-02		-48.845		9.990e-03		57.145
6		0.00		9.20		1.335e-02		-50.797		9.891e-03		53.111
6		0.00		8.80		1.296e-02		-54.275		9.456e-03		48.111
6		0.00		8.40		1.304e-02		-42.420		9.221e-03		53.707
6		0.00		8.00		1.275e-02		-50.002		1.000e-02		49.677
6		0.00		7.60		1.196e-02		-51.471		9.478e-03		51.882
6		0.00		7.20		1.188e-02		-50.637		8.984e-03		50.489
6		0.00		6.80		1.146e-02		-42.060		9.047e-03		51.005
6		0.00		6.40		1.204e-02		-35.644		9.313e-03		48.529
6		0.00		6.00		1.208e-02		-34.366		9.856e-03		42.742
6		0.00		5.60		1.143e-02		-31.997		9.436e-03		46.314
6		0.00		5.20		1.141e-02		-35.066		9.439e-03		44.944
6		0.00		4.80		1.098e-02		-32.584		8.462e-03		48.237
6		0.00		4.40		1.128e-02		-32.849		8.481e-03		44.496
6		0.00		4.00		1.093e-02		-30.852		8.099e-03		47.913
6		0.00		3.60		1.147e-02		-24.105		8.188e-03		49.107
6		0.00		3.20		1.138e-02		-33.435		8.074e-03		45.927
6		0.00		2.80		1.152e-02		-33.015		7.954e-03		44.811
6		0.00		2.40		1.177e-02		-31.933		8.152e-03		45.593
6		0.00		2.00		1.191e-02		-32.846		8.066e-03		47.469
6		0.00		1.60		1.206e-02		-34.889		8.285e-03		45.478
6		0.00		1.20		1.194e-02		-37.102		8.202e-03		41.032
6		0.00		0.80		1.148e-02		-34.241		8.080e-03		40.878
6		0.00		0.40		1.137e-02		-31.680		7.901e-03		45.320
6		0.00		0.00		1.077e-02		-39.635		7.985e-03		38.608
6		0.00		-0.40		1.047e-02		-38.306		7.562e-03		42.776
6		0.00		-0.80		1.012e-02		-38.707		7.917e-03		51.953
6		0.00		-1.20		9.295e-03		-49.027		7.119e-03		38.415
6		0.00		-1.60		8.913e-03		-48.465		6.973e-03		40.909
6		0.00		-2.00		8.150e-03		-49.215		6.730e-03		46.112
6		0.00		-2.40		8.001e-03		-44.715		6.498e-03		47.159
6		0.00		-2.80		7.180e-03		-55.621		6.161e-03		42.835
6		0.00		-3.20		7.107e-03		-54.403		5.939e-03		49.901
6		0.00		-3.60		6.251e-03		-68.107		5.368e-03		44.871
6		0.00		-4.00		6.016e-03		-55.841		4.900e-03		50.091
6		0.00		-4.40		5.669e-03		-64.932		4.509e-03		46.534
6		0.00		-4.80		4.911e-03		-70.733		3.417e-03		52.331
6		0.00		-5.20		4.308e-03		-73.006		3.176e-03		59.428
6		0.00		-5.60		4.384e-03		-58.251		3.439e-03		57.630
6		0.00		-6.00		3.815e-03		-56.176		2.854e-03		53.324
6		0.00		-6.40		3.575e-03		-49.350		2.471e-03		65.080
6		0.00		-6.80		2.886e-03		-47.318		1.698e-03		65.932
6		0.00		-7.20		3.014e-03		-55.712		1.813e-03		63.173
6		0.00		-7.60		2.815e-03		-53.542		1.492e-03		55.189
6		0.00		-8.00		2.883e-03		-27.701		1.853e-03		84.530
6		0.00		-8.40		2.451e-03		-8.435		1.239e-03		73.996
6		0.00		-8.80		2.360e-03		-14.193		1.244e-03		88.039
6		0.00		-9.20		2.090e-03		-22.760		1.005e-03		79.979
6		0.00		-9.60		2.324e-03		-14.660		1.370e-03		83.477
6		0.00		-10.00		2.680e-03		-0.551		1.520e-03		84.717
6		0.00		-9.60		2.554e-03		3.483		1.444e-03		89.726
6		0.00		-9.20		2.445e-03		-6.421		1.280e-03		84.111
6		0.00		-8.80		2.717e-03		-8.677		1.587e-03		90.530
6		0.00		-8.40		3.188e-03		20.405		2.272e-03		87.991
6		0.00		-8.00		2.840e-03		18.914		1.824e-03		81.253
6		0.00		-7.60		3.041e-03		15.053		1.764e-03		97.681
6		0.00		-7.20		2.607e-03		9.342		1.592e-03		92.796
6		0.00		-6.80		2.522e-03		14.804		1.589e-03		91.050
6		0.00		-6.40		2.426e-03		18.605		1.327e-03		78.418
6		0.00		-6.00		2.314e-03		-11.860		1.437e-03		80.715
6		0.00		-5.60		2.377e-03		-2.587		1.483e-03		75.653
6		0.00		-5.20		2.518e-03		6.265		1.535e-03		78.077
6		0.00		-4.80		2.328e-03		-4.620		1.377e-03		83.030
6		0.00		-4.40		2.240e-03		-9.329		1.408e-03		84.340
6		0.00		-4.00		2.229e-03		-21.233		1.757e-03		74.572
6		0.00		-3.60		2.216e-03		-14.507		1.278e-03		80.964
6		0.00		-3.20		2.331e-03		-28.313		1.391e-03		71.571
6		0.00		-2.80		2.295e-03		-40.682		1.345e-03		66.636
6		0.00		-2.40		2.192e-03		-28.985		1.294e-03		73.632
6		0.00		-2.00		2.428e-03		-28.837		1.492e-03		76.069
6		0.00		-1.60		2.418e-03		-33.220		1.205e-03		69.720
6		0.00		-1.20		2.493e-03		-18.361		1.382e-03		74.078
6		0.00		-0.80		2.611e-03		-38.704		1.498e-03		81.123
6		0.00		-0.40		2.624e-03		-42.424		1.391e-03		79.457
7		0.00		0.00		2.896e-03		-51.812		1.758e-03		67.218
7		0.00		0.40		2.783e-03		-40.246		1.537e-03		76.685
7		0.00		0.80		2.626e-03		-41.652		1.661e-03		71.816
7		0.00		1.20		2.470e-03		-53.409		1.497e-03		86.631
7		0.00		1.60		2.673e-03		-67.516		1.693e-03		82.238
7		0.00		2.00		3.287e-03		-80.797		2.336e-03		55.857
7		0.00		2.40		3.602e-03		-74.654		2.611e-03		59.313
7		0.00		2.80		4.094e-03		-77.776		2.997e-03		55.169
7		0.00		3.20		4.391e-03		-76.037		3.090e-03		51.437
7		0.00		3.60		4.410e-03		-78.506		2.960e-03		50.962
7		0.00		4.00		6.350e-03		-20.750		5.209e-03		47.793
7		0.00		4.40		6.886e-03		-16.354		5.579e-03		41.646
7		0.00		4.80		7.303e-03		-17.997		6.339e-03		48.395
7		0.00		5.20		8.161e-03		-20.557		6.895e-03		46.818
7		0.00		5.60		8.930e-03		-13.474		6.939e-03		50.650
7		0.00		6.00		9.549e-03		-20.676		7.626e-03		43.608
7		0.00		6.40		9.983e-03		-34.904		8.289e-03		44.923
7		0.00		6.80		1.094e-02		-36.679		8.194e-03		44.419
7		0.00		7.20		1.189e-02		-34.066		8.567e-03		44.733
7		0.00		7.60		1.294e-02		-36.554		9.163e-03		43.416
7		0.00		8.00		1.352e-02		-41.894		9.644e-03		43.296
7		0.00		8.40		1.353e-02		-39.580		9.186e-03		52.837
7		0.00		8.80		1.370e-02		-37.582		9.804e-03		44.153
7		0.00		9.20		1.240e-02		-34.320		8.120e-03		52.726
7		0.00		9.60		1.178e-02		-37.356		7.598e-03		48.260
7		0.00		10.00		1.136e-02		-40.651		7.517e-03		58.400
7		0.00		9.60		8.322e-03		-94.822		5.258e-03		44.552
7		0.00		9.20		9.006e-03		-90.213		5.784e-03		50.918
7		0.00		8.80		8.917e-03		-68.008		6.154e-03		61.264
7		0.00		8.40		1.166e-02		-23.995		1.029e-02		47.099
7		0.00		8.00		1.142e-02		-18.992		9.650e-03		44.867
7		0.00		7.60		1.123e-02		-24.184		8.617e-03		43.610
7		0.00		7.20		1.161e-02		-28.106		8.446e-03		48.371
7		0.00		6.80		1.182e-02		-34.548		8.311e-03		42.638
7		0.00		6.40		1.221e-02		-33.391		8.547e-03		42.235
7		0.00		6.00		1.183e-02		-40.651		8.394e-03		48.026
7		0.00		5.60		1.160e-02		-34.173		8.395e-03		49.331
7		0.00		5.20		1.167e-02		-45.751		8.404e-03		40.280
7		0.00		4.80		1.117e-02		-43.061		8.387e-03		52.266
7		0.00		4.40		1.067e-02		-31.484		7.892e-03		50.607
7		0.00		4.00		9.910e-03		-32.510		6.874e-03		55.318
7		0.00		3.60		8.789e-03		-44.156		5.581e-03		56.098
7		0.00		3.20		7.464e-03		-80.507		4.403e-03		50.888
7		0.00		2.80		7.069e-03		-97.794		4.469e-03		41.690
7		0.00		2.40		8.340e-03		-55.737		6.034e-03		57.326
7		0.00		2.00		9.789e-03		-17.838		8.227e-03		47.734
7		0.00		1.60		9.968e-03		-19.701		7.897e-03		45.256
7		0.00		1.20		1.033e-02		-21.756		7.834e-03		43.916
7		0.00		0.80		1.050e-02		-28.854		8.244e-03		45.151
7		0.00		0.40		1.046e-02		-39.900		8.519e-03		41.240
7		0.00		0.00		1.009e-02		-40.778		7.890e-03		40.123
7		0.00		-0.40		9.216e-03		-34.185		6.823e-03		44.385
7		0.00		-0.80		8.844e-03		-32.837		6.801e-03		45.272
7		0.00		-1.20		8.163e-03		-25.349		6.335e-03		44.458
7		0.00		-1.60		8.139e-03		-22.431		7.147e-03		50.525
7		0.00		-2.00		7.932e-03		-14.813		7.419e-03		46.175
7		0.00		-2.40		7.503e-03		-24.289		6.704e-03		48.960
7		0.00		-2.80		6.796e-03		-32.372		5.510e-03		51.188
7		0.00		-3.20		6.570e-03		-49.024		5.123e-03		44.236
7		0.00		-3.60		6.335e-03		-54.797		4.969e-03		40.450
7		0.00		-4.00		5.706e-03		-67.127		4.408e-03		48.783
7		0.00		-4.40		5.336e-03		-68.454		4.264e-03		41.369
7		0.00		-4.80		4.512e-03		-55.953		3.264e-03		45.298
7		0.00		-5.20		3.482e-03		-51.216		2.180e-03		58.093
7		0.00		-5.60		3.385e-03		-44.239		2.156e-03		62.733
7		0.00		-6.00		3.617e-03		-25.238		3.465e-03		90.697
7		0.00		-6.40		3.302e-03		-55.052		2.261e-03		53.908
7		0.00		-6.80		2.913e-03		-63.705		1.784e-03		64.524
7		0.00		-7.20		2.611e-03		-67.274		1.516e-03		66.290
7		0.00		-7.60		2.528e-03		-47.256		1.138e-03		77.949
7		0.00		-8.00		2.473e-03		-41.769		1.320e-03		76.207
7		0.00		-8.40		2.342e-03		-30.727		1.353e-03		80.552
7		0.00		-8.80		2.347e-03		-13.085		1.588e-03		79.713
7		0.00		-9.20		2.571e-03		4.193		1.674e-03		87.894
7		0.00		-9.60		2.824e-03		9.755		2.039e-03		91.712
7		0.00		-10.00		3.390e-03		42.421		2.612e-03		88.996
7		0.00		-9.60		3.007e-03		3.368		2.190e-03		93.365
7		0.00		-9.20		2.666e-03		-14.805		1.564e-03		89.800
7		0.00		-8.80		2.505e-03		-17.227		1.157e-03		85.180
7		0.00		-8.40		2.233e-03		-20.785		9.414e-04		85.604
7		0.00		-8.00		2.410e-03		-22.039		1.156e-03		94.712
7		0.00		-7.60		2.022e-03		-21.718		1.125e-03		85.771
7		0.00		-7.20		2.081e-03		-22.453		1.030e-03		79.006
7		0.00		-6.80		2.397e-03		-1.237		1.415e-03		83.706
7		0.00		-6.40		2.699e-03		8.038		1.590e-03		84.240
7		0.00		-6.00		3.493e-03		19.482		2.845e-03		88.247
7		0.00		-5.60		2.281e-03		-33.128		1.343e-03		79.271
7		0.00		-5.20		2.636e-03		-18.800		1.516e-03		87.871
7		0.00		-4.80		2.425e-03		-48.555		1.370e-03		78.842
7		0.00		-4.40		2.697e-03		-23.177		1.709e-03		90.879
7		0.00		-4.00		2.026e-03		-44.340		1.063e-03		67.225
7		0.00		-3.60		2.108e-03		-56.353		1.109e-03		65.138
7		0.00		-3.20		2.215e-03		-37.321		1.170e-03		72.607
7		0.00		-2.80		2.362e-03		-37.636		1.319e-03		78.099
7		0.00		-2.40		2.290e-03		-20.075		1.492e-03		81.056
7		0.00		-2.00		2.700e-03		-20.008		1.584e-03		90.186
7		0.00		-1.60		2.706e-03		-21.887		1.482e-03		91.643
7		0.00		-1.20		2.743e-03		-37.588		1.704e-03		60.502
7		0.00		-0.80		2.778e-03		-37.486		1.819e-03		59.825
7		0.00		-0.40		2.772e-03		-41.867		1.763e-03		62.164
8		0.00		0.00		3.143e-03		-54.897		2.143e-03		50.835
8		0.00		0.40		3.200e-03		-60.323		2.042e-03		61.234
8		0.00		0.80		2.821e-03		-46.426		1.632e-03		63.189
8		0.00		1.20		2.339e-03		-54.236		1.366e-03		63.311
8		0.00		1.60		2.645e-03		-46.524		1.550e-03		67.176
8		0.00		2.00		3.043e-03		-66.810		2.060e-03		67.504
8		0.00		2.40		3.490e-03		-82.785		2.306e-03		50.300
8		0.00		2.80		3.851e-03		-76.887		2.696e-03		50.233
8		0.00		3.20		3.173e-03		-63.026		2.139e-03		57.172
8		0.00		3.60		6.307e-03		-31.755		4.741e-03		41.559
8		0.00		4.00		6.941e-03		-32.268		5.362e-03		50.100
8		0.00		4.40		7.651e-03		-33.317		5.867e-03		39.638
8		0.00		4.80		6.825e-03		-29.010		5.278e-03		51.345
8		0.00		5.20		7.433e-03		-25.049		5.983e-03		51.445
8		0.00		5.60		8.366e-03		-13.313		7.103e-03		47.815
8		0.00		6.00		9.128e-03		-20.371		7.559e-03		44.212
8		0.00		6.40		1.008e-02		-21.839		7.807e-03		39.901
8		0.00		6.80		1.095e-02		-24.019		8.049e-03		38.080
8		0.00		7.20		1.131e-02		-23.303		7.885e-03		54.973
8		0.00		7.60		1.162e-02		-40.593		8.197e-03		54.027
8		0.00		8.00		1.147e-02		-41.341		7.841e-03		45.844
8		0.00		8.40		1.165e-02		-34.042		7.805e-03		48.328
8		0.00		8.80		9.246e-03		-89.447		4.739e-03		53.036
8		0.00		9.20		1.105e-02		-77.308		6.896e-03		52.154
8		0.00		9.60		1.140e-02		-67.650		8.005e-03		45.847
8		0.00		10.00		1.478e-02		-21.161		1.097e-02		45.998
8		0.00		9.60		1.496e-02		-28.657		1.024e-02		40.573
8		0.00		9.20		1.487e-02		-35.141		9.969e-03		48.477
8		0.00		8.80		1.362e-02		-38.120		9.395e-03		43.952
8		0.00		8.40		1.393e-02		-35.301		1.043e-02		48.421
8		0.00		8.00		1.243e-02		-37.427		9.122e-03		47.323
8		0.00		7.60		1.060e-02		-39.641		7.257e-03		47.345
8		0.00		7.20		8.763e-03		-74.162		5.164e-03		49.900
8		0.00		6.80		1.146e-02		-15.676		9.742e-03		48.505
8		0.00		6.40		1.141e-02		-21.677		9.597e-03		42.033
8		0.00		6.00		1.109e-02		-29.413		8.247e-03		44.008
8		0.00		5.60		1.144e-02		-24.423		8.220e-03		42.088
8		0.00		5.20		1.172e-02		-23.771		8.426e-03		49.317
8		0.00		4.80		1.151e-02		-34.958		8.608e-03		48.447
8		0.00		4.40		1.089e-02		-31.641		8.235e-03		49.516
8		0.00		4.00		1.080e-02		-34.206		7.894e-03		45.136
8		0.00		3.60		9.232e-03		-41.251		6.546e-03		53.235
8		0.00		3.20		7.517e-03		-73.329		4.383e-03		58.187
8		0.00		2.80		7.505e-03		-100.917		4.569e-03		38.846
8		0.00		2.40		8.312e-03		-68.181		5.870e-03		53.626
8		0.00		2.00		1.099e-02		-29.587		8.917e-03		40.829
8		0.00		1.60		1.074e-02		-18.233		8.284e-03		49.881
8		0.00		1.20		1.107e-02		-24.430		8.530e-03		43.774
8		0.00		0.80		1.121e-02		-27.338		8.524e-03		42.304
8		0.00		0.40		1.093e-02		-30.662		8.876e-03		41.001
8		0.00		0.00		1.074e-02		-36.147		8.358e-03		47.499
8		0.00		-0.40		1.010e-02		-34.003		7.940e-03		34.747
8		0.00		-0.80		9.163e-03		-34.941		6.815e-03		45.340
8		0.00		-1.20		8.138e-03		-29.782		6.231e-03		49.371
8		0.00		-1.60		7.429e-03		-22.806		6.477e-03		50.864
8		0.00		-2.00		7.401e-03		-19.131		6.972e-03		43.333
8		0.00		-2.40		7.388e-03		-28.913		6.782e-03		34.965
8		0.00		-2.80		6.753e-03		-19.793		5.897e-03		55.248
8		0.00		-3.20		6.580e-03		-42.601		5.278e-03		48.050
8		0.00		-3.60		6.106e-03		-42.672		4.811e-03		44.545
8		0.00		-4.00		5.548e-03		-46.941		4.577e-03		46.890
8		0.00		-4.40		5.292e-03		-55.795		4.495e-03		43.377
8		0.00		-4.80		5.073e-03		-54.864		4.035e-03		51.615
8		0.00		-5.20		4.692e-03		-56.792		3.329e-03		48.642
8		0.00		-5.60		3.781e-03		-60.769		2.050e-03		64.248
8		0.00		-6.00		3.469e-03		-44.114		2.077e-03		59.913
8		0.00		-6.40		3.047e-03		-43.442		1.854e-03		71.270
8		0.00		-6.80		3.111e-03		8.676		2.951e-03		92.907
8		0.00		-7.20		2.828e-03		-57.286		1.571e-03		70.082
8		0.00		-7.60		2.396e-03		-36.925		1.320e-03		62.106
8		0.00		-8.00		2.333e-03		-41.492		1.227e-03		65.242
8		0.00		-8.40		3.010e-03		-41.643		1.642e-03		85.683
8		0.00		-8.80		3.241e-03		-15.761		1.891e-03		99.984
8		0.00		-9.20		3.331e-03		-9.880		2.037e-03		101.336
8		0.00		-9.60		3.072e-03		3.287		1.965e-03		100.129
8		0.00		-10.00		3.358e-03		22.181		2.321e-03		87.956
8		0.00		-9.60		2.740e-03		5.095		1.535e-03		85.986
8		0.00		-9.20		2.864e-03		21.963		1.918e-03		81.719
8		0.00		-8.80		2.736e-03		22.684		1.507e-03		84.122
8		0.00		-8.40		2.400e-03		-7.249		1.439e-03		85.151
8		0.00		-8.00		2.430e-03		1.064		1.270e-03		79.624
8		0.00		-7.60		2.742e-03		-16.258		1.445e-03		83.875
8		0.00		-7.20		2.151e-03		-24.079		8.881e-04		82.890
8		0.00		-6.80		2.269e-03		-12.076		1.033e-03		92.664
8		0.00		-6.40		2.249e-03		-30.084		1.067e-03		79.495
8		0.00		-6.00		2.015e-03		-25.788		8.018e-04		83.217
8		0.00		-5.60		2.168e-03		-18.113		1.055e-03		79.994
8		0.00		-5.20		2.890e-03		4.454		2.114e-03		76.730
8		0.00		-4.80		2.441e-03		1.666		1.872e-03		85.121
8		0.00		-4.40		2.412e-03		5.293		1.507e-03		82.383
8		0.00		-4.00		2.995e-03		11.421		1.897e-03		90.548
8		0.00		-3.60		3.561e-03		29.082		3.981e-03		79.683
8		0.00		-3.20		3.068e-03		22.836		2.971e-03		84.811
8		0.00		-2.80		2.622e-03		-56.656		1.299e-03		63.156
8		0.00		-2.40		2.615e-03		-65.857		1.227e-03		67.152
8		0.00		-2.00		2.594e-03		-47.460		1.337e-03		75.583
8		0.00		-1.60		2.716e-03		-43.759		1.343e-03		86.335
8		0.00		-1.20		2.497e-03		-55.221		1.379e-03		64.429
8		0.00		-0.80		2.624e-03		-60.836		1.268e-03		57.687
8		0.00		-0.40		2.744e-03		-45.483		1.523e-03		73.975
