# Date of analysis: 2023-11-20 16;19
# 
# Loop index	Read Volt (V)	Write Volt (V)	Amplitude (a.u)	Phase (deg)	Sigma Amp (a.u)	Sigma Pha (deg)	
1		0.00		0.00		1.280e-02		-46.549		2.673e-03		12.835
1		0.00		0.40		1.262e-02		-49.688		2.789e-03		9.878
1		0.00		0.80		1.274e-02		-46.060		2.816e-03		12.452
1		0.00		1.20		1.283e-02		-44.071		2.752e-03		10.545
1		0.00		1.60		1.262e-02		-48.359		2.975e-03		11.305
1		0.00		2.00		1.245e-02		-46.216		3.101e-03		11.334
1		0.00		2.40		1.254e-02		-48.623		3.344e-03		10.801
1		0.00		2.80		1.200e-02		-50.265		2.852e-03		12.180
1		0.00		3.20		1.234e-02		-48.023		3.279e-03		13.423
1		0.00		3.60		1.270e-02		-44.935		3.109e-03		14.674
1		0.00		4.00		1.309e-02		-46.437		3.662e-03		11.197
1		0.00		4.40		1.340e-02		-48.657		3.619e-03		15.868
1		0.00		4.80		1.357e-02		-50.401		3.618e-03		12.305
1		0.00		5.20		1.442e-02		-49.249		4.134e-03		13.561
1		0.00		5.60		1.532e-02		-48.026		3.922e-03		12.493
1		0.00		6.00		1.650e-02		-48.427		4.078e-03		11.596
1		0.00		6.40		1.713e-02		-50.623		4.179e-03		13.387
1		0.00		6.80		1.768e-02		-49.876		4.308e-03		11.799
1		0.00		7.20		1.876e-02		-51.243		4.342e-03		11.937
1		0.00		7.60		1.945e-02		-51.592		4.977e-03		13.271
1		0.00		8.00		2.016e-02		-50.996		4.909e-03		11.912
1		0.00		8.40		2.140e-02		-50.138		5.209e-03		11.043
1		0.00		8.80		2.248e-02		-52.068		5.651e-03		12.764
1		0.00		9.20		2.396e-02		-50.393		6.355e-03		12.028
1		0.00		9.60		2.560e-02		-52.684		7.063e-03		11.454
1		0.00		10.00		2.681e-02		-52.183		7.553e-03		10.377
1		0.00		9.60		2.755e-02		-51.379		7.877e-03		9.466
1		0.00		9.20		2.874e-02		-53.470		7.792e-03		10.521
1		0.00		8.80		2.885e-02		-49.441		7.880e-03		9.773
1		0.00		8.40		2.901e-02		-51.574		7.480e-03		8.871
1		0.00		8.00		2.875e-02		-52.790		7.304e-03		9.094
1		0.00		7.60		2.891e-02		-52.947		6.741e-03		8.343
1		0.00		7.20		2.874e-02		-52.983		6.895e-03		7.783
1		0.00		6.80		2.905e-02		-52.538		6.279e-03		7.868
1		0.00		6.40		2.845e-02		-53.424		5.775e-03		7.925
1		0.00		6.00		2.842e-02		-52.213		5.567e-03		7.659
1		0.00		5.60		2.863e-02		-51.675		5.605e-03		8.041
1		0.00		5.20		2.775e-02		-51.416		5.222e-03		8.681
1		0.00		4.80		2.788e-02		-51.151		5.424e-03		7.901
1		0.00		4.40		2.732e-02		-52.375		5.172e-03		8.669
1		0.00		4.00		2.705e-02		-50.257		5.209e-03		7.331
1		0.00		3.60		2.782e-02		-49.864		5.109e-03		7.565
1		0.00		3.20		2.651e-02		-51.182		5.229e-03		8.715
1		0.00		2.80		2.630e-02		-48.860		5.755e-03		9.842
1		0.00		2.40		2.657e-02		-50.658		5.883e-03		9.107
1		0.00		2.00		2.572e-02		-50.667		6.200e-03		10.430
1		0.00		1.60		2.553e-02		-51.640		6.369e-03		9.483
1		0.00		1.20		2.530e-02		-50.120		6.571e-03		12.411
1		0.00		0.80		2.507e-02		-50.940		6.598e-03		12.492
1		0.00		0.40		2.487e-02		-51.098		6.911e-03		13.823
1		0.00		0.00		2.517e-02		-49.455		6.826e-03		10.881
1		0.00		-0.40		2.518e-02		-50.560		6.826e-03		13.647
1		0.00		-0.80		2.429e-02		-51.463		6.892e-03		14.132
1		0.00		-1.20		2.502e-02		-49.810		6.433e-03		10.213
1		0.00		-1.60		2.469e-02		-50.260		6.394e-03		9.985
1		0.00		-2.00		2.442e-02		-50.561		6.060e-03		8.865
1		0.00		-2.40		2.416e-02		-50.509		5.840e-03		10.523
1		0.00		-2.80		2.328e-02		-51.405		5.486e-03		9.951
1		0.00		-3.20		2.367e-02		-49.868		5.103e-03		8.783
1		0.00		-3.60		2.316e-02		-50.203		4.642e-03		8.194
1		0.00		-4.00		2.225e-02		-52.263		4.388e-03		8.549
1		0.00		-4.40		2.113e-02		-49.943		4.428e-03		9.923
1		0.00		-4.80		2.095e-02		-51.840		3.993e-03		6.846
1		0.00		-5.20		1.907e-02		-49.616		3.999e-03		9.538
1		0.00		-5.60		1.806e-02		-49.842		3.437e-03		9.918
1		0.00		-6.00		1.587e-02		-47.148		3.575e-03		9.977
1		0.00		-6.40		1.408e-02		-47.518		3.269e-03		10.714
1		0.00		-6.80		1.150e-02		-46.414		2.742e-03		11.443
1		0.00		-7.20		8.174e-03		-42.551		2.274e-03		14.074
1		0.00		-7.60		5.534e-03		-40.334		1.705e-03		19.925
1		0.00		-8.00		2.865e-03		-15.700		1.183e-03		30.736
1		0.00		-8.40		1.972e-03		10.158		8.289e-04		57.490
1		0.00		-8.80		3.025e-03		83.544		1.308e-03		41.901
1		0.00		-9.20		5.084e-03		117.895		1.638e-03		20.769
1		0.00		-9.60		7.409e-03		116.854		2.229e-03		13.813
1		0.00		-10.00		9.729e-03		120.148		2.266e-03		12.440
1		0.00		-9.60		1.048e-02		123.141		2.626e-03		11.019
1		0.00		-9.20		1.110e-02		124.945		2.471e-03		10.884
1		0.00		-8.80		1.090e-02		120.460		2.630e-03		15.755
1		0.00		-8.40		1.047e-02		122.015		2.923e-03		12.124
1		0.00		-8.00		1.051e-02		122.813		2.781e-03		15.944
1		0.00		-7.60		1.031e-02		125.863		2.889e-03		17.597
1		0.00		-7.20		1.030e-02		121.795		2.897e-03		19.659
1		0.00		-6.80		9.879e-03		120.206		3.060e-03		23.795
1		0.00		-6.40		9.375e-03		120.839		3.010e-03		16.304
1		0.00		-6.00		9.335e-03		122.850		2.596e-03		12.613
1		0.00		-5.60		9.312e-03		123.747		2.669e-03		11.328
1		0.00		-5.20		9.107e-03		123.487		2.615e-03		14.377
1		0.00		-4.80		8.868e-03		124.039		2.361e-03		11.676
1		0.00		-4.40		8.616e-03		120.740		2.342e-03		14.675
1		0.00		-4.00		8.288e-03		125.465		2.565e-03		11.161
1		0.00		-3.60		8.074e-03		122.636		2.486e-03		18.562
1		0.00		-3.20		8.106e-03		121.255		2.701e-03		21.744
1		0.00		-2.80		7.899e-03		117.894		2.580e-03		24.041
1		0.00		-2.40		8.104e-03		118.860		2.346e-03		20.472
1		0.00		-2.00		8.086e-03		118.223		2.345e-03		11.646
1		0.00		-1.60		7.950e-03		121.657		2.029e-03		15.575
1		0.00		-1.20		7.778e-03		120.313		2.149e-03		13.560
1		0.00		-0.80		7.698e-03		122.822		1.877e-03		11.281
1		0.00		-0.40		8.101e-03		125.924		1.989e-03		16.363
2		0.00		0.00		7.885e-03		118.601		2.142e-03		15.479
2		0.00		0.40		7.184e-03		123.225		1.898e-03		16.043
2		0.00		0.80		7.361e-03		122.636		2.115e-03		14.054
2		0.00		1.20		7.062e-03		119.964		2.030e-03		16.722
2		0.00		1.60		6.719e-03		122.783		2.181e-03		21.796
2		0.00		2.00		6.285e-03		119.784		1.808e-03		16.238
2		0.00		2.40		5.576e-03		112.538		2.001e-03		24.027
2		0.00		2.80		4.690e-03		121.072		1.548e-03		19.094
2		0.00		3.20		4.227e-03		121.574		1.484e-03		23.147
2		0.00		3.60		3.494e-03		100.710		1.333e-03		43.741
2		0.00		4.00		2.657e-03		99.491		1.072e-03		52.112
2		0.00		4.40		1.807e-03		28.031		8.043e-04		78.126
2		0.00		4.80		1.765e-03		5.974		6.678e-04		64.955
2		0.00		5.20		1.753e-03		-20.442		8.163e-04		65.342
2		0.00		5.60		2.302e-03		-31.164		9.290e-04		51.363
2		0.00		6.00		3.292e-03		-42.877		1.267e-03		27.236
2		0.00		6.40		4.036e-03		-50.907		1.338e-03		18.497
2		0.00		6.80		5.020e-03		-55.529		1.551e-03		14.081
2		0.00		7.20		5.573e-03		-53.718		1.537e-03		18.860
2		0.00		7.60		7.259e-03		-52.838		1.680e-03		14.082
2		0.00		8.00		7.765e-03		-47.964		1.902e-03		13.771
2		0.00		8.40		9.222e-03		-46.179		2.352e-03		13.839
2		0.00		8.80		1.028e-02		-49.392		2.542e-03		14.030
2		0.00		9.20		1.248e-02		-48.169		3.417e-03		13.642
2		0.00		9.60		1.470e-02		-47.368		4.502e-03		13.258
2		0.00		10.00		1.812e-02		-48.352		5.309e-03		12.690
2		0.00		9.60		1.918e-02		-52.392		5.448e-03		8.827
2		0.00		9.20		2.041e-02		-51.928		5.168e-03		10.284
2		0.00		8.80		2.078e-02		-52.380		5.045e-03		9.272
2		0.00		8.40		2.128e-02		-52.078		5.074e-03		9.579
2		0.00		8.00		2.112e-02		-50.689		5.239e-03		11.372
2		0.00		7.60		2.100e-02		-52.720		5.187e-03		11.000
2		0.00		7.20		2.044e-02		-52.873		5.256e-03		10.975
2		0.00		6.80		2.014e-02		-51.676		5.917e-03		12.675
2		0.00		6.40		2.032e-02		-51.986		5.643e-03		13.735
2		0.00		6.00		2.011e-02		-53.207		5.466e-03		10.945
2		0.00		5.60		2.010e-02		-51.290		5.067e-03		10.567
2		0.00		5.20		2.011e-02		-54.898		4.491e-03		8.366
2		0.00		4.80		2.010e-02		-50.824		3.940e-03		9.310
2		0.00		4.40		1.952e-02		-50.984		3.981e-03		9.215
2		0.00		4.00		1.970e-02		-51.013		4.308e-03		10.755
2		0.00		3.60		1.875e-02		-50.546		4.745e-03		11.039
2		0.00		3.20		1.896e-02		-52.238		4.888e-03		14.364
2		0.00		2.80		1.870e-02		-49.356		5.006e-03		12.680
2		0.00		2.40		1.832e-02		-51.885		5.157e-03		12.096
2		0.00		2.00		1.832e-02		-48.879		5.151e-03		9.975
2		0.00		1.60		1.845e-02		-50.876		4.420e-03		9.045
2		0.00		1.20		1.766e-02		-50.870		3.912e-03		10.729
2		0.00		0.80		1.782e-02		-50.831		4.274e-03		9.170
2		0.00		0.40		1.750e-02		-54.339		4.542e-03		12.392
2		0.00		0.00		1.700e-02		-47.334		4.780e-03		11.556
2		0.00		-0.40		1.722e-02		-49.880		4.915e-03		13.045
2		0.00		-0.80		1.720e-02		-48.102		5.127e-03		10.627
2		0.00		-1.20		1.754e-02		-50.170		4.892e-03		9.395
2		0.00		-1.60		1.698e-02		-51.163		4.339e-03		9.399
2		0.00		-2.00		1.694e-02		-50.679		3.738e-03		9.038
2		0.00		-2.40		1.670e-02		-50.067		3.831e-03		10.418
2		0.00		-2.80		1.615e-02		-47.645		3.674e-03		12.414
2		0.00		-3.20		1.564e-02		-50.229		4.116e-03		12.611
2		0.00		-3.60		1.534e-02		-46.573		4.153e-03		14.487
2		0.00		-4.00		1.500e-02		-49.083		4.000e-03		9.376
2		0.00		-4.40		1.428e-02		-46.755		3.776e-03		9.275
2		0.00		-4.80		1.348e-02		-50.443		2.905e-03		10.904
2		0.00		-5.20		1.283e-02		-49.183		2.856e-03		10.298
2		0.00		-5.60		1.160e-02		-46.800		2.654e-03		11.557
2		0.00		-6.00		1.014e-02		-45.652		2.896e-03		15.574
2		0.00		-6.40		8.464e-03		-48.669		2.464e-03		18.297
2		0.00		-6.80		6.805e-03		-43.858		2.286e-03		16.836
2		0.00		-7.20		5.012e-03		-40.083		1.703e-03		21.590
2		0.00		-7.60		2.984e-03		-36.150		1.230e-03		31.215
2		0.00		-8.00		1.765e-03		-19.455		7.460e-04		58.913
2		0.00		-8.40		2.322e-03		83.971		9.670e-04		38.763
2		0.00		-8.80		3.839e-03		104.801		1.316e-03		39.635
2		0.00		-9.20		5.548e-03		108.384		1.845e-03		30.226
2		0.00		-9.60		7.703e-03		119.660		2.718e-03		25.745
2		0.00		-10.00		9.290e-03		122.151		3.118e-03		23.117
2		0.00		-9.60		1.136e-02		121.792		3.233e-03		13.691
2		0.00		-9.20		1.197e-02		119.333		3.227e-03		10.682
2		0.00		-8.80		1.246e-02		124.590		2.963e-03		8.919
2		0.00		-8.40		1.211e-02		124.997		3.132e-03		9.947
2		0.00		-8.00		1.213e-02		125.668		2.855e-03		12.087
2		0.00		-7.60		1.163e-02		127.063		2.977e-03		13.436
2		0.00		-7.20		1.074e-02		126.675		3.027e-03		16.673
2		0.00		-6.80		1.123e-02		125.367		3.183e-03		17.221
2		0.00		-6.40		1.042e-02		118.774		3.048e-03		21.220
2		0.00		-6.00		1.061e-02		122.951		3.143e-03		12.368
2		0.00		-5.60		1.004e-02		124.530		2.588e-03		10.659
2		0.00		-5.20		9.948e-03		123.940		2.439e-03		10.650
2		0.00		-4.80		9.703e-03		123.334		2.593e-03		11.100
2		0.00		-4.40		9.475e-03		124.387		2.294e-03		10.332
2		0.00		-4.00		9.101e-03		125.962		2.419e-03		14.581
2		0.00		-3.60		9.068e-03		122.635		2.697e-03		15.204
2		0.00		-3.20		8.963e-03		117.033		2.849e-03		16.700
2		0.00		-2.80		8.619e-03		122.979		2.694e-03		18.966
2		0.00		-2.40		8.620e-03		126.574		2.584e-03		13.132
2		0.00		-2.00		8.785e-03		125.100		2.419e-03		14.136
2		0.00		-1.60		8.588e-03		124.178		2.102e-03		12.021
2		0.00		-1.20		8.710e-03		125.009		2.099e-03		12.290
2		0.00		-0.80		8.680e-03		121.202		2.175e-03		13.652
2		0.00		-0.40		8.531e-03		124.817		2.353e-03		16.172
3		0.00		0.00		8.677e-03		121.786		2.403e-03		18.951
3		0.00		0.40		8.188e-03		120.775		2.375e-03		20.952
3		0.00		0.80		8.543e-03		123.255		2.638e-03		11.632
3		0.00		1.20		7.670e-03		122.444		2.124e-03		12.852
3		0.00		1.60		7.655e-03		124.698		1.984e-03		13.369
3		0.00		2.00		7.117e-03		123.209		2.184e-03		15.366
3		0.00		2.40		6.572e-03		129.067		1.893e-03		15.366
3		0.00		2.80		6.017e-03		120.559		1.777e-03		16.697
3		0.00		3.20		4.777e-03		115.364		1.575e-03		36.438
3		0.00		3.60		3.960e-03		103.327		1.514e-03		56.139
3		0.00		4.00		3.627e-03		101.850		1.382e-03		47.464
3		0.00		4.40		2.716e-03		91.546		1.099e-03		68.015
3		0.00		4.80		1.841e-03		52.897		8.318e-04		73.361
3		0.00		5.20		1.677e-03		18.782		7.714e-04		73.052
3		0.00		5.60		1.891e-03		-30.851		7.276e-04		66.840
3		0.00		6.00		2.234e-03		-47.367		9.383e-04		60.470
3		0.00		6.40		2.727e-03		-58.930		1.140e-03		32.921
3		0.00		6.80		3.421e-03		-59.162		1.292e-03		29.102
3		0.00		7.20		4.259e-03		-47.373		1.277e-03		23.779
3		0.00		7.60		5.844e-03		-46.449		1.829e-03		18.724
3		0.00		8.00		7.026e-03		-51.588		1.838e-03		18.265
3		0.00		8.40		7.688e-03		-50.617		1.733e-03		15.516
3		0.00		8.80		8.571e-03		-57.847		2.019e-03		16.051
3		0.00		9.20		1.088e-02		-51.583		2.862e-03		11.044
3		0.00		9.60		1.288e-02		-53.093		3.477e-03		15.425
3		0.00		10.00		1.451e-02		-48.167		4.064e-03		12.825
3		0.00		9.60		1.644e-02		-49.848		4.138e-03		10.113
3		0.00		9.20		1.749e-02		-51.183		4.229e-03		8.857
3		0.00		8.80		1.792e-02		-52.230		4.401e-03		11.224
3		0.00		8.40		1.838e-02		-53.262		4.430e-03		8.565
3		0.00		8.00		1.805e-02		-52.053		4.944e-03		12.626
3		0.00		7.60		1.790e-02		-52.513		5.126e-03		13.261
3		0.00		7.20		1.817e-02		-51.542		5.309e-03		13.915
3		0.00		6.80		1.803e-02		-51.067		4.673e-03		10.086
3		0.00		6.40		1.811e-02		-51.837		4.091e-03		8.802
3		0.00		6.00		1.758e-02		-49.503		3.967e-03		9.766
3		0.00		5.60		1.723e-02		-49.437		4.072e-03		11.527
3		0.00		5.20		1.698e-02		-49.058		4.690e-03		13.620
3		0.00		4.80		1.692e-02		-49.493		4.645e-03		13.462
3		0.00		4.40		1.731e-02		-51.579		4.694e-03		11.957
3		0.00		4.00		1.733e-02		-48.508		4.104e-03		10.411
3		0.00		3.60		1.753e-02		-49.038		3.731e-03		9.520
3		0.00		3.20		1.705e-02		-48.403		3.442e-03		10.203
3		0.00		2.80		1.698e-02		-49.548		3.701e-03		9.922
3		0.00		2.40		1.686e-02		-51.101		3.935e-03		13.208
3		0.00		2.00		1.673e-02		-50.075		4.285e-03		9.599
3		0.00		1.60		1.661e-02		-50.651		4.394e-03		11.143
3		0.00		1.20		1.696e-02		-50.234		4.226e-03		10.027
3		0.00		0.80		1.711e-02		-50.265		3.683e-03		9.399
3		0.00		0.40		1.659e-02		-50.110		3.665e-03		8.700
3		0.00		0.00		1.647e-02		-48.000		3.738e-03		11.179
3		0.00		-0.40		1.594e-02		-51.023		4.397e-03		12.128
3		0.00		-0.80		1.530e-02		-47.609		4.463e-03		17.603
3		0.00		-1.20		1.551e-02		-50.662		4.344e-03		10.331
3		0.00		-1.60		1.557e-02		-50.405		4.548e-03		10.006
3		0.00		-2.00		1.486e-02		-49.313		3.507e-03		9.982
3		0.00		-2.40		1.472e-02		-47.398		3.238e-03		10.362
3		0.00		-2.80		1.420e-02		-50.600		3.341e-03		10.760
3		0.00		-3.20		1.400e-02		-49.633		3.648e-03		10.905
3		0.00		-3.60		1.350e-02		-48.653		3.624e-03		12.554
3		0.00		-4.00		1.306e-02		-48.485		3.615e-03		12.238
3		0.00		-4.40		1.255e-02		-50.029		3.015e-03		10.637
3		0.00		-4.80		1.140e-02		-50.173		2.466e-03		14.254
3		0.00		-5.20		1.122e-02		-48.292		2.572e-03		13.342
3		0.00		-5.60		1.015e-02		-47.198		2.321e-03		12.571
3		0.00		-6.00		8.813e-03		-43.091		2.287e-03		14.226
3		0.00		-6.40		8.063e-03		-46.438		2.005e-03		13.016
3		0.00		-6.80		6.429e-03		-43.033		1.869e-03		18.601
3		0.00		-7.20		4.802e-03		-45.704		1.687e-03		17.867
3		0.00		-7.60		2.738e-03		-44.223		1.180e-03		31.038
3		0.00		-8.00		2.041e-03		-6.609		9.066e-04		56.226
3		0.00		-8.40		2.185e-03		51.304		9.123e-04		65.615
3		0.00		-8.80		4.089e-03		115.934		1.382e-03		29.562
3		0.00		-9.20		6.132e-03		118.644		1.974e-03		20.806
3		0.00		-9.60		8.924e-03		123.184		2.638e-03		18.978
3		0.00		-10.00		1.079e-02		121.010		3.314e-03		15.146
3		0.00		-9.60		1.225e-02		123.516		3.009e-03		9.606
3		0.00		-9.20		1.245e-02		126.826		2.915e-03		9.486
3		0.00		-8.80		1.210e-02		126.270		2.615e-03		9.818
3		0.00		-8.40		1.239e-02		127.071		2.894e-03		8.814
3		0.00		-8.00		1.210e-02		123.730		3.217e-03		15.514
3		0.00		-7.60		1.201e-02		125.366		3.249e-03		16.264
3		0.00		-7.20		1.129e-02		124.935		3.167e-03		17.407
3		0.00		-6.80		1.114e-02		123.879		3.032e-03		10.208
3		0.00		-6.40		1.118e-02		122.786		2.629e-03		10.738
3		0.00		-6.00		1.083e-02		123.495		2.634e-03		10.086
3		0.00		-5.60		1.060e-02		123.858		2.392e-03		11.832
3		0.00		-5.20		1.049e-02		122.356		2.734e-03		15.103
3		0.00		-4.80		9.813e-03		125.459		2.579e-03		17.181
3		0.00		-4.40		1.007e-02		122.000		2.676e-03		14.508
3		0.00		-4.00		1.017e-02		122.088		2.661e-03		11.058
3		0.00		-3.60		9.724e-03		123.407		2.439e-03		10.642
3		0.00		-3.20		9.369e-03		122.902		2.317e-03		12.183
3		0.00		-2.80		9.289e-03		126.578		2.267e-03		11.891
3		0.00		-2.40		9.265e-03		126.524		2.625e-03		11.821
3		0.00		-2.00		9.185e-03		121.195		2.739e-03		18.516
3		0.00		-1.60		8.677e-03		123.605		2.900e-03		21.313
3		0.00		-1.20		8.551e-03		120.725		2.444e-03		16.384
3		0.00		-0.80		8.942e-03		121.760		2.479e-03		11.172
3		0.00		-0.40		8.965e-03		120.822		2.235e-03		11.974
4		0.00		0.00		8.463e-03		125.417		2.378e-03		13.432
4		0.00		0.40		8.262e-03		125.727		2.377e-03		11.711
4		0.00		0.80		7.870e-03		123.752		2.275e-03		20.018
4		0.00		1.20		8.270e-03		122.140		2.315e-03		18.115
4		0.00		1.60		7.804e-03		121.980		2.269e-03		12.288
4		0.00		2.00		7.579e-03		125.075		2.042e-03		14.428
4		0.00		2.40		6.871e-03		123.321		1.659e-03		12.865
4		0.00		2.80		6.414e-03		125.195		1.601e-03		12.225
4		0.00		3.20		5.733e-03		124.962		1.598e-03		15.322
4		0.00		3.60		4.926e-03		118.813		1.548e-03		22.736
4		0.00		4.00		4.003e-03		109.453		1.520e-03		45.976
4		0.00		4.40		3.084e-03		106.404		1.091e-03		46.470
4		0.00		4.80		2.551e-03		79.136		9.920e-04		79.499
4		0.00		5.20		1.749e-03		48.407		7.636e-04		72.413
4		0.00		5.60		1.763e-03		-4.666		6.557e-04		79.270
4		0.00		6.00		1.692e-03		-24.196		7.444e-04		61.666
4		0.00		6.40		2.320e-03		-38.648		8.013e-04		59.642
4		0.00		6.80		3.225e-03		-52.723		1.126e-03		32.294
4		0.00		7.20		3.458e-03		-38.338		1.352e-03		31.002
4		0.00		7.60		4.378e-03		-51.313		1.499e-03		21.723
4		0.00		8.00		5.526e-03		-59.724		1.804e-03		23.337
4		0.00		8.40		6.540e-03		-55.528		1.958e-03		13.901
4		0.00		8.80		8.036e-03		-47.191		2.035e-03		14.350
4		0.00		9.20		1.033e-02		-51.478		2.126e-03		12.278
4		0.00		9.60		1.151e-02		-52.188		2.500e-03		10.311
4		0.00		10.00		1.436e-02		-50.524		2.829e-03		9.653
4		0.00		9.60		1.500e-02		-51.842		2.976e-03		10.733
4		0.00		9.20		1.563e-02		-50.093		3.438e-03		10.528
4		0.00		8.80		1.591e-02		-50.688		3.888e-03		13.019
4		0.00		8.40		1.649e-02		-51.553		4.109e-03		10.617
4		0.00		8.00		1.687e-02		-48.789		4.286e-03		11.465
4		0.00		7.60		1.679e-02		-48.834		4.368e-03		11.093
4		0.00		7.20		1.638e-02		-49.936		4.257e-03		9.383
4		0.00		6.80		1.660e-02		-48.620		4.199e-03		8.805
4		0.00		6.40		1.631e-02		-52.443		3.957e-03		9.830
4		0.00		6.00		1.639e-02		-53.504		3.903e-03		9.248
4		0.00		5.60		1.624e-02		-52.473		3.934e-03		10.205
4		0.00		5.20		1.589e-02		-52.701		3.933e-03		8.916
4		0.00		4.80		1.549e-02		-53.258		3.671e-03		11.592
4		0.00		4.40		1.522e-02		-51.850		3.908e-03		11.309
4		0.00		4.00		1.488e-02		-48.670		4.041e-03		10.777
4		0.00		3.60		1.504e-02		-50.011		4.084e-03		12.291
4		0.00		3.20		1.495e-02		-48.768		4.041e-03		12.483
4		0.00		2.80		1.496e-02		-50.403		3.820e-03		13.970
4		0.00		2.40		1.505e-02		-48.932		4.055e-03		11.655
4		0.00		2.00		1.497e-02		-47.681		3.792e-03		12.817
4		0.00		1.60		1.501e-02		-51.108		3.845e-03		12.489
4		0.00		1.20		1.499e-02		-49.747		3.652e-03		7.971
4		0.00		0.80		1.506e-02		-49.316		3.522e-03		11.466
4		0.00		0.40		1.494e-02		-49.792		3.522e-03		8.543
4		0.00		0.00		1.482e-02		-49.758		3.079e-03		8.733
4		0.00		-0.40		1.491e-02		-52.779		3.033e-03		9.711
4		0.00		-0.80		1.488e-02		-49.663		3.183e-03		9.956
4		0.00		-1.20		1.420e-02		-51.908		3.304e-03		11.939
4		0.00		-1.60		1.381e-02		-49.298		2.949e-03		11.105
4		0.00		-2.00		1.358e-02		-49.383		3.018e-03		12.204
4		0.00		-2.40		1.340e-02		-49.824		3.011e-03		10.632
4		0.00		-2.80		1.258e-02		-50.383		2.972e-03		11.912
4		0.00		-3.20		1.236e-02		-48.857		3.279e-03		11.250
4		0.00		-3.60		1.245e-02		-51.219		3.319e-03		13.280
4		0.00		-4.00		1.175e-02		-51.311		3.423e-03		13.373
4		0.00		-4.40		1.094e-02		-50.727		2.985e-03		16.073
4		0.00		-4.80		1.045e-02		-46.095		2.916e-03		13.401
4		0.00		-5.20		9.870e-03		-47.030		2.662e-03		15.744
4		0.00		-5.60		8.977e-03		-49.624		2.238e-03		10.693
4		0.00		-6.00		8.452e-03		-44.468		2.193e-03		12.469
4		0.00		-6.40		6.667e-03		-41.008		1.990e-03		15.591
4		0.00		-6.80		5.719e-03		-42.126		1.549e-03		18.048
4		0.00		-7.20		4.713e-03		-43.851		1.444e-03		25.964
4		0.00		-7.60		2.987e-03		-40.167		1.076e-03		32.696
4		0.00		-8.00		2.032e-03		-10.212		8.529e-04		54.273
4		0.00		-8.40		1.943e-03		37.466		7.535e-04		74.374
4		0.00		-8.80		2.999e-03		99.871		1.227e-03		37.903
4		0.00		-9.20		5.751e-03		120.220		1.535e-03		16.130
4		0.00		-9.60		7.703e-03		126.249		2.056e-03		12.813
4		0.00		-10.00		1.002e-02		125.395		2.635e-03		13.905
4		0.00		-9.60		1.100e-02		124.292		3.249e-03		15.081
4		0.00		-9.20		1.130e-02		125.328		3.307e-03		13.586
4		0.00		-8.80		1.123e-02		125.442		3.181e-03		14.818
4		0.00		-8.40		1.104e-02		123.335		3.287e-03		18.231
4		0.00		-8.00		1.089e-02		121.501		3.502e-03		18.484
4		0.00		-7.60		1.092e-02		122.839		3.348e-03		18.786
4		0.00		-7.20		1.071e-02		121.077		3.306e-03		18.021
4		0.00		-6.80		1.086e-02		120.820		2.994e-03		16.661
4		0.00		-6.40		1.062e-02		120.164		2.901e-03		14.161
4		0.00		-6.00		1.063e-02		123.605		2.761e-03		10.591
4		0.00		-5.60		1.019e-02		124.840		2.737e-03		15.141
4		0.00		-5.20		1.001e-02		122.863		2.497e-03		12.054
4		0.00		-4.80		9.940e-03		124.975		2.482e-03		11.880
4		0.00		-4.40		1.000e-02		126.381		2.486e-03		10.184
4		0.00		-4.00		9.919e-03		126.706		2.342e-03		12.542
4		0.00		-3.60		9.572e-03		121.560		2.463e-03		13.696
4		0.00		-3.20		9.471e-03		123.162		2.387e-03		12.468
4		0.00		-2.80		9.478e-03		123.990		2.322e-03		11.298
4		0.00		-2.40		9.413e-03		126.832		2.456e-03		12.290
4		0.00		-2.00		9.114e-03		126.391		2.057e-03		11.055
4		0.00		-1.60		9.138e-03		125.962		1.923e-03		10.771
4		0.00		-1.20		8.849e-03		125.785		2.131e-03		11.418
4		0.00		-0.80		9.037e-03		123.265		2.013e-03		10.246
4		0.00		-0.40		9.227e-03		122.700		2.288e-03		12.326
5		0.00		0.00		9.098e-03		122.080		2.268e-03		13.146
5		0.00		0.40		8.834e-03		130.161		2.163e-03		13.409
5		0.00		0.80		8.280e-03		126.348		2.204e-03		12.178
5		0.00		1.20		8.240e-03		121.886		1.824e-03		14.299
5		0.00		1.60		8.375e-03		126.806		2.074e-03		13.316
5		0.00		2.00		7.420e-03		126.578		1.923e-03		12.669
5		0.00		2.40		6.980e-03		127.691		1.889e-03		13.494
5		0.00		2.80		6.184e-03		125.601		1.709e-03		19.466
5		0.00		3.20		5.591e-03		128.222		1.442e-03		15.761
5		0.00		3.60		4.711e-03		125.715		1.286e-03		19.027
5		0.00		4.00		3.971e-03		118.375		1.383e-03		43.446
5		0.00		4.40		3.224e-03		101.327		1.265e-03		48.660
5		0.00		4.80		2.667e-03		95.881		1.105e-03		53.851
5		0.00		5.20		1.988e-03		57.560		8.583e-04		74.261
5		0.00		5.60		1.616e-03		4.695		6.730e-04		87.445
5		0.00		6.00		1.629e-03		-14.278		7.142e-04		72.670
5		0.00		6.40		2.041e-03		-44.711		8.424e-04		63.861
5		0.00		6.80		2.508e-03		-53.432		9.993e-04		45.526
5		0.00		7.20		3.151e-03		-53.082		1.558e-03		34.440
5		0.00		7.60		3.823e-03		-53.621		1.484e-03		29.304
5		0.00		8.00		4.657e-03		-43.494		1.608e-03		29.868
5		0.00		8.40		5.700e-03		-55.864		1.843e-03		24.817
5		0.00		8.80		7.232e-03		-47.192		2.097e-03		17.067
5		0.00		9.20		8.854e-03		-52.373		2.395e-03		14.818
5		0.00		9.60		9.953e-03		-52.765		2.581e-03		11.372
5		0.00		10.00		1.204e-02		-46.535		3.069e-03		8.758
5		0.00		9.60		1.293e-02		-53.545		3.292e-03		11.520
5		0.00		9.20		1.424e-02		-50.726		3.419e-03		10.878
5		0.00		8.80		1.492e-02		-51.034		3.431e-03		10.213
5		0.00		8.40		1.523e-02		-47.622		3.412e-03		9.507
5		0.00		8.00		1.540e-02		-48.561		3.403e-03		11.415
5		0.00		7.60		1.510e-02		-51.702		3.361e-03		10.415
5		0.00		7.20		1.504e-02		-54.003		3.113e-03		9.603
5		0.00		6.80		1.493e-02		-53.165		3.158e-03		9.049
5		0.00		6.40		1.468e-02		-47.201		2.905e-03		11.028
5		0.00		6.00		1.478e-02		-52.328		3.169e-03		10.305
5		0.00		5.60		1.426e-02		-48.864		3.106e-03		11.020
5		0.00		5.20		1.437e-02		-50.677		2.814e-03		9.233
5		0.00		4.80		1.402e-02		-51.221		2.764e-03		10.761
5		0.00		4.40		1.397e-02		-49.178		3.001e-03		10.235
5		0.00		4.00		1.424e-02		-49.059		3.044e-03		10.268
5		0.00		3.60		1.386e-02		-49.078		2.988e-03		10.241
5		0.00		3.20		1.363e-02		-49.913		3.018e-03		11.821
5		0.00		2.80		1.309e-02		-50.468		3.119e-03		11.787
5		0.00		2.40		1.360e-02		-47.535		2.887e-03		10.259
5		0.00		2.00		1.305e-02		-47.316		3.179e-03		8.937
5		0.00		1.60		1.361e-02		-48.574		3.399e-03		12.722
5		0.00		1.20		1.294e-02		-51.448		3.179e-03		12.840
5		0.00		0.80		1.275e-02		-48.659		3.366e-03		11.752
5		0.00		0.40		1.336e-02		-47.880		3.445e-03		14.372
5		0.00		0.00		1.300e-02		-49.912		3.524e-03		13.798
5		0.00		-0.40		1.268e-02		-50.878		3.713e-03		14.648
5		0.00		-0.80		1.255e-02		-48.948		3.635e-03		11.274
5		0.00		-1.20		1.219e-02		-51.076		3.803e-03		13.997
5		0.00		-1.60		1.242e-02		-47.799		3.720e-03		11.274
5		0.00		-2.00		1.161e-02		-50.749		3.295e-03		13.005
5		0.00		-2.40		1.203e-02		-48.698		3.238e-03		10.694
5		0.00		-2.80		1.153e-02		-48.339		3.070e-03		12.259
5		0.00		-3.20		1.108e-02		-49.262		2.770e-03		11.641
5		0.00		-3.60		1.055e-02		-49.029		2.767e-03		12.240
5		0.00		-4.00		1.055e-02		-50.941		2.370e-03		10.751
5		0.00		-4.40		1.033e-02		-50.027		2.158e-03		12.589
5		0.00		-4.80		9.560e-03		-49.918		2.158e-03		12.094
5		0.00		-5.20		9.113e-03		-47.418		2.020e-03		10.892
5		0.00		-5.60		7.809e-03		-42.221		1.689e-03		14.094
5		0.00		-6.00		7.192e-03		-46.803		1.472e-03		11.140
5		0.00		-6.40		6.264e-03		-38.969		1.487e-03		19.041
5		0.00		-6.80		5.263e-03		-41.766		1.359e-03		17.560
5		0.00		-7.20		3.934e-03		-38.365		1.040e-03		27.412
5		0.00		-7.60		2.182e-03		-7.496		9.066e-04		59.412
5		0.00		-8.00		1.950e-03		4.013		9.201e-04		63.014
5		0.00		-8.40		2.010e-03		57.649		8.190e-04		66.428
5		0.00		-8.80		2.950e-03		103.120		1.155e-03		42.928
5		0.00		-9.20		4.902e-03		117.025		1.564e-03		24.114
5		0.00		-9.60		7.002e-03		126.283		1.723e-03		18.779
5		0.00		-10.00		9.795e-03		124.175		2.396e-03		14.330
5		0.00		-9.60		1.075e-02		127.671		2.761e-03		13.231
5		0.00		-9.20		1.108e-02		125.363		2.811e-03		13.379
5		0.00		-8.80		1.134e-02		124.922		3.113e-03		16.550
5		0.00		-8.40		1.120e-02		127.413		2.999e-03		16.387
5		0.00		-8.00		1.147e-02		125.921		3.236e-03		17.359
5		0.00		-7.60		1.140e-02		125.392		2.909e-03		18.268
5		0.00		-7.20		1.141e-02		125.140		3.079e-03		16.298
5		0.00		-6.80		1.123e-02		124.025		2.834e-03		19.696
5		0.00		-6.40		1.110e-02		127.764		2.994e-03		17.767
5		0.00		-6.00		1.087e-02		125.654		2.773e-03		14.334
5		0.00		-5.60		1.048e-02		123.020		2.767e-03		14.099
5		0.00		-5.20		1.061e-02		123.817		2.884e-03		11.520
5		0.00		-4.80		1.020e-02		125.967		2.482e-03		11.776
5		0.00		-4.40		1.026e-02		127.056		2.793e-03		15.336
5		0.00		-4.00		9.748e-03		123.699		2.997e-03		11.042
5		0.00		-3.60		1.004e-02		125.454		2.944e-03		10.249
5		0.00		-3.20		9.418e-03		125.032		2.559e-03		11.342
5		0.00		-2.80		9.727e-03		124.398		2.580e-03		9.816
5		0.00		-2.40		9.615e-03		127.011		2.623e-03		10.473
5		0.00		-2.00		8.960e-03		128.594		2.637e-03		10.607
5		0.00		-1.60		9.031e-03		124.243		2.217e-03		11.975
5		0.00		-1.20		9.192e-03		124.425		2.145e-03		9.811
5		0.00		-0.80		9.442e-03		123.095		2.345e-03		10.611
5		0.00		-0.40		8.849e-03		127.265		2.016e-03		11.836
6		0.00		0.00		8.998e-03		127.486		2.125e-03		10.780
6		0.00		0.40		9.172e-03		126.041		2.013e-03		10.112
6		0.00		0.80		9.278e-03		125.203		2.180e-03		12.375
6		0.00		1.20		8.905e-03		127.445		1.850e-03		11.900
6		0.00		1.60		8.479e-03		125.577		1.942e-03		14.898
6		0.00		2.00		7.874e-03		125.741		1.988e-03		15.675
6		0.00		2.40		7.552e-03		124.856		1.849e-03		12.384
6		0.00		2.80		6.794e-03		124.776		1.712e-03		15.134
6		0.00		3.20		5.884e-03		122.478		1.507e-03		17.665
6		0.00		3.60		5.300e-03		123.234		1.658e-03		32.146
6		0.00		4.00		4.198e-03		118.819		1.555e-03		38.009
6		0.00		4.40		3.325e-03		105.476		1.307e-03		57.689
6		0.00		4.80		2.842e-03		99.688		1.123e-03		61.506
6		0.00		5.20		2.368e-03		77.657		1.103e-03		66.854
6		0.00		5.60		1.865e-03		33.671		8.985e-04		79.014
6		0.00		6.00		1.806e-03		-19.813		7.288e-04		75.412
6		0.00		6.40		2.072e-03		-24.280		8.848e-04		56.216
6		0.00		6.80		2.578e-03		-43.484		1.104e-03		41.051
6		0.00		7.20		2.893e-03		-56.264		1.103e-03		39.159
6		0.00		7.60		3.781e-03		-60.577		1.386e-03		22.739
6		0.00		8.00		4.760e-03		-51.156		1.411e-03		26.631
6		0.00		8.40		5.908e-03		-46.956		1.711e-03		20.830
6		0.00		8.80		6.471e-03		-47.918		1.683e-03		16.462
6		0.00		9.20		8.074e-03		-44.432		2.219e-03		17.793
6		0.00		9.60		9.497e-03		-52.101		2.570e-03		12.328
6		0.00		10.00		1.110e-02		-47.990		2.803e-03		9.223
6		0.00		9.60		1.238e-02		-49.179		3.057e-03		9.584
6		0.00		9.20		1.291e-02		-49.476		3.203e-03		10.856
6		0.00		8.80		1.328e-02		-51.466		3.512e-03		11.331
6		0.00		8.40		1.352e-02		-49.595		3.447e-03		10.970
6		0.00		8.00		1.377e-02		-52.469		3.647e-03		9.704
6		0.00		7.60		1.383e-02		-53.054		3.549e-03		9.344
6		0.00		7.20		1.351e-02		-50.164		3.207e-03		10.748
6		0.00		6.80		1.358e-02		-51.102		3.401e-03		10.693
6		0.00		6.40		1.343e-02		-52.739		3.175e-03		9.518
6		0.00		6.00		1.348e-02		-50.326		3.185e-03		11.486
6		0.00		5.60		1.311e-02		-50.018		3.112e-03		9.759
6		0.00		5.20		1.330e-02		-51.451		2.991e-03		10.555
6		0.00		4.80		1.311e-02		-50.393		3.042e-03		11.366
6		0.00		4.40		1.306e-02		-51.838		2.939e-03		11.030
6		0.00		4.00		1.291e-02		-51.468		2.813e-03		10.124
6		0.00		3.60		1.293e-02		-51.135		2.783e-03		11.259
6		0.00		3.20		1.275e-02		-48.641		2.882e-03		10.988
6		0.00		2.80		1.258e-02		-50.250		2.812e-03		13.239
6		0.00		2.40		1.275e-02		-51.451		2.715e-03		11.844
6		0.00		2.00		1.264e-02		-51.369		2.982e-03		14.102
6		0.00		1.60		1.226e-02		-52.021		2.947e-03		11.332
6		0.00		1.20		1.227e-02		-45.980		2.942e-03		11.598
6		0.00		0.80		1.216e-02		-50.154		3.171e-03		12.319
6		0.00		0.40		1.197e-02		-48.218		3.281e-03		12.758
6		0.00		0.00		1.176e-02		-48.384		3.210e-03		14.656
6		0.00		-0.40		1.181e-02		-47.968		3.228e-03		11.443
6		0.00		-0.80		1.128e-02		-47.581		3.235e-03		17.509
6		0.00		-1.20		1.149e-02		-44.673		3.246e-03		14.569
6		0.00		-1.60		1.133e-02		-48.180		3.302e-03		14.187
6		0.00		-2.00		1.124e-02		-51.721		3.095e-03		15.298
6		0.00		-2.40		1.071e-02		-52.468		2.953e-03		13.527
6		0.00		-2.80		1.148e-02		-50.245		2.971e-03		12.602
6		0.00		-3.20		1.067e-02		-47.533		2.508e-03		11.839
6		0.00		-3.60		1.085e-02		-48.585		2.691e-03		11.628
6		0.00		-4.00		1.035e-02		-48.104		2.408e-03		11.342
6		0.00		-4.40		9.290e-03		-42.619		2.101e-03		12.853
6		0.00		-4.80		9.026e-03		-54.720		1.966e-03		11.497
6		0.00		-5.20		8.422e-03		-45.962		1.797e-03		9.971
6		0.00		-5.60		8.158e-03		-48.263		1.776e-03		14.492
6		0.00		-6.00		6.786e-03		-45.446		1.719e-03		12.418
6		0.00		-6.40		5.999e-03		-48.860		1.477e-03		17.042
6		0.00		-6.80		4.747e-03		-45.237		1.413e-03		21.037
6		0.00		-7.20		3.257e-03		-42.674		1.178e-03		26.188
6		0.00		-7.60		2.373e-03		-44.123		1.006e-03		40.255
6		0.00		-8.00		1.735e-03		-7.779		7.555e-04		69.018
6		0.00		-8.40		1.841e-03		41.970		7.605e-04		82.623
6		0.00		-8.80		3.357e-03		110.146		1.276e-03		42.347
6		0.00		-9.20		4.634e-03		114.639		1.574e-03		32.097
6		0.00		-9.60		6.444e-03		121.283		1.867e-03		19.212
6		0.00		-10.00		8.044e-03		126.568		2.523e-03		22.142
6		0.00		-9.60		8.767e-03		123.300		2.690e-03		18.665
6		0.00		-9.20		9.794e-03		126.655		2.885e-03		19.812
6		0.00		-8.80		1.032e-02		121.262		2.919e-03		16.053
6		0.00		-8.40		1.117e-02		124.025		3.083e-03		14.328
6		0.00		-8.00		1.142e-02		121.683		2.946e-03		12.646
6		0.00		-7.60		1.128e-02		125.100		2.764e-03		11.768
6		0.00		-7.20		1.107e-02		123.725		2.899e-03		10.710
6		0.00		-6.80		1.104e-02		122.405		2.785e-03		11.783
6		0.00		-6.40		1.051e-02		125.483		2.543e-03		10.616
6		0.00		-6.00		1.019e-02		123.483		2.618e-03		12.068
6		0.00		-5.60		1.049e-02		125.545		2.564e-03		8.313
6		0.00		-5.20		1.025e-02		125.976		2.412e-03		11.254
6		0.00		-4.80		1.003e-02		124.295		2.232e-03		11.606
6		0.00		-4.40		1.017e-02		126.876		2.103e-03		9.623
6		0.00		-4.00		9.785e-03		125.907		2.328e-03		11.071
6		0.00		-3.60		9.932e-03		124.410		2.185e-03		10.341
6		0.00		-3.20		9.684e-03		123.820		2.245e-03		12.145
6		0.00		-2.80		9.107e-03		127.303		2.159e-03		10.285
6		0.00		-2.40		9.351e-03		124.666		2.074e-03		9.681
6		0.00		-2.00		9.131e-03		125.463		1.917e-03		12.489
6		0.00		-1.60		8.928e-03		124.529		2.235e-03		13.941
6		0.00		-1.20		9.110e-03		126.671		2.351e-03		12.561
6		0.00		-0.80		8.939e-03		125.380		2.308e-03		13.156
6		0.00		-0.40		9.082e-03		123.466		2.170e-03		12.866
7		0.00		0.00		8.934e-03		125.953		2.034e-03		14.081
7		0.00		0.40		8.516e-03		126.459		2.235e-03		16.395
7		0.00		0.80		8.676e-03		124.745		2.264e-03		16.573
7		0.00		1.20		8.152e-03		126.559		2.079e-03		20.339
7		0.00		1.60		7.957e-03		130.370		2.263e-03		15.666
7		0.00		2.00		7.644e-03		122.037		1.818e-03		18.832
7		0.00		2.40		7.153e-03		123.226		1.937e-03		17.098
7		0.00		2.80		6.443e-03		121.869		2.007e-03		29.844
7		0.00		3.20		5.691e-03		124.319		1.685e-03		16.077
7		0.00		3.60		5.359e-03		120.063		1.924e-03		19.374
7		0.00		4.00		4.315e-03		124.435		1.381e-03		33.743
7		0.00		4.40		3.495e-03		106.747		1.136e-03		54.323
7		0.00		4.80		2.547e-03		96.332		1.086e-03		51.406
7		0.00		5.20		2.080e-03		61.042		8.331e-04		72.450
7		0.00		5.60		1.766e-03		-12.032		7.805e-04		74.828
7		0.00		6.00		1.603e-03		-11.693		7.144e-04		75.737
7		0.00		6.40		2.130e-03		-46.418		7.976e-04		55.681
7		0.00		6.80		2.870e-03		-56.592		1.054e-03		40.236
7		0.00		7.20		3.257e-03		-57.972		1.168e-03		28.960
7		0.00		7.60		3.996e-03		-55.842		1.364e-03		23.926
7		0.00		8.00		4.566e-03		-46.202		1.451e-03		26.434
7		0.00		8.40		5.045e-03		-50.734		1.526e-03		21.330
7		0.00		8.80		6.819e-03		-46.219		1.860e-03		18.190
7		0.00		9.20		7.797e-03		-56.103		2.232e-03		16.415
7		0.00		9.60		9.619e-03		-49.227		2.426e-03		10.061
7		0.00		10.00		1.125e-02		-53.053		3.100e-03		16.488
7		0.00		9.60		1.285e-02		-51.578		3.206e-03		14.753
7		0.00		9.20		1.330e-02		-52.200		3.368e-03		10.274
7		0.00		8.80		1.382e-02		-51.869		3.569e-03		10.575
7		0.00		8.40		1.402e-02		-49.258		3.579e-03		10.637
7		0.00		8.00		1.418e-02		-51.563		3.346e-03		9.580
7		0.00		7.60		1.448e-02		-50.112		2.976e-03		9.341
7		0.00		7.20		1.428e-02		-52.593		3.044e-03		7.524
7		0.00		6.80		1.431e-02		-53.141		2.836e-03		9.766
7		0.00		6.40		1.397e-02		-50.603		3.050e-03		9.073
7		0.00		6.00		1.398e-02		-51.124		2.801e-03		10.850
7		0.00		5.60		1.394e-02		-51.709		2.869e-03		10.138
7		0.00		5.20		1.376e-02		-49.973		2.850e-03		9.165
7		0.00		4.80		1.366e-02		-48.462		2.806e-03		11.616
7		0.00		4.40		1.350e-02		-49.459		2.875e-03		10.789
7		0.00		4.00		1.323e-02		-49.596		2.902e-03		9.771
7		0.00		3.60		1.269e-02		-49.773		2.895e-03		9.743
7		0.00		3.20		1.279e-02		-46.590		3.132e-03		11.326
7		0.00		2.80		1.290e-02		-46.435		2.904e-03		15.043
7		0.00		2.40		1.265e-02		-46.890		3.041e-03		13.682
7		0.00		2.00		1.249e-02		-51.101		3.389e-03		13.208
7		0.00		1.60		1.236e-02		-45.665		3.147e-03		13.230
7		0.00		1.20		1.191e-02		-45.862		3.179e-03		12.233
7		0.00		0.80		1.204e-02		-49.536		3.576e-03		11.363
7		0.00		0.40		1.159e-02		-48.494		3.356e-03		12.289
7		0.00		0.00		1.199e-02		-46.805		3.157e-03		10.850
7		0.00		-0.40		1.188e-02		-51.946		3.027e-03		11.608
7		0.00		-0.80		1.169e-02		-49.118		2.827e-03		11.566
7		0.00		-1.20		1.165e-02		-48.238		2.670e-03		13.935
7		0.00		-1.60		1.189e-02		-49.268		2.672e-03		12.047
7		0.00		-2.00		1.158e-02		-51.461		2.702e-03		10.863
7		0.00		-2.40		1.099e-02		-52.341		2.553e-03		11.613
7		0.00		-2.80		1.094e-02		-47.717		2.523e-03		12.275
7		0.00		-3.20		1.080e-02		-48.124		2.509e-03		14.140
7		0.00		-3.60		1.025e-02		-46.910		2.287e-03		12.598
7		0.00		-4.00		9.491e-03		-45.256		2.101e-03		12.526
7		0.00		-4.40		9.506e-03		-49.257		2.531e-03		14.332
7		0.00		-4.80		8.943e-03		-47.908		2.537e-03		13.869
7		0.00		-5.20		8.186e-03		-42.434		2.200e-03		16.686
7		0.00		-5.60		7.837e-03		-43.888		2.166e-03		13.258
7		0.00		-6.00		6.595e-03		-49.051		1.771e-03		14.670
7		0.00		-6.40		5.929e-03		-48.367		1.921e-03		17.816
7		0.00		-6.80		4.921e-03		-42.463		1.579e-03		21.019
7		0.00		-7.20		4.178e-03		-50.384		1.365e-03		27.496
7		0.00		-7.60		2.544e-03		-23.809		1.127e-03		40.682
7		0.00		-8.00		1.668e-03		-12.369		6.767e-04		69.179
7		0.00		-8.40		1.761e-03		54.840		7.774e-04		69.875
7		0.00		-8.80		2.905e-03		95.292		1.029e-03		39.128
7		0.00		-9.20		4.465e-03		124.443		1.423e-03		18.392
7		0.00		-9.60		6.374e-03		122.955		1.769e-03		18.344
7		0.00		-10.00		9.223e-03		119.376		2.805e-03		18.334
7		0.00		-9.60		1.014e-02		123.592		2.810e-03		21.225
7		0.00		-9.20		1.061e-02		122.945		2.884e-03		17.024
7		0.00		-8.80		1.162e-02		125.447		3.070e-03		12.392
7		0.00		-8.40		1.172e-02		123.091		2.893e-03		10.555
7		0.00		-8.00		1.186e-02		124.358		2.539e-03		9.556
7		0.00		-7.60		1.161e-02		123.091		2.757e-03		10.738
7		0.00		-7.20		1.162e-02		124.720		2.844e-03		12.300
7		0.00		-6.80		1.078e-02		125.886		2.660e-03		12.688
7		0.00		-6.40		1.070e-02		128.734		2.431e-03		11.249
7		0.00		-6.00		1.033e-02		124.455		2.620e-03		11.131
7		0.00		-5.60		1.026e-02		125.444		2.799e-03		14.445
7		0.00		-5.20		1.015e-02		124.725		2.943e-03		20.479
7		0.00		-4.80		9.620e-03		123.076		2.662e-03		17.238
7		0.00		-4.40		9.343e-03		123.978		2.840e-03		16.361
7		0.00		-4.00		9.290e-03		122.451		2.860e-03		12.057
7		0.00		-3.60		9.310e-03		127.219		2.156e-03		10.580
7		0.00		-3.20		9.224e-03		123.349		2.533e-03		9.899
7		0.00		-2.80		9.320e-03		121.885		2.141e-03		12.119
7		0.00		-2.40		8.819e-03		127.767		2.316e-03		10.853
7		0.00		-2.00		9.049e-03		124.645		2.422e-03		13.600
7		0.00		-1.60		8.440e-03		123.860		2.533e-03		15.110
7		0.00		-1.20		8.601e-03		123.035		2.481e-03		15.509
7		0.00		-0.80		8.163e-03		123.518		2.184e-03		19.373
7		0.00		-0.40		8.758e-03		124.880		2.369e-03		16.196
8		0.00		0.00		8.359e-03		118.549		2.354e-03		23.289
8		0.00		0.40		8.945e-03		123.158		2.331e-03		11.269
8		0.00		0.80		8.639e-03		126.901		2.018e-03		11.220
8		0.00		1.20		8.485e-03		130.622		2.123e-03		11.890
8		0.00		1.60		7.958e-03		121.344		1.900e-03		11.751
8		0.00		2.00		7.464e-03		125.924		1.740e-03		13.400
8		0.00		2.40		7.148e-03		130.172		1.877e-03		12.148
8		0.00		2.80		6.645e-03		126.485		1.684e-03		14.820
8		0.00		3.20		6.007e-03		125.425		1.799e-03		15.550
8		0.00		3.60		5.126e-03		121.356		1.660e-03		19.281
8		0.00		4.00		4.182e-03		115.077		1.580e-03		36.970
8		0.00		4.40		3.712e-03		109.042		1.356e-03		33.023
8		0.00		4.80		2.796e-03		104.734		1.050e-03		42.340
8		0.00		5.20		2.264e-03		62.545		1.042e-03		77.258
8		0.00		5.60		1.840e-03		37.248		8.003e-04		75.253
8		0.00		6.00		1.636e-03		-6.002		7.074e-04		74.658
8		0.00		6.40		1.792e-03		-27.154		6.699e-04		72.824
8		0.00		6.80		2.243e-03		-47.331		9.554e-04		47.269
8		0.00		7.20		2.856e-03		-56.160		1.094e-03		31.248
8		0.00		7.60		3.797e-03		-50.059		1.335e-03		27.303
8		0.00		8.00		4.181e-03		-47.249		1.289e-03		25.402
8		0.00		8.40		5.118e-03		-47.021		1.461e-03		18.463
8		0.00		8.80		6.767e-03		-49.351		1.633e-03		15.441
8		0.00		9.20		8.047e-03		-53.415		1.819e-03		13.146
8		0.00		9.60		9.442e-03		-51.713		2.039e-03		12.574
8		0.00		10.00		1.129e-02		-49.722		2.238e-03		10.865
8		0.00		9.60		1.191e-02		-49.104		2.666e-03		12.086
8		0.00		9.20		1.224e-02		-50.882		3.136e-03		13.308
8		0.00		8.80		1.227e-02		-50.525		3.318e-03		12.136
8		0.00		8.40		1.283e-02		-50.777		3.633e-03		11.833
8		0.00		8.00		1.325e-02		-48.554		3.579e-03		11.186
8		0.00		7.60		1.331e-02		-51.723		3.100e-03		9.375
8		0.00		7.20		1.326e-02		-51.032		2.930e-03		9.935
8		0.00		6.80		1.278e-02		-53.188		2.687e-03		11.601
8		0.00		6.40		1.313e-02		-52.399		3.147e-03		12.263
8		0.00		6.00		1.240e-02		-50.076		3.277e-03		13.850
8		0.00		5.60		1.210e-02		-50.025		3.487e-03		14.044
8		0.00		5.20		1.184e-02		-51.667		3.625e-03		15.008
8		0.00		4.80		1.241e-02		-50.024		3.391e-03		10.130
8		0.00		4.40		1.248e-02		-53.110		2.858e-03		10.293
8		0.00		4.00		1.256e-02		-50.579		2.586e-03		10.544
8		0.00		3.60		1.238e-02		-46.937		2.594e-03		12.647
8		0.00		3.20		1.242e-02		-47.543		2.573e-03		10.068
8		0.00		2.80		1.243e-02		-50.810		2.576e-03		11.526
8		0.00		2.40		1.227e-02		-46.477		2.903e-03		12.229
8		0.00		2.00		1.226e-02		-47.921		2.891e-03		11.723
8		0.00		1.60		1.194e-02		-48.940		3.046e-03		12.534
8		0.00		1.20		1.212e-02		-47.354		2.781e-03		10.719
8		0.00		0.80		1.222e-02		-48.938		2.436e-03		9.801
8		0.00		0.40		1.230e-02		-45.196		2.463e-03		10.202
8		0.00		0.00		1.208e-02		-48.005		2.639e-03		12.889
8		0.00		-0.40		1.152e-02		-48.023		2.732e-03		12.593
8		0.00		-0.80		1.136e-02		-47.074		3.062e-03		11.899
8		0.00		-1.20		1.112e-02		-51.470		3.069e-03		11.984
8		0.00		-1.60		1.080e-02		-47.033		2.875e-03		13.935
8		0.00		-2.00		1.113e-02		-48.643		2.378e-03		10.523
8		0.00		-2.40		1.113e-02		-48.808		2.311e-03		9.838
8		0.00		-2.80		1.046e-02		-49.228		2.225e-03		12.128
8		0.00		-3.20		1.005e-02		-48.748		2.248e-03		14.052
8		0.00		-3.60		9.645e-03		-47.703		2.352e-03		11.941
8		0.00		-4.00		9.297e-03		-49.392		2.483e-03		16.272
8		0.00		-4.40		8.922e-03		-43.372		2.263e-03		13.454
8		0.00		-4.80		8.570e-03		-41.094		2.017e-03		13.865
8		0.00		-5.20		8.055e-03		-53.039		1.887e-03		13.528
8		0.00		-5.60		7.642e-03		-43.634		1.620e-03		15.534
8		0.00		-6.00		6.850e-03		-44.528		1.638e-03		15.563
8		0.00		-6.40		5.734e-03		-43.441		1.548e-03		14.504
8		0.00		-6.80		4.685e-03		-43.249		1.655e-03		25.448
8		0.00		-7.20		3.885e-03		-36.547		1.367e-03		21.858
8		0.00		-7.60		2.741e-03		-44.818		1.195e-03		38.892
8		0.00		-8.00		1.615e-03		3.632		6.356e-04		81.169
8		0.00		-8.40		2.155e-03		62.748		8.696e-04		62.268
8		0.00		-8.80		3.515e-03		111.629		1.203e-03		42.229
8		0.00		-9.20		4.835e-03		117.961		1.676e-03		27.826
8		0.00		-9.60		5.842e-03		118.824		1.744e-03		24.847
8		0.00		-10.00		7.142e-03		123.944		2.160e-03		15.754
8		0.00		-9.60		8.028e-03		126.659		2.187e-03		12.907
8		0.00		-9.20		8.844e-03		124.041		2.027e-03		11.799
8		0.00		-8.80		9.614e-03		125.776		2.337e-03		11.600
8		0.00		-8.40		8.996e-03		126.346		2.658e-03		16.704
8		0.00		-8.00		9.310e-03		121.760		2.672e-03		16.943
8		0.00		-7.60		9.413e-03		123.915		2.527e-03		14.654
8		0.00		-7.20		9.240e-03		126.598		2.410e-03		13.000
8		0.00		-6.80		9.317e-03		124.584		2.324e-03		10.277
8		0.00		-6.40		9.101e-03		126.553		2.126e-03		11.252
8		0.00		-6.00		8.903e-03		124.225		2.052e-03		13.152
8		0.00		-5.60		8.943e-03		130.891		2.353e-03		15.497
8		0.00		-5.20		8.468e-03		125.151		2.202e-03		18.732
8		0.00		-4.80		8.429e-03		126.820		2.173e-03		12.480
8		0.00		-4.40		8.633e-03		124.942		2.389e-03		10.732
8		0.00		-4.00		8.381e-03		127.613		1.953e-03		12.736
8		0.00		-3.60		8.283e-03		125.947		1.942e-03		11.948
8		0.00		-3.20		7.892e-03		127.958		1.815e-03		12.378
8		0.00		-2.80		7.860e-03		120.054		2.181e-03		17.906
8		0.00		-2.40		7.891e-03		121.938		2.441e-03		21.301
8		0.00		-2.00		8.010e-03		122.664		2.376e-03		16.346
8		0.00		-1.60		8.168e-03		126.386		1.968e-03		11.802
8		0.00		-1.20		8.183e-03		125.746		1.944e-03		13.287
8		0.00		-0.80		7.722e-03		123.226		1.919e-03		13.876
8		0.00		-0.40		7.714e-03		124.736		2.105e-03		13.871
