# Date of analysis: 2024-03-08 10;58
# Segment other properties: height: -31.220267381896136, diff height: 235.72089398623416, deflection: 35.93926093621491, deflection error: 5.288782568901131, adhesion: 29.495491193528217, phase offset: 0
# 
# Loop index	Read Volt (V)	Write Volt (V)	Amplitude (a.u)	Phase (deg)	Sigma Amp (a.u)	Sigma Pha (deg)	
1		0.00		0.00		2.089e-02		-50.992		7.529e-03		21.358
1		0.00		0.40		1.942e-02		-51.508		7.227e-03		14.400
1		0.00		0.80		1.919e-02		-48.051		7.425e-03		24.072
1		0.00		1.20		1.874e-02		-49.161		7.194e-03		25.805
1		0.00		1.60		1.881e-02		-46.032		7.056e-03		29.660
1		0.00		2.00		1.859e-02		-47.704		7.104e-03		31.508
1		0.00		2.40		1.822e-02		-48.035		6.854e-03		29.875
1		0.00		2.80		1.902e-02		-50.848		7.127e-03		24.229
1		0.00		3.20		1.932e-02		-52.717		6.884e-03		25.900
1		0.00		3.60		2.015e-02		-45.823		6.926e-03		27.468
1		0.00		4.00		2.051e-02		-47.674		7.191e-03		24.444
1		0.00		4.40		2.154e-02		-47.536		7.707e-03		23.445
1		0.00		4.80		2.309e-02		-46.980		8.064e-03		26.244
1		0.00		5.20		2.474e-02		-45.523		8.716e-03		22.429
1		0.00		5.60		2.581e-02		-46.241		9.253e-03		20.651
1		0.00		6.00		2.851e-02		-45.469		9.998e-03		19.633
1		0.00		6.40		3.021e-02		-46.664		1.092e-02		20.996
1		0.00		6.80		3.381e-02		-47.208		1.166e-02		20.168
1		0.00		7.20		3.638e-02		-49.101		1.322e-02		24.369
1		0.00		7.60		4.085e-02		-45.700		1.524e-02		22.102
1		0.00		8.00		4.523e-02		-51.924		1.672e-02		23.010
1		0.00		8.40		4.732e-02		-48.178		1.733e-02		26.675
1		0.00		8.80		4.818e-02		-48.050		1.785e-02		30.401
1		0.00		9.20		4.779e-02		-50.576		1.713e-02		30.923
1		0.00		9.60		4.934e-02		-48.976		1.811e-02		34.339
1		0.00		10.00		4.749e-02		-51.106		1.692e-02		31.352
1		0.00		9.60		4.787e-02		-51.945		1.630e-02		27.196
1		0.00		9.20		4.762e-02		-53.693		1.530e-02		16.984
1		0.00		8.80		4.739e-02		-52.444		1.470e-02		15.590
1		0.00		8.40		4.597e-02		-53.192		1.366e-02		14.452
1		0.00		8.00		4.578e-02		-52.443		1.287e-02		13.024
1		0.00		7.60		4.498e-02		-54.591		1.229e-02		13.280
1		0.00		7.20		4.335e-02		-53.694		1.147e-02		13.637
1		0.00		6.80		4.342e-02		-54.244		1.113e-02		12.459
1		0.00		6.40		4.149e-02		-55.037		1.034e-02		13.957
1		0.00		6.00		4.075e-02		-52.392		9.732e-03		12.614
1		0.00		5.60		4.059e-02		-53.293		9.684e-03		13.204
1		0.00		5.20		3.895e-02		-52.452		9.174e-03		13.428
1		0.00		4.80		3.869e-02		-52.457		9.372e-03		11.854
1		0.00		4.40		3.744e-02		-51.920		9.049e-03		13.384
1		0.00		4.00		3.694e-02		-52.497		8.828e-03		13.805
1		0.00		3.60		3.618e-02		-52.408		8.674e-03		13.190
1		0.00		3.20		3.494e-02		-52.055		8.393e-03		13.399
1		0.00		2.80		3.360e-02		-52.554		8.285e-03		13.117
1		0.00		2.40		3.302e-02		-51.055		8.134e-03		13.523
1		0.00		2.00		3.312e-02		-50.765		8.101e-03		13.351
1		0.00		1.60		3.294e-02		-51.128		7.992e-03		13.073
1		0.00		1.20		3.348e-02		-51.325		8.513e-03		13.339
1		0.00		0.80		3.257e-02		-50.435		8.112e-03		12.451
1		0.00		0.40		3.227e-02		-49.462		8.225e-03		12.672
1		0.00		0.00		3.137e-02		-49.978		8.140e-03		12.909
1		0.00		-0.40		3.072e-02		-48.753		8.012e-03		12.965
1		0.00		-0.80		2.802e-02		-47.927		7.418e-03		12.749
1		0.00		-1.20		2.340e-02		-50.624		6.414e-03		13.884
1		0.00		-1.60		2.058e-02		-50.124		6.305e-03		14.514
1		0.00		-2.00		1.611e-02		-53.466		5.533e-03		12.619
1		0.00		-2.40		1.227e-02		-54.469		5.269e-03		16.191
1		0.00		-2.80		8.871e-03		-50.433		4.855e-03		26.795
1		0.00		-3.20		5.705e-03		-26.007		3.675e-03		55.413
1		0.00		-3.60		4.987e-03		42.934		2.728e-03		72.771
1		0.00		-4.00		5.588e-03		74.893		2.724e-03		58.069
1		0.00		-4.40		7.375e-03		90.792		3.668e-03		46.745
1		0.00		-4.80		1.081e-02		104.722		5.315e-03		49.388
1		0.00		-5.20		1.310e-02		111.880		6.020e-03		38.888
1		0.00		-5.60		1.654e-02		115.284		7.474e-03		36.392
1		0.00		-6.00		2.045e-02		120.054		8.749e-03		34.451
1		0.00		-6.40		2.098e-02		120.235		8.469e-03		32.570
1		0.00		-6.80		2.548e-02		125.154		1.006e-02		27.149
1		0.00		-7.20		2.393e-02		123.278		9.502e-03		27.013
1		0.00		-7.60		2.716e-02		124.134		9.881e-03		25.266
1		0.00		-8.00		2.916e-02		125.116		1.041e-02		23.174
1		0.00		-8.40		2.951e-02		124.989		1.050e-02		22.746
1		0.00		-8.80		3.050e-02		126.311		1.040e-02		19.901
1		0.00		-9.20		3.319e-02		125.919		1.139e-02		21.574
1		0.00		-9.60		3.398e-02		125.710		1.198e-02		22.929
1		0.00		-10.00		3.239e-02		125.270		1.162e-02		20.583
1		0.00		-9.60		3.374e-02		124.792		1.243e-02		22.620
1		0.00		-9.20		3.121e-02		122.984		1.183e-02		24.353
1		0.00		-8.80		3.201e-02		124.636		1.226e-02		23.917
1		0.00		-8.40		3.163e-02		125.810		1.216e-02		23.478
1		0.00		-8.00		3.121e-02		125.121		1.159e-02		20.728
1		0.00		-7.60		3.030e-02		124.291		1.146e-02		23.561
1		0.00		-7.20		2.949e-02		124.769		1.119e-02		21.812
1		0.00		-6.80		2.822e-02		124.777		1.029e-02		21.217
1		0.00		-6.40		2.829e-02		125.911		9.938e-03		22.400
1		0.00		-6.00		2.619e-02		124.027		9.198e-03		23.499
1		0.00		-5.60		2.753e-02		126.052		9.259e-03		19.987
1		0.00		-5.20		2.496e-02		125.358		8.144e-03		20.386
1		0.00		-4.80		2.385e-02		126.632		7.815e-03		19.554
1		0.00		-4.40		2.203e-02		124.322		7.447e-03		20.184
1		0.00		-4.00		2.036e-02		127.206		6.778e-03		18.301
1		0.00		-3.60		1.921e-02		125.970		6.327e-03		20.384
1		0.00		-3.20		1.852e-02		125.381		6.275e-03		20.512
1		0.00		-2.80		1.752e-02		125.268		5.966e-03		19.131
1		0.00		-2.40		1.690e-02		125.706		6.183e-03		20.149
1		0.00		-2.00		1.572e-02		125.475		5.543e-03		18.867
1		0.00		-1.60		1.503e-02		125.054		5.316e-03		17.763
1		0.00		-1.20		1.321e-02		124.275		4.831e-03		19.918
1		0.00		-0.80		1.235e-02		124.421		4.746e-03		25.488
1		0.00		-0.40		1.143e-02		119.372		4.498e-03		28.789
2		0.00		0.00		1.049e-02		123.592		3.834e-03		26.915
2		0.00		0.40		9.677e-03		123.830		3.933e-03		27.182
2		0.00		0.80		8.260e-03		119.769		3.436e-03		31.002
2		0.00		1.20		7.705e-03		119.621		3.112e-03		30.911
2		0.00		1.60		6.591e-03		119.972		2.804e-03		36.151
2		0.00		2.00		4.988e-03		114.607		2.030e-03		41.016
2		0.00		2.40		3.563e-03		94.917		1.592e-03		61.314
2		0.00		2.80		2.359e-03		24.447		9.470e-04		86.631
2		0.00		3.20		2.625e-03		-53.219		1.090e-03		54.675
2		0.00		3.60		5.085e-03		-57.071		1.655e-03		23.063
2		0.00		4.00		8.468e-03		-50.819		2.580e-03		20.752
2		0.00		4.40		1.129e-02		-54.913		3.671e-03		18.841
2		0.00		4.80		1.438e-02		-54.608		4.287e-03		17.923
2		0.00		5.20		1.716e-02		-54.390		5.485e-03		16.894
2		0.00		5.60		2.087e-02		-54.160		7.140e-03		16.905
2		0.00		6.00		2.340e-02		-52.861		7.741e-03		16.517
2		0.00		6.40		2.527e-02		-53.997		8.401e-03		15.302
2		0.00		6.80		2.836e-02		-53.032		9.572e-03		14.488
2		0.00		7.20		3.010e-02		-53.418		1.016e-02		14.243
2		0.00		7.60		3.137e-02		-53.592		9.864e-03		13.399
2		0.00		8.00		3.471e-02		-52.394		1.087e-02		13.687
2		0.00		8.40		3.508e-02		-52.289		1.099e-02		12.802
2		0.00		8.80		3.750e-02		-51.988		1.138e-02		13.422
2		0.00		9.20		3.937e-02		-51.892		1.148e-02		13.468
2		0.00		9.60		4.109e-02		-52.086		1.158e-02		13.504
2		0.00		10.00		4.174e-02		-52.115		1.162e-02		12.535
2		0.00		9.60		4.092e-02		-52.512		1.092e-02		12.751
2		0.00		9.20		3.853e-02		-53.218		1.013e-02		14.737
2		0.00		8.80		3.753e-02		-52.947		9.758e-03		14.383
2		0.00		8.40		3.625e-02		-52.787		9.086e-03		14.236
2		0.00		8.00		3.496e-02		-51.602		8.672e-03		13.968
2		0.00		7.60		3.375e-02		-52.420		8.458e-03		14.729
2		0.00		7.20		3.438e-02		-52.553		8.624e-03		14.641
2		0.00		6.80		3.276e-02		-52.819		8.311e-03		13.115
2		0.00		6.40		3.115e-02		-53.452		7.759e-03		13.441
2		0.00		6.00		3.000e-02		-53.470		7.265e-03		15.620
2		0.00		5.60		2.955e-02		-52.431		6.892e-03		15.369
2		0.00		5.20		2.783e-02		-52.045		6.176e-03		14.522
2		0.00		4.80		2.736e-02		-51.458		6.162e-03		15.607
2		0.00		4.40		2.763e-02		-52.545		6.324e-03		14.089
2		0.00		4.00		2.660e-02		-51.675		5.697e-03		14.576
2		0.00		3.60		2.641e-02		-53.178		6.232e-03		14.296
2		0.00		3.20		2.624e-02		-51.142		5.849e-03		13.841
2		0.00		2.80		2.570e-02		-51.221		5.885e-03		13.689
2		0.00		2.40		2.555e-02		-49.652		5.893e-03		14.017
2		0.00		2.00		2.557e-02		-50.403		6.064e-03		13.590
2		0.00		1.60		2.463e-02		-51.524		6.464e-03		13.484
2		0.00		1.20		2.423e-02		-51.151		6.583e-03		13.726
2		0.00		0.80		2.403e-02		-51.785		6.838e-03		13.611
2		0.00		0.40		2.355e-02		-51.552		7.040e-03		13.484
2		0.00		0.00		2.267e-02		-51.721		6.887e-03		15.321
2		0.00		-0.40		2.047e-02		-53.614		6.874e-03		21.734
2		0.00		-0.80		1.746e-02		-49.269		6.280e-03		24.376
2		0.00		-1.20		1.531e-02		-49.731		5.484e-03		27.471
2		0.00		-1.60		1.195e-02		-52.206		4.850e-03		28.290
2		0.00		-2.00		9.050e-03		-55.585		4.294e-03		29.624
2		0.00		-2.40		6.338e-03		-55.176		3.365e-03		37.392
2		0.00		-2.80		4.393e-03		-15.669		2.828e-03		66.815
2		0.00		-3.20		3.936e-03		36.500		2.040e-03		76.000
2		0.00		-3.60		5.406e-03		79.418		2.862e-03		75.767
2		0.00		-4.00		7.760e-03		99.441		3.961e-03		57.002
2		0.00		-4.40		9.503e-03		107.177		4.474e-03		46.957
2		0.00		-4.80		1.412e-02		119.239		5.943e-03		38.787
2		0.00		-5.20		1.580e-02		124.324		6.551e-03		33.184
2		0.00		-5.60		1.906e-02		125.388		7.243e-03		30.866
2		0.00		-6.00		2.137e-02		130.140		7.825e-03		13.306
2		0.00		-6.40		2.318e-02		131.388		7.760e-03		11.102
2		0.00		-6.80		2.510e-02		128.480		8.234e-03		14.173
2		0.00		-7.20		2.773e-02		131.096		9.130e-03		12.210
2		0.00		-7.60		2.956e-02		129.432		9.721e-03		13.609
2		0.00		-8.00		3.073e-02		129.942		1.032e-02		12.184
2		0.00		-8.40		3.261e-02		128.344		1.056e-02		11.960
2		0.00		-8.80		3.337e-02		128.101		1.109e-02		13.048
2		0.00		-9.20		3.434e-02		128.915		1.173e-02		15.236
2		0.00		-9.60		3.579e-02		129.130		1.245e-02		13.369
2		0.00		-10.00		3.418e-02		127.930		1.201e-02		12.941
2		0.00		-9.60		3.475e-02		127.040		1.313e-02		14.936
2		0.00		-9.20		3.603e-02		127.582		1.336e-02		14.828
2		0.00		-8.80		3.492e-02		127.997		1.253e-02		15.082
2		0.00		-8.40		3.616e-02		125.246		1.332e-02		20.391
2		0.00		-8.00		3.391e-02		125.988		1.191e-02		20.810
2		0.00		-7.60		3.540e-02		125.709		1.225e-02		23.334
2		0.00		-7.20		3.273e-02		125.480		1.122e-02		24.365
2		0.00		-6.80		3.174e-02		128.117		1.076e-02		22.362
2		0.00		-6.40		3.039e-02		126.566		1.025e-02		23.481
2		0.00		-6.00		2.854e-02		126.852		9.388e-03		20.029
2		0.00		-5.60		2.746e-02		128.556		9.371e-03		17.403
2		0.00		-5.20		2.688e-02		128.338		9.012e-03		13.480
2		0.00		-4.80		2.359e-02		126.917		7.976e-03		14.146
2		0.00		-4.40		2.258e-02		128.579		7.705e-03		12.996
2		0.00		-4.00		2.052e-02		129.471		6.963e-03		12.494
2		0.00		-3.60		1.943e-02		127.016		6.746e-03		11.500
2		0.00		-3.20		1.807e-02		128.160		6.220e-03		13.216
2		0.00		-2.80		1.704e-02		128.979		5.794e-03		11.494
2		0.00		-2.40		1.561e-02		129.001		5.278e-03		11.627
2		0.00		-2.00		1.469e-02		131.344		5.060e-03		15.277
2		0.00		-1.60		1.374e-02		128.580		4.979e-03		18.706
2		0.00		-1.20		1.240e-02		125.596		4.438e-03		15.403
2		0.00		-0.80		1.163e-02		120.098		4.096e-03		31.249
2		0.00		-0.40		1.071e-02		125.401		3.789e-03		31.638
3		0.00		0.00		1.006e-02		121.152		3.563e-03		33.340
3		0.00		0.40		8.857e-03		125.646		3.319e-03		28.408
3		0.00		0.80		7.956e-03		122.731		3.295e-03		29.178
3		0.00		1.20		6.737e-03		115.617		2.817e-03		38.001
3		0.00		1.60		5.584e-03		107.710		2.445e-03		45.827
3		0.00		2.00		4.580e-03		97.917		2.095e-03		55.837
3		0.00		2.40		2.976e-03		66.527		1.388e-03		76.875
3		0.00		2.80		2.458e-03		35.210		1.053e-03		74.079
3		0.00		3.20		2.662e-03		-15.762		1.238e-03		72.533
3		0.00		3.60		3.554e-03		-49.476		1.483e-03		41.060
3		0.00		4.00		6.342e-03		-58.734		2.548e-03		25.532
3		0.00		4.40		8.790e-03		-58.825		2.873e-03		18.816
3		0.00		4.80		1.277e-02		-54.804		4.067e-03		16.634
3		0.00		5.20		1.612e-02		-55.945		4.972e-03		13.910
3		0.00		5.60		1.962e-02		-54.255		5.624e-03		14.897
3		0.00		6.00		2.309e-02		-52.922		6.380e-03		13.267
3		0.00		6.40		2.657e-02		-52.677		7.233e-03		14.167
3		0.00		6.80		2.897e-02		-51.798		7.490e-03		13.328
3		0.00		7.20		3.153e-02		-51.584		8.248e-03		13.384
3		0.00		7.60		3.264e-02		-51.901		8.635e-03		13.956
3		0.00		8.00		3.507e-02		-50.777		8.974e-03		13.580
3		0.00		8.40		3.663e-02		-50.797		9.453e-03		13.666
3		0.00		8.80		3.798e-02		-49.071		1.026e-02		13.735
3		0.00		9.20		4.114e-02		-49.080		1.098e-02		12.390
3		0.00		9.60		4.074e-02		-50.051		1.100e-02		13.673
3		0.00		10.00		4.294e-02		-49.763		1.193e-02		13.023
3		0.00		9.60		4.296e-02		-48.819		1.200e-02		12.315
3		0.00		9.20		4.267e-02		-48.533		1.277e-02		11.613
3		0.00		8.80		4.247e-02		-48.858		1.422e-02		11.509
3		0.00		8.40		4.212e-02		-49.764		1.411e-02		11.603
3		0.00		8.00		4.009e-02		-50.884		1.450e-02		13.286
3		0.00		7.60		3.769e-02		-52.368		1.335e-02		18.724
3		0.00		7.20		3.601e-02		-46.551		1.307e-02		27.947
3		0.00		6.80		3.571e-02		-50.856		1.273e-02		23.416
3		0.00		6.40		3.604e-02		-53.420		1.234e-02		23.382
3		0.00		6.00		3.534e-02		-52.173		1.114e-02		20.134
3		0.00		5.60		3.420e-02		-50.725		1.058e-02		18.010
3		0.00		5.20		3.384e-02		-50.219		9.999e-03		16.297
3		0.00		4.80		3.336e-02		-50.418		9.902e-03		15.005
3		0.00		4.40		3.205e-02		-51.421		8.960e-03		12.992
3		0.00		4.00		3.152e-02		-49.212		8.171e-03		10.684
3		0.00		3.60		3.156e-02		-49.953		7.934e-03		10.779
3		0.00		3.20		3.149e-02		-51.622		7.644e-03		11.421
3		0.00		2.80		3.042e-02		-51.197		7.342e-03		12.069
3		0.00		2.40		3.003e-02		-51.229		7.039e-03		11.198
3		0.00		2.00		2.972e-02		-51.538		6.749e-03		11.620
3		0.00		1.60		2.896e-02		-50.120		6.612e-03		13.058
3		0.00		1.20		2.955e-02		-50.531		6.812e-03		13.389
3		0.00		0.80		2.898e-02		-51.185		6.552e-03		11.997
3		0.00		0.40		2.880e-02		-50.527		6.737e-03		12.417
3		0.00		0.00		2.828e-02		-51.360		6.636e-03		12.648
3		0.00		-0.40		2.669e-02		-51.174		6.551e-03		11.753
3		0.00		-0.80		2.504e-02		-52.701		6.394e-03		12.088
3		0.00		-1.20		2.282e-02		-50.642		5.688e-03		11.897
3		0.00		-1.60		1.955e-02		-50.391		5.076e-03		11.416
3		0.00		-2.00		1.463e-02		-53.968		4.314e-03		14.633
3		0.00		-2.40		9.367e-03		-53.160		3.584e-03		18.169
3		0.00		-2.80		6.536e-03		-56.877		3.232e-03		27.009
3		0.00		-3.20		4.387e-03		-35.106		2.507e-03		52.718
3		0.00		-3.60		3.917e-03		46.231		1.885e-03		80.419
3		0.00		-4.00		5.784e-03		92.034		2.814e-03		57.308
3		0.00		-4.40		8.823e-03		113.559		3.961e-03		46.650
3		0.00		-4.80		1.179e-02		119.675		5.216e-03		31.420
3		0.00		-5.20		1.494e-02		126.709		6.121e-03		25.148
3		0.00		-5.60		1.972e-02		129.469		7.625e-03		15.266
3		0.00		-6.00		2.090e-02		129.365		7.593e-03		16.739
3		0.00		-6.40		2.371e-02		128.942		8.480e-03		9.983
3		0.00		-6.80		2.749e-02		130.210		9.397e-03		9.921
3		0.00		-7.20		2.915e-02		128.887		9.223e-03		9.652
3		0.00		-7.60		3.178e-02		129.827		9.926e-03		9.916
3		0.00		-8.00		3.464e-02		129.037		1.146e-02		10.338
3		0.00		-8.40		3.574e-02		128.629		1.145e-02		12.787
3		0.00		-8.80		3.933e-02		128.392		1.327e-02		12.709
3		0.00		-9.20		3.974e-02		127.601		1.290e-02		12.606
3		0.00		-9.60		4.168e-02		127.261		1.382e-02		12.950
3		0.00		-10.00		4.147e-02		126.616		1.394e-02		17.470
3		0.00		-9.60		4.041e-02		126.381		1.338e-02		19.905
3		0.00		-9.20		3.999e-02		124.197		1.326e-02		25.168
3		0.00		-8.80		3.883e-02		127.151		1.256e-02		21.162
3		0.00		-8.40		3.827e-02		127.994		1.241e-02		14.822
3		0.00		-8.00		3.709e-02		128.389		1.154e-02		11.724
3		0.00		-7.60		3.624e-02		129.321		1.097e-02		10.363
3		0.00		-7.20		3.474e-02		129.334		1.072e-02		9.377
3		0.00		-6.80		3.374e-02		129.901		9.634e-03		9.220
3		0.00		-6.40		3.134e-02		128.132		9.099e-03		8.888
3		0.00		-6.00		3.058e-02		128.323		8.689e-03		8.958
3		0.00		-5.60		2.967e-02		129.449		8.852e-03		9.067
3		0.00		-5.20		2.825e-02		128.147		8.441e-03		10.441
3		0.00		-4.80		2.673e-02		129.941		8.606e-03		11.369
3		0.00		-4.40		2.510e-02		129.081		8.127e-03		12.409
3		0.00		-4.00		2.424e-02		126.202		8.288e-03		13.459
3		0.00		-3.60		2.210e-02		125.393		7.989e-03		23.081
3		0.00		-3.20		2.156e-02		126.773		7.202e-03		18.723
3		0.00		-2.80		1.989e-02		126.674		6.793e-03		24.323
3		0.00		-2.40		1.841e-02		125.808		6.045e-03		22.828
3		0.00		-2.00		1.683e-02		126.165		5.474e-03		19.191
3		0.00		-1.60		1.559e-02		130.397		5.049e-03		14.297
3		0.00		-1.20		1.427e-02		130.896		4.426e-03		10.622
3		0.00		-0.80		1.348e-02		130.983		4.323e-03		11.534
3		0.00		-0.40		1.261e-02		130.667		3.851e-03		9.362
4		0.00		0.00		1.088e-02		128.435		3.704e-03		12.663
4		0.00		0.40		9.761e-03		125.343		3.554e-03		25.464
4		0.00		0.80		8.941e-03		124.214		3.428e-03		32.429
4		0.00		1.20		7.834e-03		119.053		3.019e-03		35.865
4		0.00		1.60		6.893e-03		121.485		2.828e-03		34.922
4		0.00		2.00		6.005e-03		114.615		2.584e-03		52.564
4		0.00		2.40		4.588e-03		111.940		1.974e-03		45.523
4		0.00		2.80		3.445e-03		84.447		1.747e-03		70.643
4		0.00		3.20		2.457e-03		25.281		1.153e-03		85.811
4		0.00		3.60		2.457e-03		-9.359		1.137e-03		67.956
4		0.00		4.00		4.074e-03		-60.077		1.712e-03		31.033
4		0.00		4.40		6.274e-03		-59.063		1.925e-03		21.435
4		0.00		4.80		9.868e-03		-56.333		2.676e-03		15.084
4		0.00		5.20		1.420e-02		-52.168		3.436e-03		14.197
4		0.00		5.60		1.860e-02		-53.348		4.176e-03		14.249
4		0.00		6.00		2.299e-02		-52.460		5.521e-03		13.349
4		0.00		6.40		2.666e-02		-52.182		6.515e-03		12.781
4		0.00		6.80		3.089e-02		-50.411		8.152e-03		12.173
4		0.00		7.20		3.425e-02		-48.806		1.015e-02		12.509
4		0.00		7.60		3.764e-02		-50.476		1.218e-02		11.912
4		0.00		8.00		3.982e-02		-48.720		1.411e-02		20.178
4		0.00		8.40		4.232e-02		-55.200		1.487e-02		19.602
4		0.00		8.80		4.279e-02		-52.867		1.469e-02		18.219
4		0.00		9.20		4.477e-02		-50.102		1.585e-02		19.501
4		0.00		9.60		4.499e-02		-50.425		1.558e-02		15.020
4		0.00		10.00		4.443e-02		-51.080		1.414e-02		12.927
4		0.00		9.60		4.341e-02		-51.874		1.306e-02		14.754
4		0.00		9.20		4.489e-02		-50.968		1.124e-02		11.697
4		0.00		8.80		4.425e-02		-50.177		1.069e-02		10.795
4		0.00		8.40		4.465e-02		-50.126		1.140e-02		10.829
4		0.00		8.00		4.315e-02		-50.167		1.164e-02		11.671
4		0.00		7.60		4.197e-02		-50.333		1.210e-02		10.921
4		0.00		7.20		4.200e-02		-50.536		1.267e-02		10.348
4		0.00		6.80		3.993e-02		-47.477		1.241e-02		12.580
4		0.00		6.40		3.902e-02		-48.848		1.241e-02		19.261
4		0.00		6.00		3.774e-02		-51.413		1.195e-02		19.657
4		0.00		5.60		3.782e-02		-52.250		1.140e-02		15.558
4		0.00		5.20		3.631e-02		-50.667		1.105e-02		9.267
4		0.00		4.80		3.622e-02		-52.443		1.045e-02		9.968
4		0.00		4.40		3.511e-02		-52.669		9.478e-03		11.365
4		0.00		4.00		3.458e-02		-51.665		8.766e-03		10.987
4		0.00		3.60		3.451e-02		-50.735		8.958e-03		11.355
4		0.00		3.20		3.477e-02		-52.145		9.129e-03		10.472
4		0.00		2.80		3.441e-02		-50.948		9.492e-03		10.294
4		0.00		2.40		3.355e-02		-52.268		1.023e-02		10.265
4		0.00		2.00		3.297e-02		-52.707		1.043e-02		11.537
4		0.00		1.60		3.276e-02		-53.342		1.036e-02		15.809
4		0.00		1.20		3.189e-02		-52.652		9.836e-03		19.512
4		0.00		0.80		3.150e-02		-52.985		9.224e-03		22.053
4		0.00		0.40		3.095e-02		-51.634		8.939e-03		17.272
4		0.00		0.00		3.031e-02		-49.813		8.244e-03		13.618
4		0.00		-0.40		2.909e-02		-51.592		7.185e-03		10.276
4		0.00		-0.80		2.701e-02		-53.084		6.315e-03		10.786
4		0.00		-1.20		2.445e-02		-52.766		5.377e-03		11.071
4		0.00		-1.60		2.058e-02		-53.106		4.452e-03		12.359
4		0.00		-2.00		1.613e-02		-53.450		3.562e-03		13.784
4		0.00		-2.40		1.238e-02		-57.195		3.678e-03		14.249
4		0.00		-2.80		7.944e-03		-52.035		3.550e-03		20.039
4		0.00		-3.20		4.521e-03		-25.651		2.841e-03		58.393
4		0.00		-3.60		4.973e-03		73.184		2.274e-03		68.476
4		0.00		-4.00		7.689e-03		108.225		3.492e-03		47.236
4		0.00		-4.40		1.028e-02		110.401		4.779e-03		42.098
4		0.00		-4.80		1.317e-02		119.287		5.819e-03		35.190
4		0.00		-5.20		1.621e-02		124.372		6.776e-03		25.215
4		0.00		-5.60		2.045e-02		128.277		7.557e-03		15.742
4		0.00		-6.00		2.382e-02		128.543		7.727e-03		9.882
4		0.00		-6.40		2.794e-02		130.458		8.634e-03		9.265
4		0.00		-6.80		2.913e-02		129.159		8.721e-03		10.338
4		0.00		-7.20		3.441e-02		128.996		9.761e-03		9.759
4		0.00		-7.60		3.637e-02		127.550		1.058e-02		10.917
4		0.00		-8.00		3.871e-02		128.651		1.195e-02		12.279
4		0.00		-8.40		3.957e-02		125.861		1.310e-02		17.075
4		0.00		-8.80		4.034e-02		125.406		1.359e-02		22.994
4		0.00		-9.20		3.930e-02		125.253		1.311e-02		21.137
4		0.00		-9.60		3.865e-02		127.240		1.338e-02		15.681
4		0.00		-10.00		3.943e-02		129.569		1.306e-02		11.243
4		0.00		-9.60		3.900e-02		129.242		1.199e-02		10.241
4		0.00		-9.20		3.890e-02		128.586		1.141e-02		10.161
4		0.00		-8.80		3.993e-02		127.701		1.162e-02		9.259
4		0.00		-8.40		3.873e-02		127.860		1.183e-02		10.339
4		0.00		-8.00		3.854e-02		127.292		1.314e-02		13.323
4		0.00		-7.60		3.735e-02		126.584		1.327e-02		12.787
4		0.00		-7.20		3.733e-02		126.156		1.307e-02		19.141
4		0.00		-6.80		3.381e-02		127.456		1.117e-02		20.680
4		0.00		-6.40		3.393e-02		128.395		1.099e-02		17.990
4		0.00		-6.00		3.102e-02		129.104		9.999e-03		11.591
4		0.00		-5.60		2.922e-02		129.680		8.331e-03		10.120
4		0.00		-5.20		2.801e-02		129.108		7.119e-03		8.820
4		0.00		-4.80		2.601e-02		130.263		7.178e-03		9.303
4		0.00		-4.40		2.475e-02		129.113		7.091e-03		12.011
4		0.00		-4.00		2.435e-02		127.415		7.367e-03		12.993
4		0.00		-3.60		2.229e-02		128.235		7.316e-03		13.908
4		0.00		-3.20		2.124e-02		126.697		7.671e-03		21.143
4		0.00		-2.80		1.910e-02		122.943		6.809e-03		26.106
4		0.00		-2.40		1.859e-02		128.232		6.663e-03		18.955
4		0.00		-2.00		1.726e-02		131.292		5.738e-03		11.786
4		0.00		-1.60		1.571e-02		128.342		4.988e-03		9.579
4		0.00		-1.20		1.492e-02		129.676		4.622e-03		10.438
4		0.00		-0.80		1.380e-02		127.765		4.685e-03		21.991
4		0.00		-0.40		1.312e-02		127.753		4.456e-03		18.098
5		0.00		0.00		1.205e-02		126.377		4.578e-03		30.044
5		0.00		0.40		1.104e-02		127.631		4.028e-03		28.197
5		0.00		0.80		9.956e-03		127.191		3.708e-03		29.602
5		0.00		1.20		8.880e-03		124.807		3.280e-03		29.408
5		0.00		1.60		7.863e-03		129.135		2.989e-03		23.335
5		0.00		2.00		6.426e-03		124.545		2.459e-03		42.394
5		0.00		2.40		5.104e-03		111.652		2.049e-03		52.629
5		0.00		2.80		3.919e-03		96.810		1.786e-03		62.723
5		0.00		3.20		2.990e-03		66.619		1.250e-03		78.293
5		0.00		3.60		2.455e-03		2.329		1.075e-03		80.164
5		0.00		4.00		3.703e-03		-61.000		1.711e-03		36.496
5		0.00		4.40		5.821e-03		-56.115		2.274e-03		25.763
5		0.00		4.80		8.396e-03		-56.172		2.669e-03		18.105
5		0.00		5.20		1.240e-02		-55.887		3.425e-03		15.056
5		0.00		5.60		1.734e-02		-52.169		4.435e-03		13.913
5		0.00		6.00		2.128e-02		-53.712		5.306e-03		12.225
5		0.00		6.40		2.527e-02		-53.531		6.259e-03		11.697
5		0.00		6.80		2.964e-02		-53.065		8.549e-03		10.646
5		0.00		7.20		3.233e-02		-50.942		1.024e-02		12.634
5		0.00		7.60		3.590e-02		-47.835		1.147e-02		16.804
5		0.00		8.00		3.864e-02		-51.588		1.200e-02		16.297
5		0.00		8.40		3.975e-02		-51.203		1.176e-02		12.379
5		0.00		8.80		4.067e-02		-50.178		1.099e-02		11.369
5		0.00		9.20		4.155e-02		-49.552		1.029e-02		11.965
5		0.00		9.60		4.230e-02		-48.683		1.066e-02		11.558
5		0.00		10.00		4.484e-02		-48.900		1.191e-02		11.007
5		0.00		9.60		4.568e-02		-49.336		1.313e-02		11.647
5		0.00		9.20		4.592e-02		-48.942		1.505e-02		12.871
5		0.00		8.80		4.226e-02		-54.676		1.481e-02		20.846
5		0.00		8.40		4.044e-02		-51.787		1.384e-02		19.021
5		0.00		8.00		3.918e-02		-50.718		1.261e-02		12.529
5		0.00		7.60		3.940e-02		-50.586		1.099e-02		10.792
5		0.00		7.20		3.800e-02		-50.891		9.600e-03		11.878
5		0.00		6.80		3.751e-02		-51.516		9.705e-03		11.610
5		0.00		6.40		3.717e-02		-51.303		9.512e-03		10.232
5		0.00		6.00		3.630e-02		-50.970		1.063e-02		9.508
5		0.00		5.60		3.525e-02		-50.822		1.113e-02		12.849
5		0.00		5.20		3.469e-02		-50.071		1.064e-02		17.167
5		0.00		4.80		3.468e-02		-50.340		1.019e-02		14.645
5		0.00		4.40		3.360e-02		-50.946		8.488e-03		10.058
5		0.00		4.00		3.306e-02		-50.896		7.574e-03		10.813
5		0.00		3.60		3.367e-02		-51.163		7.380e-03		11.431
5		0.00		3.20		3.406e-02		-51.242		7.808e-03		10.166
5		0.00		2.80		3.364e-02		-50.712		8.827e-03		10.674
5		0.00		2.40		3.227e-02		-52.420		9.546e-03		12.568
5		0.00		2.00		3.132e-02		-54.217		9.926e-03		20.446
5		0.00		1.60		3.097e-02		-52.106		9.805e-03		16.152
5		0.00		1.20		2.997e-02		-51.516		8.481e-03		11.396
5		0.00		0.80		2.929e-02		-51.113		7.164e-03		10.976
5		0.00		0.40		2.946e-02		-52.132		6.951e-03		11.681
5		0.00		0.00		3.026e-02		-51.504		7.415e-03		11.303
5		0.00		-0.40		2.726e-02		-51.945		7.588e-03		11.312
5		0.00		-0.80		2.563e-02		-53.460		8.644e-03		12.391
5		0.00		-1.20		2.330e-02		-52.753		7.676e-03		18.137
5		0.00		-1.60		1.943e-02		-53.906		5.597e-03		19.673
5		0.00		-2.00		1.561e-02		-54.886		4.190e-03		17.261
5		0.00		-2.40		1.114e-02		-54.275		3.400e-03		13.949
5		0.00		-2.80		7.515e-03		-53.983		3.042e-03		22.735
5		0.00		-3.20		4.317e-03		-21.895		2.226e-03		65.689
5		0.00		-3.60		4.335e-03		46.994		2.056e-03		71.429
5		0.00		-4.00		6.363e-03		92.866		2.861e-03		62.008
5		0.00		-4.40		8.832e-03		108.308		4.015e-03		48.450
5		0.00		-4.80		1.225e-02		114.058		5.233e-03		39.740
5		0.00		-5.20		1.501e-02		122.126		6.461e-03		28.639
5		0.00		-5.60		1.861e-02		129.635		6.933e-03		14.423
5		0.00		-6.00		2.220e-02		131.150		7.718e-03		10.014
5		0.00		-6.40		2.603e-02		129.673		9.056e-03		11.531
5		0.00		-6.80		2.997e-02		127.814		1.033e-02		12.438
5		0.00		-7.20		3.176e-02		126.989		1.146e-02		15.296
5		0.00		-7.60		3.429e-02		124.647		1.302e-02		20.262
5		0.00		-8.00		3.484e-02		125.023		1.234e-02		22.345
5		0.00		-8.40		3.666e-02		127.494		1.236e-02		14.902
5		0.00		-8.80		3.652e-02		129.701		1.082e-02		9.389
5		0.00		-9.20		3.741e-02		129.262		1.019e-02		10.438
5		0.00		-9.60		4.000e-02		128.146		1.097e-02		9.914
5		0.00		-10.00		3.947e-02		128.735		1.103e-02		9.587
5		0.00		-9.60		4.007e-02		128.512		1.249e-02		9.907
5		0.00		-9.20		4.038e-02		126.108		1.356e-02		16.037
5		0.00		-8.80		3.936e-02		127.153		1.249e-02		19.366
5		0.00		-8.40		3.829e-02		128.461		1.256e-02		18.554
5		0.00		-8.00		3.758e-02		129.226		1.227e-02		11.192
5		0.00		-7.60		3.526e-02		129.467		1.110e-02		10.936
5		0.00		-7.20		3.399e-02		129.368		9.679e-03		9.897
5		0.00		-6.80		3.274e-02		129.078		1.042e-02		9.744
5		0.00		-6.40		3.299e-02		128.393		1.034e-02		11.223
5		0.00		-6.00		3.144e-02		127.101		1.066e-02		13.158
5		0.00		-5.60		3.070e-02		127.041		1.126e-02		15.694
5		0.00		-5.20		2.961e-02		123.986		1.150e-02		22.678
5		0.00		-4.80		2.751e-02		125.399		1.009e-02		24.399
5		0.00		-4.40		2.674e-02		128.655		9.142e-03		16.524
5		0.00		-4.00		2.503e-02		129.515		7.984e-03		11.137
5		0.00		-3.60		2.400e-02		130.174		7.072e-03		8.387
5		0.00		-3.20		2.232e-02		129.274		6.383e-03		8.812
5		0.00		-2.80		2.079e-02		128.855		6.193e-03		10.705
5		0.00		-2.40		2.026e-02		129.403		6.082e-03		10.901
5		0.00		-2.00		1.860e-02		129.186		5.733e-03		17.908
5		0.00		-1.60		1.740e-02		128.086		5.952e-03		18.997
5		0.00		-1.20		1.625e-02		127.840		5.732e-03		20.317
5		0.00		-0.80		1.491e-02		120.985		5.338e-03		30.248
5		0.00		-0.40		1.393e-02		123.567		5.134e-03		25.703
6		0.00		0.00		1.252e-02		127.294		4.601e-03		20.619
6		0.00		0.40		1.170e-02		129.488		4.310e-03		17.095
6		0.00		0.80		1.065e-02		130.608		3.732e-03		12.965
6		0.00		1.20		1.003e-02		131.771		3.558e-03		25.780
6		0.00		1.60		8.750e-03		125.052		3.196e-03		33.279
6		0.00		2.00		7.860e-03		123.214		3.145e-03		34.260
6		0.00		2.40		6.563e-03		123.391		2.744e-03		31.410
6		0.00		2.80		5.460e-03		111.932		2.386e-03		45.115
6		0.00		3.20		3.717e-03		91.888		1.730e-03		70.510
6		0.00		3.60		2.455e-03		-21.776		9.255e-04		78.168
6		0.00		4.00		4.120e-03		-56.866		1.783e-03		31.382
6		0.00		4.40		8.016e-03		-58.266		2.522e-03		20.389
6		0.00		4.80		1.042e-02		-56.128		2.986e-03		13.818
6		0.00		5.20		1.465e-02		-51.608		3.730e-03		12.716
6		0.00		5.60		1.867e-02		-51.249		4.359e-03		12.902
6		0.00		6.00		2.216e-02		-52.705		5.066e-03		13.184
6		0.00		6.40		2.702e-02		-51.413		6.159e-03		11.949
6		0.00		6.80		2.994e-02		-51.266		7.827e-03		11.718
6		0.00		7.20		3.253e-02		-52.813		9.892e-03		11.471
6		0.00		7.60		3.589e-02		-51.721		1.226e-02		11.264
6		0.00		8.00		3.756e-02		-49.753		1.401e-02		24.127
6		0.00		8.40		3.947e-02		-55.300		1.398e-02		23.229
6		0.00		8.80		4.125e-02		-55.093		1.477e-02		21.703
6		0.00		9.20		4.156e-02		-51.444		1.433e-02		14.652
6		0.00		9.60		4.322e-02		-51.206		1.395e-02		12.299
6		0.00		10.00		4.423e-02		-51.329		1.257e-02		11.738
6		0.00		9.60		4.331e-02		-50.155		1.081e-02		11.170
6		0.00		9.20		4.313e-02		-50.444		9.855e-03		10.524
6		0.00		8.80		4.243e-02		-50.371		1.015e-02		10.567
6		0.00		8.40		4.258e-02		-50.217		1.023e-02		10.417
6		0.00		8.00		4.170e-02		-49.148		1.081e-02		11.819
6		0.00		7.60		4.035e-02		-49.871		1.142e-02		11.207
6		0.00		7.20		3.855e-02		-51.275		1.167e-02		11.885
6		0.00		6.80		3.720e-02		-49.963		1.164e-02		15.663
6		0.00		6.40		3.678e-02		-51.174		1.160e-02		16.270
6		0.00		6.00		3.595e-02		-52.988		1.110e-02		19.841
6		0.00		5.60		3.487e-02		-52.267		1.111e-02		15.795
6		0.00		5.20		3.429e-02		-52.006		1.053e-02		12.013
6		0.00		4.80		3.256e-02		-51.029		9.273e-03		10.146
6		0.00		4.40		3.221e-02		-50.995		8.391e-03		8.899
6		0.00		4.00		3.199e-02		-51.475		7.870e-03		10.118
6		0.00		3.60		3.193e-02		-52.215		7.637e-03		10.280
6		0.00		3.20		3.121e-02		-52.310		7.148e-03		11.249
6		0.00		2.80		3.161e-02		-51.453		7.337e-03		10.804
6		0.00		2.40		3.153e-02		-51.538		7.188e-03		10.601
6		0.00		2.00		3.138e-02		-50.514		7.196e-03		9.935
6		0.00		1.60		3.037e-02		-50.938		7.499e-03		10.300
6		0.00		1.20		2.990e-02		-49.255		8.199e-03		10.048
6		0.00		0.80		3.022e-02		-52.087		8.779e-03		12.373
6		0.00		0.40		2.951e-02		-50.923		8.898e-03		17.052
6		0.00		0.00		2.890e-02		-53.233		8.497e-03		18.386
6		0.00		-0.40		2.812e-02		-52.831		7.921e-03		18.944
6		0.00		-0.80		2.542e-02		-52.441		7.211e-03		19.515
6		0.00		-1.20		2.393e-02		-54.037		6.772e-03		14.766
6		0.00		-1.60		1.913e-02		-53.285		5.619e-03		12.637
6		0.00		-2.00		1.571e-02		-52.827		4.743e-03		12.822
6		0.00		-2.40		1.138e-02		-57.397		3.860e-03		13.595
6		0.00		-2.80		7.203e-03		-64.074		3.575e-03		25.626
6		0.00		-3.20		5.090e-03		-41.624		2.741e-03		51.553
6		0.00		-3.60		4.398e-03		39.626		2.159e-03		76.927
6		0.00		-4.00		6.233e-03		84.748		2.843e-03		71.567
6		0.00		-4.40		9.855e-03		113.966		4.364e-03		47.693
6		0.00		-4.80		1.481e-02		122.223		5.982e-03		37.790
6		0.00		-5.20		1.878e-02		123.107		6.842e-03		34.159
6		0.00		-5.60		2.248e-02		126.007		7.450e-03		24.872
6		0.00		-6.00		2.467e-02		125.300		8.267e-03		21.865
6		0.00		-6.40		2.841e-02		127.133		9.137e-03		16.605
6		0.00		-6.80		3.212e-02		127.958		1.022e-02		16.518
6		0.00		-7.20		3.392e-02		127.604		1.096e-02		13.989
6		0.00		-7.60		3.504e-02		126.027		1.214e-02		18.043
6		0.00		-8.00		3.633e-02		127.409		1.224e-02		14.334
6		0.00		-8.40		4.067e-02		127.032		1.359e-02		13.964
6		0.00		-8.80		3.973e-02		126.509		1.384e-02		18.187
6		0.00		-9.20		3.996e-02		124.020		1.441e-02		21.688
6		0.00		-9.60		3.949e-02		125.201		1.398e-02		20.245
6		0.00		-10.00		4.150e-02		122.491		1.489e-02		24.446
6		0.00		-9.60		4.123e-02		124.645		1.472e-02		23.822
6		0.00		-9.20		4.107e-02		125.726		1.458e-02		20.404
6		0.00		-8.80		4.119e-02		124.496		1.464e-02		20.845
6		0.00		-8.40		4.015e-02		126.162		1.427e-02		20.281
6		0.00		-8.00		3.948e-02		126.472		1.392e-02		18.070
6		0.00		-7.60		3.907e-02		127.050		1.369e-02		16.106
6		0.00		-7.20		3.711e-02		128.227		1.214e-02		16.528
6		0.00		-6.80		3.623e-02		128.701		1.196e-02		15.566
6		0.00		-6.40		3.509e-02		129.497		1.168e-02		14.044
6		0.00		-6.00		3.309e-02		128.754		1.095e-02		13.886
6		0.00		-5.60		3.179e-02		129.530		1.034e-02		11.887
6		0.00		-5.20		2.956e-02		127.525		9.674e-03		13.429
6		0.00		-4.80		2.819e-02		129.632		9.153e-03		13.412
6		0.00		-4.40		2.737e-02		129.924		8.769e-03		10.505
6		0.00		-4.00		2.605e-02		129.871		8.669e-03		11.486
6		0.00		-3.60		2.376e-02		130.214		7.893e-03		12.096
6		0.00		-3.20		2.230e-02		128.680		7.797e-03		11.698
6		0.00		-2.80		2.067e-02		129.465		7.555e-03		12.456
6		0.00		-2.40		1.897e-02		128.847		7.117e-03		12.252
6		0.00		-2.00		1.761e-02		126.987		6.523e-03		14.903
6		0.00		-1.60		1.691e-02		128.453		6.369e-03		14.760
6		0.00		-1.20		1.555e-02		126.977		5.925e-03		17.242
6		0.00		-0.80		1.451e-02		128.127		5.566e-03		17.235
6		0.00		-0.40		1.318e-02		129.951		4.928e-03		19.281
7		0.00		0.00		1.223e-02		124.175		4.513e-03		26.891
7		0.00		0.40		1.129e-02		122.709		4.109e-03		25.444
7		0.00		0.80		1.036e-02		129.387		3.774e-03		23.403
7		0.00		1.20		9.117e-03		125.272		3.496e-03		29.739
7		0.00		1.60		8.093e-03		125.910		3.117e-03		24.315
7		0.00		2.00		6.968e-03		121.902		2.826e-03		40.581
7		0.00		2.40		5.757e-03		114.808		2.386e-03		52.337
7		0.00		2.80		4.719e-03		109.460		1.939e-03		46.803
7		0.00		3.20		3.164e-03		69.819		1.490e-03		67.133
7		0.00		3.60		2.505e-03		6.691		9.764e-04		84.001
7		0.00		4.00		3.718e-03		-55.052		1.756e-03		40.136
7		0.00		4.40		6.900e-03		-50.625		2.389e-03		29.352
7		0.00		4.80		1.045e-02		-57.136		3.549e-03		21.749
7		0.00		5.20		1.362e-02		-58.533		4.863e-03		19.149
7		0.00		5.60		1.794e-02		-55.733		5.965e-03		20.553
7		0.00		6.00		2.164e-02		-53.122		7.380e-03		16.526
7		0.00		6.40		2.624e-02		-55.903		8.911e-03		18.838
7		0.00		6.80		2.873e-02		-53.608		9.479e-03		18.100
7		0.00		7.20		3.143e-02		-54.326		1.068e-02		19.290
7		0.00		7.60		3.581e-02		-53.891		1.206e-02		19.267
7		0.00		8.00		3.668e-02		-53.520		1.197e-02		19.263
7		0.00		8.40		3.962e-02		-50.424		1.255e-02		16.017
7		0.00		8.80		4.147e-02		-52.303		1.325e-02		16.219
7		0.00		9.20		4.344e-02		-48.782		1.413e-02		19.169
7		0.00		9.60		4.476e-02		-51.026		1.498e-02		16.791
7		0.00		10.00		4.614e-02		-50.499		1.532e-02		16.677
7		0.00		9.60		4.632e-02		-50.445		1.517e-02		17.501
7		0.00		9.20		4.486e-02		-47.017		1.479e-02		21.682
7		0.00		8.80		4.332e-02		-48.132		1.406e-02		22.095
7		0.00		8.40		4.218e-02		-51.433		1.356e-02		15.571
7		0.00		8.00		4.149e-02		-53.487		1.408e-02		19.430
7		0.00		7.60		4.020e-02		-49.132		1.401e-02		18.354
7		0.00		7.20		3.816e-02		-52.135		1.340e-02		17.186
7		0.00		6.80		3.674e-02		-50.961		1.238e-02		11.358
7		0.00		6.40		3.634e-02		-51.875		1.219e-02		11.702
7		0.00		6.00		3.618e-02		-51.498		1.172e-02		10.880
7		0.00		5.60		3.557e-02		-51.154		1.123e-02		10.886
7		0.00		5.20		3.470e-02		-51.946		1.062e-02		10.959
7		0.00		4.80		3.471e-02		-51.769		1.022e-02		11.182
7		0.00		4.40		3.440e-02		-51.350		9.682e-03		10.999
7		0.00		4.00		3.352e-02		-51.962		8.756e-03		11.102
7		0.00		3.60		3.336e-02		-50.918		7.860e-03		10.686
7		0.00		3.20		3.246e-02		-50.982		7.647e-03		10.732
7		0.00		2.80		3.198e-02		-51.211		7.082e-03		9.613
7		0.00		2.40		3.139e-02		-50.382		6.962e-03		10.958
7		0.00		2.00		3.101e-02		-52.150		6.797e-03		11.109
7		0.00		1.60		2.978e-02		-50.982		6.283e-03		11.447
7		0.00		1.20		2.952e-02		-50.588		6.673e-03		10.752
7		0.00		0.80		2.897e-02		-50.875		6.426e-03		10.302
7		0.00		0.40		2.797e-02		-50.972		6.634e-03		10.623
7		0.00		0.00		2.738e-02		-52.635		6.884e-03		9.795
7		0.00		-0.40		2.641e-02		-52.059		7.023e-03		9.960
7		0.00		-0.80		2.375e-02		-52.318		6.355e-03		11.965
7		0.00		-1.20		2.131e-02		-53.138		6.363e-03		11.769
7		0.00		-1.60		1.811e-02		-52.202		5.692e-03		13.697
7		0.00		-2.00		1.397e-02		-56.380		4.795e-03		14.690
7		0.00		-2.40		1.051e-02		-55.088		4.373e-03		20.680
7		0.00		-2.80		7.494e-03		-58.731		3.844e-03		28.521
7		0.00		-3.20		4.997e-03		-33.415		3.029e-03		63.768
7		0.00		-3.60		4.711e-03		63.831		2.214e-03		68.222
7		0.00		-4.00		7.726e-03		104.072		3.384e-03		45.676
7		0.00		-4.40		1.044e-02		112.481		4.533e-03		44.661
7		0.00		-4.80		1.414e-02		119.203		5.750e-03		34.267
7		0.00		-5.20		1.902e-02		126.673		6.814e-03		25.751
7		0.00		-5.60		2.212e-02		126.053		7.896e-03		29.841
7		0.00		-6.00		2.471e-02		128.512		8.278e-03		12.051
7		0.00		-6.40		2.847e-02		129.757		9.223e-03		10.485
7		0.00		-6.80		3.148e-02		130.262		9.562e-03		9.448
7		0.00		-7.20		3.428e-02		130.335		1.041e-02		9.655
7		0.00		-7.60		3.465e-02		130.528		1.009e-02		8.709
7		0.00		-8.00		3.679e-02		129.528		1.151e-02		10.726
7		0.00		-8.40		3.753e-02		129.267		1.234e-02		8.959
7		0.00		-8.80		3.828e-02		130.521		1.310e-02		8.975
7		0.00		-9.20		4.015e-02		128.015		1.457e-02		13.089
7		0.00		-9.60		4.169e-02		128.216		1.523e-02		14.538
7		0.00		-10.00		4.171e-02		125.791		1.526e-02		17.777
7		0.00		-9.60		4.252e-02		125.480		1.565e-02		21.347
7		0.00		-9.20		4.172e-02		124.135		1.544e-02		20.681
7		0.00		-8.80		4.171e-02		125.250		1.527e-02		18.222
7		0.00		-8.40		4.192e-02		124.653		1.473e-02		17.704
7		0.00		-8.00		4.156e-02		126.871		1.351e-02		11.311
7		0.00		-7.60		4.178e-02		127.490		1.324e-02		11.887
7		0.00		-7.20		3.878e-02		127.962		1.168e-02		11.364
7		0.00		-6.80		3.714e-02		128.623		1.052e-02		10.597
7		0.00		-6.40		3.560e-02		128.354		9.850e-03		10.465
7		0.00		-6.00		3.391e-02		129.665		9.486e-03		10.147
7		0.00		-5.60		3.207e-02		130.507		8.876e-03		9.196
7		0.00		-5.20		3.052e-02		130.441		8.609e-03		8.880
7		0.00		-4.80		2.967e-02		130.091		8.257e-03		8.839
7		0.00		-4.40		2.780e-02		130.990		7.855e-03		8.363
7		0.00		-4.00		2.569e-02		129.669		7.843e-03		9.598
7		0.00		-3.60		2.376e-02		129.038		7.917e-03		9.350
7		0.00		-3.20		2.258e-02		128.424		8.008e-03		13.181
7		0.00		-2.80		2.102e-02		127.061		7.622e-03		16.395
7		0.00		-2.40		1.995e-02		127.377		7.175e-03		20.375
7		0.00		-2.00		1.879e-02		124.144		6.771e-03		22.246
7		0.00		-1.60		1.761e-02		123.672		6.894e-03		27.554
7		0.00		-1.20		1.631e-02		127.298		6.216e-03		17.540
7		0.00		-0.80		1.500e-02		126.750		5.153e-03		16.665
7		0.00		-0.40		1.437e-02		125.033		4.857e-03		18.547
8		0.00		0.00		1.299e-02		127.760		4.193e-03		17.705
8		0.00		0.40		1.218e-02		129.880		4.087e-03		11.094
8		0.00		0.80		1.091e-02		133.473		3.615e-03		11.255
8		0.00		1.20		9.678e-03		130.617		2.992e-03		11.003
8		0.00		1.60		8.247e-03		129.457		2.920e-03		25.187
8		0.00		2.00		6.999e-03		128.335		2.645e-03		27.359
8		0.00		2.40		6.202e-03		117.508		2.409e-03		46.112
8		0.00		2.80		4.744e-03		105.445		2.124e-03		45.656
8		0.00		3.20		3.739e-03		74.575		1.497e-03		77.617
8		0.00		3.60		2.657e-03		22.772		1.105e-03		80.278
8		0.00		4.00		2.881e-03		-47.057		1.453e-03		64.461
8		0.00		4.40		4.236e-03		-57.865		1.726e-03		27.870
8		0.00		4.80		8.106e-03		-55.728		2.378e-03		13.938
8		0.00		5.20		1.161e-02		-52.937		2.933e-03		14.711
8		0.00		5.60		1.632e-02		-55.760		4.108e-03		12.228
8		0.00		6.00		2.037e-02		-52.344		5.238e-03		11.573
8		0.00		6.40		2.457e-02		-54.352		6.575e-03		10.520
8		0.00		6.80		2.822e-02		-53.153		8.388e-03		10.175
8		0.00		7.20		3.211e-02		-52.124		1.007e-02		11.359
8		0.00		7.60		3.533e-02		-53.552		1.100e-02		15.965
8		0.00		8.00		3.801e-02		-54.834		1.216e-02		16.245
8		0.00		8.40		4.203e-02		-52.037		1.326e-02		11.040
8		0.00		8.80		4.391e-02		-51.378		1.312e-02		9.172
8		0.00		9.20		4.504e-02		-50.951		1.283e-02		9.709
8		0.00		9.60		4.538e-02		-50.704		1.178e-02		9.775
8		0.00		10.00		4.468e-02		-49.476		1.107e-02		9.466
8		0.00		9.60		4.331e-02		-48.455		1.091e-02		10.730
8		0.00		9.20		4.270e-02		-48.318		1.125e-02		11.165
8		0.00		8.80		4.240e-02		-49.753		1.257e-02		11.968
8		0.00		8.40		4.136e-02		-49.090		1.311e-02		13.830
8		0.00		8.00		4.145e-02		-51.876		1.342e-02		17.159
8		0.00		7.60		3.968e-02		-54.000		1.352e-02		19.136
8		0.00		7.20		3.852e-02		-49.983		1.309e-02		13.521
8		0.00		6.80		3.724e-02		-51.223		1.179e-02		10.075
8		0.00		6.40		3.617e-02		-50.162		1.014e-02		9.875
8		0.00		6.00		3.588e-02		-51.117		9.425e-03		10.622
8		0.00		5.60		3.444e-02		-51.518		8.934e-03		9.673
8		0.00		5.20		3.365e-02		-51.637		8.417e-03		10.564
8		0.00		4.80		3.313e-02		-50.944		8.358e-03		10.839
8		0.00		4.40		3.274e-02		-49.417		8.144e-03		10.489
8		0.00		4.00		3.209e-02		-50.426		8.669e-03		10.788
8		0.00		3.60		3.271e-02		-50.925		9.290e-03		12.156
8		0.00		3.20		3.187e-02		-49.937		9.206e-03		15.465
8		0.00		2.80		3.189e-02		-53.511		9.523e-03		21.605
8		0.00		2.40		3.109e-02		-51.835		9.348e-03		17.594
8		0.00		2.00		3.065e-02		-51.770		9.119e-03		14.781
8		0.00		1.60		3.030e-02		-50.534		8.365e-03		12.093
8		0.00		1.20		2.940e-02		-50.178		7.019e-03		12.316
8		0.00		0.80		2.911e-02		-50.144		6.592e-03		11.218
8		0.00		0.40		2.828e-02		-50.890		6.586e-03		11.199
8		0.00		0.00		2.703e-02		-51.167		6.207e-03		10.847
8		0.00		-0.40		2.620e-02		-51.099		6.248e-03		11.427
8		0.00		-0.80		2.390e-02		-50.514		6.089e-03		10.430
8		0.00		-1.20		2.205e-02		-50.900		5.841e-03		9.978
8		0.00		-1.60		1.949e-02		-51.492		5.688e-03		11.477
8		0.00		-2.00		1.544e-02		-51.608		5.113e-03		14.141
8		0.00		-2.40		1.123e-02		-57.385		4.158e-03		20.260
8		0.00		-2.80		6.942e-03		-53.729		3.672e-03		36.528
8		0.00		-3.20		4.867e-03		-33.857		3.062e-03		57.915
8		0.00		-3.60		4.294e-03		51.831		1.898e-03		70.623
8		0.00		-4.00		6.362e-03		81.837		2.919e-03		63.940
8		0.00		-4.40		9.341e-03		111.963		4.044e-03		42.482
8		0.00		-4.80		1.306e-02		112.638		5.596e-03		39.003
8		0.00		-5.20		1.677e-02		123.215		6.562e-03		30.589
8		0.00		-5.60		2.083e-02		123.337		7.712e-03		26.217
8		0.00		-6.00		2.378e-02		128.343		8.532e-03		18.655
8		0.00		-6.40		2.628e-02		130.006		8.826e-03		9.472
8		0.00		-6.80		2.981e-02		129.789		9.759e-03		11.648
8		0.00		-7.20		3.308e-02		129.558		1.094e-02		10.808
8		0.00		-7.60		3.335e-02		128.963		1.179e-02		10.500
8		0.00		-8.00		3.594e-02		128.264		1.324e-02		13.407
8		0.00		-8.40		3.898e-02		126.925		1.431e-02		18.090
8		0.00		-8.80		3.801e-02		124.862		1.413e-02		24.883
8		0.00		-9.20		3.925e-02		124.355		1.476e-02		26.093
8		0.00		-9.60		4.168e-02		124.106		1.620e-02		23.388
8		0.00		-10.00		4.175e-02		126.091		1.526e-02		15.477
8		0.00		-9.60		4.215e-02		125.292		1.514e-02		16.819
8		0.00		-9.20		4.321e-02		127.359		1.472e-02		11.726
8		0.00		-8.80		4.187e-02		128.326		1.305e-02		10.464
8		0.00		-8.40		4.262e-02		128.330		1.257e-02		9.327
8		0.00		-8.00		3.989e-02		127.357		1.139e-02		9.609
8		0.00		-7.60		3.930e-02		130.244		1.055e-02		8.670
8		0.00		-7.20		3.829e-02		129.353		1.012e-02		8.445
8		0.00		-6.80		3.661e-02		129.951		9.706e-03		7.513
8		0.00		-6.40		3.492e-02		130.889		9.265e-03		9.196
8		0.00		-6.00		3.404e-02		130.217		9.460e-03		8.567
8		0.00		-5.60		3.266e-02		130.131		9.564e-03		9.420
8		0.00		-5.20		3.125e-02		131.067		9.379e-03		9.878
8		0.00		-4.80		3.012e-02		131.009		9.392e-03		11.324
8		0.00		-4.40		2.816e-02		129.250		9.043e-03		13.178
8		0.00		-4.00		2.650e-02		128.899		9.130e-03		16.673
8		0.00		-3.60		2.460e-02		125.267		9.136e-03		21.686
8		0.00		-3.20		2.353e-02		126.092		8.441e-03		20.941
8		0.00		-2.80		2.174e-02		126.829		7.986e-03		21.342
8		0.00		-2.40		2.068e-02		124.611		7.770e-03		22.994
8		0.00		-2.00		1.932e-02		124.160		7.199e-03		21.846
8		0.00		-1.60		1.836e-02		123.980		6.684e-03		21.454
8		0.00		-1.20		1.681e-02		130.038		6.349e-03		15.007
8		0.00		-0.80		1.595e-02		123.241		6.088e-03		27.209
8		0.00		-0.40		1.443e-02		124.502		5.116e-03		21.543
