# Date of analysis: 2024-03-08 10;59
# Segment other properties: height: -79.1495913840748, diff height: 536.6097051688796, deflection: 32.91894854462696, deflection error: 2.8215773418155257, adhesion: 21.622184809197645, phase offset: 0
# 
# Loop index	Read Volt (V)	Write Volt (V)	Amplitude (a.u)	Phase (deg)	Sigma Amp (a.u)	Sigma Pha (deg)	
1		0.00		0.00		1.217e-02		-54.338		3.190e-03		14.140
1		0.00		0.40		1.223e-02		-54.768		3.185e-03		13.650
1		0.00		0.80		1.239e-02		-51.123		2.890e-03		12.834
1		0.00		1.20		1.273e-02		-56.815		3.139e-03		12.922
1		0.00		1.60		1.289e-02		-53.811		2.557e-03		13.861
1		0.00		2.00		1.341e-02		-51.162		2.664e-03		11.617
1		0.00		2.40		1.394e-02		-56.028		2.815e-03		11.228
1		0.00		2.80		1.398e-02		-50.561		2.841e-03		12.714
1		0.00		3.20		1.424e-02		-52.653		3.047e-03		11.086
1		0.00		3.60		1.467e-02		-47.303		3.386e-03		13.248
1		0.00		4.00		1.520e-02		-49.061		3.300e-03		12.300
1		0.00		4.40		1.609e-02		-52.944		3.633e-03		11.453
1		0.00		4.80		1.729e-02		-50.206		4.176e-03		12.203
1		0.00		5.20		1.830e-02		-51.301		4.190e-03		11.399
1		0.00		5.60		1.860e-02		-52.855		4.343e-03		11.730
1		0.00		6.00		1.964e-02		-53.478		4.249e-03		11.774
1		0.00		6.40		2.090e-02		-51.382		4.291e-03		11.792
1		0.00		6.80		2.220e-02		-52.467		4.173e-03		12.231
1		0.00		7.20		2.362e-02		-53.608		3.954e-03		10.188
1		0.00		7.60		2.483e-02		-51.717		4.628e-03		10.708
1		0.00		8.00		2.633e-02		-50.688		4.929e-03		11.222
1		0.00		8.40		2.835e-02		-51.055		6.010e-03		10.823
1		0.00		8.80		3.030e-02		-53.295		7.034e-03		10.385
1		0.00		9.20		3.251e-02		-52.755		8.265e-03		11.512
1		0.00		9.60		3.430e-02		-54.042		8.859e-03		11.922
1		0.00		10.00		3.652e-02		-54.656		9.112e-03		12.638
1		0.00		9.60		3.823e-02		-54.704		9.842e-03		11.841
1		0.00		9.20		3.938e-02		-56.163		9.997e-03		11.235
1		0.00		8.80		4.063e-02		-55.751		9.205e-03		10.604
1		0.00		8.40		4.141e-02		-55.917		8.467e-03		10.041
1		0.00		8.00		4.127e-02		-54.062		8.347e-03		10.305
1		0.00		7.60		4.074e-02		-54.133		8.052e-03		9.754
1		0.00		7.20		4.006e-02		-53.090		7.493e-03		8.923
1		0.00		6.80		3.908e-02		-51.958		6.924e-03		8.102
1		0.00		6.40		3.842e-02		-52.926		7.723e-03		11.007
1		0.00		6.00		3.755e-02		-52.317		8.398e-03		11.052
1		0.00		5.60		3.640e-02		-53.213		8.471e-03		10.754
1		0.00		5.20		3.588e-02		-53.296		8.549e-03		11.988
1		0.00		4.80		3.488e-02		-54.861		8.636e-03		13.537
1		0.00		4.40		3.417e-02		-54.922		8.768e-03		13.504
1		0.00		4.00		3.366e-02		-55.745		8.776e-03		12.935
1		0.00		3.60		3.382e-02		-55.518		8.133e-03		12.795
1		0.00		3.20		3.343e-02		-52.954		7.130e-03		9.983
1		0.00		2.80		3.317e-02		-53.514		7.290e-03		10.588
1		0.00		2.40		3.262e-02		-52.577		7.005e-03		10.061
1		0.00		2.00		3.170e-02		-52.146		7.442e-03		11.358
1		0.00		1.60		3.159e-02		-52.950		7.733e-03		13.272
1		0.00		1.20		3.189e-02		-53.215		7.965e-03		14.106
1		0.00		0.80		3.196e-02		-52.936		7.903e-03		14.976
1		0.00		0.40		3.212e-02		-53.305		7.498e-03		13.512
1		0.00		0.00		3.214e-02		-53.982		7.402e-03		11.816
1		0.00		-0.40		3.188e-02		-54.040		7.329e-03		10.363
1		0.00		-0.80		3.233e-02		-54.335		6.661e-03		11.109
1		0.00		-1.20		3.189e-02		-53.664		6.073e-03		11.048
1		0.00		-1.60		3.143e-02		-53.231		5.583e-03		10.183
1		0.00		-2.00		3.081e-02		-54.053		4.928e-03		10.520
1		0.00		-2.40		2.942e-02		-51.489		4.791e-03		10.800
1		0.00		-2.80		2.786e-02		-51.301		5.197e-03		10.936
1		0.00		-3.20		2.574e-02		-50.317		5.043e-03		10.380
1		0.00		-3.60		2.384e-02		-50.751		5.000e-03		11.789
1		0.00		-4.00		2.156e-02		-51.662		4.750e-03		12.236
1		0.00		-4.40		1.894e-02		-53.167		4.803e-03		15.833
1		0.00		-4.80		1.633e-02		-49.047		3.950e-03		14.699
1		0.00		-5.20		1.252e-02		-49.908		3.163e-03		14.511
1		0.00		-5.60		1.045e-02		-47.097		2.786e-03		15.787
1		0.00		-6.00		6.561e-03		-37.165		1.679e-03		19.546
1		0.00		-6.40		3.043e-03		-47.166		1.136e-03		31.435
1		0.00		-6.80		2.027e-03		45.508		7.904e-04		56.854
1		0.00		-7.20		4.138e-03		104.722		1.653e-03		21.803
1		0.00		-7.60		6.539e-03		111.643		1.826e-03		17.166
1		0.00		-8.00		8.052e-03		115.649		2.164e-03		15.100
1		0.00		-8.40		9.995e-03		120.904		2.398e-03		16.069
1		0.00		-8.80		1.031e-02		123.273		2.688e-03		13.978
1		0.00		-9.20		1.177e-02		122.467		3.086e-03		12.978
1		0.00		-9.60		1.282e-02		126.934		3.168e-03		12.715
1		0.00		-10.00		1.348e-02		123.314		3.422e-03		14.010
1		0.00		-9.60		1.446e-02		123.825		3.480e-03		14.558
1		0.00		-9.20		1.458e-02		125.416		3.603e-03		14.245
1		0.00		-8.80		1.369e-02		119.061		3.465e-03		16.624
1		0.00		-8.40		1.384e-02		121.311		3.692e-03		16.418
1		0.00		-8.00		1.349e-02		120.326		4.079e-03		14.389
1		0.00		-7.60		1.275e-02		122.217		3.652e-03		13.020
1		0.00		-7.20		1.222e-02		117.394		3.445e-03		13.662
1		0.00		-6.80		1.211e-02		120.981		3.353e-03		16.022
1		0.00		-6.40		1.175e-02		118.881		3.158e-03		14.612
1		0.00		-6.00		1.158e-02		121.827		3.047e-03		15.265
1		0.00		-5.60		1.069e-02		122.017		2.497e-03		17.829
1		0.00		-5.20		1.079e-02		119.697		2.369e-03		15.919
1		0.00		-4.80		1.023e-02		123.857		2.701e-03		16.488
1		0.00		-4.40		9.590e-03		124.049		2.483e-03		15.669
1		0.00		-4.00		9.132e-03		123.153		2.556e-03		15.630
1		0.00		-3.60		8.824e-03		122.033		2.523e-03		17.836
1		0.00		-3.20		8.109e-03		123.679		2.491e-03		16.548
1		0.00		-2.80		7.877e-03		120.947		2.351e-03		19.084
1		0.00		-2.40		7.535e-03		121.445		2.263e-03		17.699
1		0.00		-2.00		7.386e-03		119.149		2.268e-03		16.286
1		0.00		-1.60		6.585e-03		123.818		2.031e-03		15.286
1		0.00		-1.20		6.151e-03		116.655		1.988e-03		19.631
1		0.00		-0.80		6.101e-03		119.801		2.018e-03		19.799
1		0.00		-0.40		5.996e-03		121.937		1.919e-03		19.205
2		0.00		0.00		5.263e-03		113.233		1.654e-03		28.270
2		0.00		0.40		4.799e-03		118.359		1.431e-03		21.051
2		0.00		0.80		3.719e-03		103.442		1.634e-03		47.398
2		0.00		1.20		2.946e-03		93.121		1.209e-03		66.622
2		0.00		1.60		2.449e-03		83.729		1.150e-03		63.029
2		0.00		2.00		2.200e-03		63.104		9.550e-04		83.233
2		0.00		2.40		1.511e-03		12.149		6.227e-04		80.027
2		0.00		2.80		2.121e-03		-40.993		8.500e-04		46.172
2		0.00		3.20		3.332e-03		-51.666		1.420e-03		35.717
2		0.00		3.60		5.352e-03		-57.442		1.387e-03		22.124
2		0.00		4.00		6.509e-03		-54.636		1.720e-03		19.668
2		0.00		4.40		7.977e-03		-52.378		1.889e-03		17.826
2		0.00		4.80		9.050e-03		-55.385		1.918e-03		18.939
2		0.00		5.20		1.143e-02		-55.770		2.596e-03		15.913
2		0.00		5.60		1.375e-02		-57.605		2.974e-03		12.435
2		0.00		6.00		1.568e-02		-52.440		3.604e-03		13.004
2		0.00		6.40		1.808e-02		-54.091		4.291e-03		12.370
2		0.00		6.80		2.014e-02		-54.016		4.976e-03		13.192
2		0.00		7.20		2.294e-02		-52.958		5.207e-03		12.862
2		0.00		7.60		2.592e-02		-53.770		5.748e-03		11.333
2		0.00		8.00		2.797e-02		-54.505		6.152e-03		12.063
2		0.00		8.40		3.114e-02		-54.016		6.398e-03		12.337
2		0.00		8.80		3.358e-02		-54.520		7.003e-03		10.817
2		0.00		9.20		3.600e-02		-53.515		7.274e-03		10.709
2		0.00		9.60		3.707e-02		-52.663		8.246e-03		10.244
2		0.00		10.00		3.887e-02		-52.365		9.625e-03		10.691
2		0.00		9.60		4.035e-02		-52.887		1.059e-02		11.102
2		0.00		9.20		4.064e-02		-52.696		1.068e-02		10.319
2		0.00		8.80		4.103e-02		-53.547		1.054e-02		10.732
2		0.00		8.40		4.160e-02		-54.811		9.356e-03		11.451
2		0.00		8.00		4.099e-02		-55.567		9.381e-03		11.742
2		0.00		7.60		4.150e-02		-54.794		9.659e-03		12.091
2		0.00		7.20		4.037e-02		-55.855		8.514e-03		12.462
2		0.00		6.80		4.042e-02		-54.408		7.787e-03		10.432
2		0.00		6.40		3.908e-02		-54.271		7.476e-03		11.255
2		0.00		6.00		3.853e-02		-53.373		7.085e-03		10.308
2		0.00		5.60		3.772e-02		-52.663		7.039e-03		10.365
2		0.00		5.20		3.682e-02		-52.052		7.693e-03		10.581
2		0.00		4.80		3.645e-02		-54.366		7.807e-03		11.001
2		0.00		4.40		3.663e-02		-52.556		8.069e-03		9.115
2		0.00		4.00		3.479e-02		-52.543		8.555e-03		10.163
2		0.00		3.60		3.455e-02		-52.431		9.020e-03		9.748
2		0.00		3.20		3.452e-02		-54.386		9.070e-03		10.965
2		0.00		2.80		3.381e-02		-54.877		8.670e-03		13.115
2		0.00		2.40		3.371e-02		-56.388		8.983e-03		13.400
2		0.00		2.00		3.430e-02		-54.624		8.363e-03		11.685
2		0.00		1.60		3.423e-02		-56.322		7.918e-03		12.459
2		0.00		1.20		3.485e-02		-55.898		7.081e-03		10.884
2		0.00		0.80		3.444e-02		-54.335		6.422e-03		10.566
2		0.00		0.40		3.421e-02		-54.209		6.087e-03		10.844
2		0.00		0.00		3.421e-02		-52.932		6.034e-03		9.713
2		0.00		-0.40		3.364e-02		-52.816		6.700e-03		10.096
2		0.00		-0.80		3.320e-02		-52.669		6.027e-03		9.099
2		0.00		-1.20		3.221e-02		-51.886		6.559e-03		9.179
2		0.00		-1.60		3.200e-02		-53.792		6.614e-03		10.981
2		0.00		-2.00		3.046e-02		-52.690		6.678e-03		9.706
2		0.00		-2.40		2.896e-02		-51.802		6.503e-03		9.875
2		0.00		-2.80		2.777e-02		-52.367		6.538e-03		12.747
2		0.00		-3.20		2.538e-02		-53.569		5.956e-03		11.323
2		0.00		-3.60		2.376e-02		-54.156		5.842e-03		11.721
2		0.00		-4.00		2.081e-02		-53.064		5.415e-03		13.529
2		0.00		-4.40		1.659e-02		-52.181		4.352e-03		13.708
2		0.00		-4.80		1.329e-02		-52.219		3.505e-03		14.306
2		0.00		-5.20		1.039e-02		-49.446		2.486e-03		14.994
2		0.00		-5.60		7.207e-03		-47.006		2.044e-03		18.032
2		0.00		-6.00		4.448e-03		-51.634		1.309e-03		27.942
2		0.00		-6.40		2.228e-03		-51.922		8.530e-04		45.080
2		0.00		-6.80		2.795e-03		80.349		1.153e-03		49.990
2		0.00		-7.20		4.622e-03		111.295		1.545e-03		25.797
2		0.00		-7.60		6.851e-03		114.497		1.909e-03		22.823
2		0.00		-8.00		8.965e-03		120.836		2.403e-03		14.997
2		0.00		-8.40		9.844e-03		121.646		2.563e-03		14.787
2		0.00		-8.80		1.085e-02		123.189		2.763e-03		14.760
2		0.00		-9.20		1.179e-02		125.381		2.960e-03		12.285
2		0.00		-9.60		1.301e-02		125.689		3.313e-03		15.708
2		0.00		-10.00		1.414e-02		125.367		3.577e-03		13.131
2		0.00		-9.60		1.446e-02		123.165		4.029e-03		16.497
2		0.00		-9.20		1.425e-02		123.896		3.693e-03		15.423
2		0.00		-8.80		1.368e-02		123.594		3.629e-03		12.617
2		0.00		-8.40		1.405e-02		121.885		3.722e-03		12.410
2		0.00		-8.00		1.330e-02		122.234		3.641e-03		15.351
2		0.00		-7.60		1.350e-02		123.707		3.690e-03		12.104
2		0.00		-7.20		1.263e-02		120.475		3.242e-03		11.902
2		0.00		-6.80		1.258e-02		122.839		3.229e-03		12.168
2		0.00		-6.40		1.248e-02		122.855		2.957e-03		13.869
2		0.00		-6.00		1.190e-02		126.627		2.594e-03		13.498
2		0.00		-5.60		1.178e-02		121.313		2.878e-03		12.304
2		0.00		-5.20		1.118e-02		121.132		2.394e-03		16.241
2		0.00		-4.80		1.064e-02		121.266		2.347e-03		16.245
2		0.00		-4.40		9.933e-03		123.861		2.660e-03		16.892
2		0.00		-4.00		1.002e-02		124.573		2.138e-03		14.569
2		0.00		-3.60		1.034e-02		123.723		2.544e-03		15.009
2		0.00		-3.20		9.462e-03		125.432		2.349e-03		12.079
2		0.00		-2.80		8.300e-03		124.922		2.283e-03		14.587
2		0.00		-2.40		7.683e-03		124.001		2.100e-03		18.184
2		0.00		-2.00		7.297e-03		124.347		2.171e-03		22.169
2		0.00		-1.60		7.165e-03		124.164		2.174e-03		17.182
2		0.00		-1.20		7.392e-03		119.903		2.170e-03		17.154
2		0.00		-0.80		6.758e-03		123.267		2.084e-03		19.514
2		0.00		-0.40		6.185e-03		118.424		1.832e-03		24.472
3		0.00		0.00		5.935e-03		117.610		2.004e-03		23.085
3		0.00		0.40		5.177e-03		117.170		1.871e-03		32.548
3		0.00		0.80		4.615e-03		112.265		1.725e-03		44.839
3		0.00		1.20		3.713e-03		113.583		1.433e-03		38.644
3		0.00		1.60		2.978e-03		85.256		1.253e-03		67.084
3		0.00		2.00		2.157e-03		55.168		9.971e-04		73.155
3		0.00		2.40		1.722e-03		13.159		7.881e-04		83.204
3		0.00		2.80		1.894e-03		-40.243		8.393e-04		58.469
3		0.00		3.20		3.145e-03		-58.374		1.286e-03		42.133
3		0.00		3.60		4.725e-03		-56.383		1.221e-03		21.016
3		0.00		4.00		6.182e-03		-56.324		1.497e-03		19.924
3		0.00		4.40		8.050e-03		-56.164		2.016e-03		16.501
3		0.00		4.80		9.410e-03		-56.160		2.009e-03		16.412
3		0.00		5.20		1.138e-02		-54.577		2.535e-03		15.452
3		0.00		5.60		1.384e-02		-52.109		2.920e-03		13.774
3		0.00		6.00		1.650e-02		-54.881		3.399e-03		13.437
3		0.00		6.40		1.809e-02		-54.473		3.957e-03		12.514
3		0.00		6.80		2.178e-02		-55.396		4.524e-03		10.965
3		0.00		7.20		2.456e-02		-53.640		4.937e-03		12.046
3		0.00		7.60		2.708e-02		-53.667		5.398e-03		11.073
3		0.00		8.00		3.013e-02		-55.266		5.883e-03		11.184
3		0.00		8.40		3.348e-02		-54.898		6.429e-03		10.540
3		0.00		8.80		3.467e-02		-54.525		6.551e-03		11.741
3		0.00		9.20		3.807e-02		-55.501		7.396e-03		11.144
3		0.00		9.60		3.995e-02		-54.376		7.450e-03		11.666
3		0.00		10.00		4.121e-02		-54.397		7.872e-03		11.997
3		0.00		9.60		4.376e-02		-54.748		8.093e-03		11.051
3		0.00		9.20		4.410e-02		-54.784		8.216e-03		11.373
3		0.00		8.80		4.467e-02		-55.216		7.599e-03		10.830
3		0.00		8.40		4.467e-02		-53.637		7.499e-03		10.750
3		0.00		8.00		4.479e-02		-54.023		7.662e-03		11.331
3		0.00		7.60		4.334e-02		-53.542		7.174e-03		11.465
3		0.00		7.20		4.321e-02		-53.745		7.077e-03		10.109
3		0.00		6.80		4.259e-02		-53.214		7.481e-03		9.675
3		0.00		6.40		4.155e-02		-53.944		7.181e-03		10.051
3		0.00		6.00		3.968e-02		-52.596		6.681e-03		10.113
3		0.00		5.60		3.935e-02		-53.531		6.865e-03		10.119
3		0.00		5.20		3.924e-02		-52.039		6.466e-03		10.159
3		0.00		4.80		3.877e-02		-54.056		7.068e-03		9.435
3		0.00		4.40		3.818e-02		-53.791		7.605e-03		10.141
3		0.00		4.00		3.764e-02		-53.568		7.822e-03		10.258
3		0.00		3.60		3.637e-02		-52.824		7.255e-03		10.160
3		0.00		3.20		3.656e-02		-53.399		7.348e-03		10.096
3		0.00		2.80		3.601e-02		-52.943		7.612e-03		10.139
3		0.00		2.40		3.538e-02		-52.963		7.875e-03		10.390
3		0.00		2.00		3.565e-02		-52.229		8.126e-03		10.168
3		0.00		1.60		3.503e-02		-52.696		8.383e-03		11.849
3		0.00		1.20		3.563e-02		-52.301		8.466e-03		9.700
3		0.00		0.80		3.589e-02		-52.555		7.917e-03		9.940
3		0.00		0.40		3.558e-02		-52.138		8.227e-03		9.323
3		0.00		0.00		3.527e-02		-52.463		7.937e-03		10.636
3		0.00		-0.40		3.527e-02		-52.240		8.265e-03		9.822
3		0.00		-0.80		3.549e-02		-53.744		8.122e-03		11.775
3		0.00		-1.20		3.476e-02		-53.880		7.761e-03		10.122
3		0.00		-1.60		3.361e-02		-53.235		7.249e-03		10.481
3		0.00		-2.00		3.250e-02		-54.581		7.455e-03		11.325
3		0.00		-2.40		3.140e-02		-55.010		7.121e-03		12.307
3		0.00		-2.80		2.897e-02		-56.076		6.610e-03		11.485
3		0.00		-3.20		2.678e-02		-54.170		5.978e-03		11.786
3		0.00		-3.60		2.483e-02		-54.881		5.434e-03		12.859
3		0.00		-4.00		2.042e-02		-55.149		4.087e-03		11.650
3		0.00		-4.40		1.774e-02		-51.892		3.350e-03		12.529
3		0.00		-4.80		1.330e-02		-51.703		2.193e-03		14.186
3		0.00		-5.20		7.994e-03		-44.886		1.520e-03		19.482
3		0.00		-5.60		4.551e-03		-53.597		1.285e-03		22.009
3		0.00		-6.00		2.334e-03		-45.218		9.092e-04		41.405
3		0.00		-6.40		2.129e-03		38.557		9.481e-04		61.500
3		0.00		-6.80		3.052e-03		90.208		1.346e-03		38.497
3		0.00		-7.20		5.985e-03		124.997		1.561e-03		20.598
3		0.00		-7.60		7.658e-03		119.425		2.115e-03		16.909
3		0.00		-8.00		9.829e-03		121.080		2.471e-03		13.758
3		0.00		-8.40		1.102e-02		121.435		2.672e-03		15.581
3		0.00		-8.80		1.220e-02		125.638		2.980e-03		13.973
3		0.00		-9.20		1.301e-02		125.019		3.193e-03		11.865
3		0.00		-9.60		1.399e-02		124.255		3.532e-03		12.508
3		0.00		-10.00		1.430e-02		127.016		3.608e-03		14.096
3		0.00		-9.60		1.546e-02		123.688		3.874e-03		14.488
3		0.00		-9.20		1.469e-02		120.420		4.167e-03		16.372
3		0.00		-8.80		1.415e-02		121.493		4.156e-03		15.406
3		0.00		-8.40		1.459e-02		120.840		4.113e-03		16.612
3		0.00		-8.00		1.418e-02		120.827		4.173e-03		14.912
3		0.00		-7.60		1.422e-02		121.923		3.791e-03		14.496
3		0.00		-7.20		1.342e-02		120.922		3.621e-03		13.523
3		0.00		-6.80		1.266e-02		119.258		3.521e-03		13.440
3		0.00		-6.40		1.232e-02		122.807		3.068e-03		13.139
3		0.00		-6.00		1.182e-02		121.085		3.249e-03		13.377
3		0.00		-5.60		1.132e-02		121.896		2.645e-03		13.641
3		0.00		-5.20		1.141e-02		121.186		2.551e-03		14.237
3		0.00		-4.80		1.104e-02		124.837		2.270e-03		11.873
3		0.00		-4.40		1.017e-02		120.514		2.385e-03		14.247
3		0.00		-4.00		9.821e-03		124.513		2.467e-03		15.299
3		0.00		-3.60		8.790e-03		121.716		2.314e-03		15.583
3		0.00		-3.20		9.110e-03		125.657		2.002e-03		14.510
3		0.00		-2.80		8.853e-03		124.521		2.120e-03		15.813
3		0.00		-2.40		8.363e-03		121.561		2.123e-03		16.459
3		0.00		-2.00		7.975e-03		124.301		1.844e-03		15.695
3		0.00		-1.60		7.707e-03		122.581		1.971e-03		13.845
3		0.00		-1.20		6.887e-03		121.923		2.016e-03		16.317
3		0.00		-0.80		6.706e-03		126.033		1.737e-03		13.906
3		0.00		-0.40		5.830e-03		125.123		1.875e-03		22.374
4		0.00		0.00		5.505e-03		122.118		1.731e-03		21.602
4		0.00		0.40		4.750e-03		114.398		1.801e-03		36.756
4		0.00		0.80		3.921e-03		115.263		1.461e-03		30.914
4		0.00		1.20		4.002e-03		107.564		1.474e-03		36.592
4		0.00		1.60		3.211e-03		93.622		1.259e-03		56.965
4		0.00		2.00		2.255e-03		53.577		1.093e-03		81.525
4		0.00		2.40		1.910e-03		20.057		7.163e-04		70.518
4		0.00		2.80		1.887e-03		-33.480		7.194e-04		70.491
4		0.00		3.20		2.311e-03		-45.548		8.894e-04		49.389
4		0.00		3.60		3.961e-03		-67.317		9.714e-04		25.723
4		0.00		4.00		5.838e-03		-53.336		1.430e-03		18.367
4		0.00		4.40		7.751e-03		-48.163		1.585e-03		17.689
4		0.00		4.80		9.733e-03		-52.020		1.926e-03		14.651
4		0.00		5.20		1.175e-02		-51.658		1.831e-03		13.407
4		0.00		5.60		1.423e-02		-55.127		2.718e-03		11.932
4		0.00		6.00		1.642e-02		-51.482		3.169e-03		12.775
4		0.00		6.40		1.961e-02		-53.224		4.032e-03		11.087
4		0.00		6.80		2.217e-02		-52.810		4.990e-03		10.155
4		0.00		7.20		2.374e-02		-52.143		6.051e-03		11.935
4		0.00		7.60		2.637e-02		-55.348		6.920e-03		11.034
4		0.00		8.00		2.951e-02		-54.257		7.533e-03		11.618
4		0.00		8.40		3.231e-02		-54.666		8.659e-03		12.966
4		0.00		8.80		3.589e-02		-56.053		9.344e-03		12.128
4		0.00		9.20		3.750e-02		-55.864		9.189e-03		12.772
4		0.00		9.60		3.934e-02		-56.794		8.751e-03		12.367
4		0.00		10.00		4.268e-02		-56.384		8.744e-03		11.279
4		0.00		9.60		4.418e-02		-54.918		8.460e-03		11.008
4		0.00		9.20		4.494e-02		-53.687		7.525e-03		10.007
4		0.00		8.80		4.447e-02		-52.776		7.626e-03		10.360
4		0.00		8.40		4.411e-02		-53.038		8.046e-03		9.745
4		0.00		8.00		4.284e-02		-52.701		8.018e-03		9.355
4		0.00		7.60		4.302e-02		-52.712		8.300e-03		9.056
4		0.00		7.20		4.209e-02		-52.284		9.191e-03		9.127
4		0.00		6.80		4.057e-02		-52.084		9.314e-03		9.201
4		0.00		6.40		4.034e-02		-53.130		9.113e-03		10.784
4		0.00		6.00		4.080e-02		-54.256		9.317e-03		10.360
4		0.00		5.60		3.961e-02		-55.068		8.727e-03		11.496
4		0.00		5.20		3.951e-02		-55.602		9.327e-03		11.291
4		0.00		4.80		3.893e-02		-55.792		8.684e-03		12.221
4		0.00		4.40		3.897e-02		-54.707		7.719e-03		10.572
4		0.00		4.00		3.905e-02		-54.430		7.052e-03		9.222
4		0.00		3.60		3.854e-02		-53.674		6.467e-03		9.336
4		0.00		3.20		3.807e-02		-54.494		6.585e-03		10.433
4		0.00		2.80		3.874e-02		-53.810		6.450e-03		9.262
4		0.00		2.40		3.783e-02		-53.233		6.853e-03		8.091
4		0.00		2.00		3.792e-02		-52.102		7.245e-03		9.129
4		0.00		1.60		3.744e-02		-52.100		7.706e-03		9.933
4		0.00		1.20		3.717e-02		-52.378		8.057e-03		10.769
4		0.00		0.80		3.734e-02		-52.539		8.309e-03		11.132
4		0.00		0.40		3.741e-02		-51.501		8.444e-03		9.381
4		0.00		0.00		3.719e-02		-53.413		8.318e-03		9.971
4		0.00		-0.40		3.670e-02		-54.608		8.427e-03		11.893
4		0.00		-0.80		3.612e-02		-54.543		8.206e-03		11.381
4		0.00		-1.20		3.650e-02		-55.281		7.359e-03		10.408
4		0.00		-1.60		3.484e-02		-54.944		7.277e-03		11.383
4		0.00		-2.00		3.417e-02		-55.090		6.407e-03		10.372
4		0.00		-2.40		3.235e-02		-53.102		5.735e-03		10.600
4		0.00		-2.80		3.118e-02		-53.984		6.122e-03		10.292
4		0.00		-3.20		2.783e-02		-53.386		5.533e-03		11.260
4		0.00		-3.60		2.384e-02		-54.181		5.278e-03		12.693
4		0.00		-4.00		2.106e-02		-53.389		4.481e-03		12.651
4		0.00		-4.40		1.728e-02		-53.372		4.029e-03		13.554
4		0.00		-4.80		1.292e-02		-50.172		3.197e-03		13.989
4		0.00		-5.20		8.324e-03		-52.690		2.206e-03		18.315
4		0.00		-5.60		4.301e-03		-49.357		1.454e-03		24.560
4		0.00		-6.00		2.569e-03		-26.699		9.224e-04		46.500
4		0.00		-6.40		1.897e-03		39.059		8.628e-04		67.866
4		0.00		-6.80		3.599e-03		92.273		1.423e-03		56.502
4		0.00		-7.20		5.163e-03		117.229		1.718e-03		20.290
4		0.00		-7.60		7.146e-03		116.200		2.283e-03		16.837
4		0.00		-8.00		8.227e-03		121.259		2.432e-03		15.744
4		0.00		-8.40		9.537e-03		114.561		2.611e-03		13.525
4		0.00		-8.80		1.073e-02		119.676		2.511e-03		14.432
4		0.00		-9.20		1.199e-02		119.585		2.792e-03		13.869
4		0.00		-9.60		1.243e-02		121.510		2.738e-03		13.458
4		0.00		-10.00		1.371e-02		124.721		2.956e-03		12.540
4		0.00		-9.60		1.379e-02		123.939		3.094e-03		12.841
4		0.00		-9.20		1.294e-02		125.003		2.927e-03		13.006
4		0.00		-8.80		1.306e-02		125.159		3.345e-03		13.001
4		0.00		-8.40		1.320e-02		124.575		3.694e-03		13.900
4		0.00		-8.00		1.230e-02		124.971		3.663e-03		14.690
4		0.00		-7.60		1.164e-02		126.913		3.286e-03		14.952
4		0.00		-7.20		1.131e-02		124.195		3.345e-03		15.295
4		0.00		-6.80		1.060e-02		121.254		3.166e-03		16.018
4		0.00		-6.40		1.072e-02		122.237		2.652e-03		11.993
4		0.00		-6.00		1.102e-02		122.938		2.382e-03		13.887
4		0.00		-5.60		1.035e-02		124.320		2.341e-03		13.968
4		0.00		-5.20		9.761e-03		123.042		2.192e-03		14.706
4		0.00		-4.80		9.298e-03		127.312		2.181e-03		14.702
4		0.00		-4.40		8.761e-03		125.957		2.163e-03		16.282
4		0.00		-4.00		8.444e-03		128.578		2.242e-03		14.802
4		0.00		-3.60		7.875e-03		123.896		2.169e-03		13.485
4		0.00		-3.20		7.737e-03		125.627		1.973e-03		16.291
4		0.00		-2.80		6.827e-03		124.501		2.037e-03		19.827
4		0.00		-2.40		6.127e-03		119.383		1.981e-03		26.097
4		0.00		-2.00		5.966e-03		124.614		1.931e-03		20.221
4		0.00		-1.60		5.375e-03		120.419		1.842e-03		26.311
4		0.00		-1.20		4.962e-03		122.671		1.699e-03		24.448
4		0.00		-0.80		4.709e-03		117.666		1.609e-03		28.155
4		0.00		-0.40		3.884e-03		114.760		1.618e-03		36.309
5		0.00		0.00		4.171e-03		116.005		1.446e-03		26.698
5		0.00		0.40		3.758e-03		117.159		1.346e-03		34.002
5		0.00		0.80		3.321e-03		100.520		1.487e-03		45.298
5		0.00		1.20		2.585e-03		101.319		1.139e-03		49.015
5		0.00		1.60		2.454e-03		67.515		9.895e-04		75.632
5		0.00		2.00		1.821e-03		23.451		8.959e-04		78.716
5		0.00		2.40		1.738e-03		6.738		6.639e-04		82.229
5		0.00		2.80		2.207e-03		-31.082		9.288e-04		58.859
5		0.00		3.20		2.785e-03		-42.580		1.193e-03		44.286
5		0.00		3.60		3.955e-03		-54.782		1.321e-03		21.810
5		0.00		4.00		5.611e-03		-57.213		1.412e-03		25.184
5		0.00		4.40		7.981e-03		-52.972		2.004e-03		18.617
5		0.00		4.80		1.007e-02		-56.357		2.315e-03		16.302
5		0.00		5.20		1.239e-02		-55.536		2.437e-03		14.675
5		0.00		5.60		1.574e-02		-57.270		3.113e-03		13.953
5		0.00		6.00		1.809e-02		-55.548		3.396e-03		12.725
5		0.00		6.40		2.058e-02		-55.118		3.454e-03		12.664
5		0.00		6.80		2.248e-02		-53.040		4.095e-03		12.141
5		0.00		7.20		2.496e-02		-53.228		4.752e-03		11.512
5		0.00		7.60		2.745e-02		-53.242		5.246e-03		11.453
5		0.00		8.00		3.199e-02		-52.843		6.523e-03		10.433
5		0.00		8.40		3.390e-02		-53.302		7.618e-03		9.671
5		0.00		8.80		3.539e-02		-52.547		8.525e-03		12.079
5		0.00		9.20		3.808e-02		-53.397		9.115e-03		11.264
5		0.00		9.60		3.997e-02		-53.891		1.009e-02		13.440
5		0.00		10.00		4.225e-02		-54.397		9.224e-03		12.136
5		0.00		9.60		4.300e-02		-55.808		9.612e-03		12.914
5		0.00		9.20		4.491e-02		-55.061		8.662e-03		11.476
5		0.00		8.80		4.551e-02		-55.442		8.474e-03		11.048
5		0.00		8.40		4.455e-02		-55.104		7.820e-03		11.081
5		0.00		8.00		4.409e-02		-53.371		6.749e-03		10.652
5		0.00		7.60		4.360e-02		-53.388		6.890e-03		11.056
5		0.00		7.20		4.357e-02		-53.060		6.785e-03		9.633
5		0.00		6.80		4.328e-02		-52.321		7.131e-03		9.335
5		0.00		6.40		4.225e-02		-51.903		7.360e-03		9.498
5		0.00		6.00		4.171e-02		-51.478		7.739e-03		8.151
5		0.00		5.60		4.152e-02		-51.924		8.210e-03		9.048
5		0.00		5.20		3.969e-02		-52.867		8.874e-03		10.485
5		0.00		4.80		3.894e-02		-53.355		9.462e-03		10.391
5		0.00		4.40		3.900e-02		-54.274		9.630e-03		11.789
5		0.00		4.00		3.858e-02		-53.407		1.001e-02		10.294
5		0.00		3.60		3.824e-02		-55.173		9.697e-03		11.270
5		0.00		3.20		3.832e-02		-55.181		9.276e-03		11.886
5		0.00		2.80		3.759e-02		-55.972		9.597e-03		14.199
5		0.00		2.40		3.654e-02		-57.171		8.473e-03		11.532
5		0.00		2.00		3.714e-02		-57.040		8.217e-03		11.922
5		0.00		1.60		3.740e-02		-55.035		6.914e-03		10.990
5		0.00		1.20		3.802e-02		-56.059		6.872e-03		10.997
5		0.00		0.80		3.740e-02		-53.416		6.617e-03		10.730
5		0.00		0.40		3.797e-02		-53.892		6.566e-03		9.497
5		0.00		0.00		3.748e-02		-53.933		6.510e-03		10.065
5		0.00		-0.40		3.691e-02		-52.564		6.639e-03		10.062
5		0.00		-0.80		3.709e-02		-53.330		6.841e-03		9.023
5		0.00		-1.20		3.532e-02		-53.538		7.226e-03		10.063
5		0.00		-1.60		3.424e-02		-52.441		7.369e-03		9.995
5		0.00		-2.00		3.313e-02		-53.076		7.287e-03		11.531
5		0.00		-2.40		3.061e-02		-54.109		6.899e-03		11.942
5		0.00		-2.80		2.770e-02		-54.371		6.428e-03		11.396
5		0.00		-3.20		2.471e-02		-54.057		5.661e-03		12.655
5		0.00		-3.60		2.133e-02		-54.203		4.775e-03		12.584
5		0.00		-4.00		1.900e-02		-56.472		4.036e-03		13.447
5		0.00		-4.40		1.550e-02		-56.387		2.909e-03		13.492
5		0.00		-4.80		1.292e-02		-54.143		2.520e-03		14.220
5		0.00		-5.20		8.311e-03		-51.161		1.719e-03		16.996
5		0.00		-5.60		4.657e-03		-47.188		1.383e-03		21.811
5		0.00		-6.00		2.492e-03		-51.906		1.090e-03		49.385
5		0.00		-6.40		1.815e-03		36.976		7.597e-04		75.794
5		0.00		-6.80		2.879e-03		89.570		1.153e-03		39.168
5		0.00		-7.20		4.868e-03		113.860		1.616e-03		30.076
5		0.00		-7.60		6.864e-03		121.014		2.146e-03		17.334
5		0.00		-8.00		7.814e-03		125.197		2.188e-03		14.161
5		0.00		-8.40		9.500e-03		120.783		2.778e-03		16.404
5		0.00		-8.80		9.879e-03		126.118		2.849e-03		17.607
5		0.00		-9.20		1.120e-02		124.919		2.878e-03		16.381
5		0.00		-9.60		1.123e-02		122.922		3.039e-03		17.649
5		0.00		-10.00		1.233e-02		123.746		3.246e-03		13.822
5		0.00		-9.60		1.222e-02		122.081		3.241e-03		15.129
5		0.00		-9.20		1.206e-02		126.274		3.351e-03		14.437
5		0.00		-8.80		1.086e-02		120.836		2.932e-03		13.045
5		0.00		-8.40		1.107e-02		121.189		3.032e-03		15.040
5		0.00		-8.00		1.092e-02		122.375		2.977e-03		12.239
5		0.00		-7.60		1.066e-02		125.213		2.816e-03		12.961
5		0.00		-7.20		1.045e-02		121.070		2.887e-03		16.268
5		0.00		-6.80		1.018e-02		121.098		2.751e-03		13.193
5		0.00		-6.40		9.652e-03		118.532		2.478e-03		15.835
5		0.00		-6.00		9.607e-03		124.543		2.415e-03		18.207
5		0.00		-5.60		8.955e-03		123.343		2.230e-03		16.451
5		0.00		-5.20		8.127e-03		126.989		2.211e-03		17.880
5		0.00		-4.80		7.598e-03		121.374		1.878e-03		16.834
5		0.00		-4.40		7.394e-03		120.495		2.025e-03		16.297
5		0.00		-4.00		6.837e-03		118.821		1.809e-03		18.469
5		0.00		-3.60		6.641e-03		119.778		1.735e-03		14.848
5		0.00		-3.20		6.104e-03		119.496		1.875e-03		17.297
5		0.00		-2.80		5.767e-03		127.751		1.607e-03		19.284
5		0.00		-2.40		5.018e-03		120.141		1.783e-03		20.789
5		0.00		-2.00		4.831e-03		113.951		1.583e-03		43.843
5		0.00		-1.60		4.848e-03		128.058		1.508e-03		21.860
5		0.00		-1.20		4.201e-03		121.597		1.545e-03		24.769
5		0.00		-0.80		3.758e-03		113.947		1.257e-03		26.196
5		0.00		-0.40		3.243e-03		99.532		1.263e-03		68.145
6		0.00		0.00		2.934e-03		95.802		1.187e-03		50.708
6		0.00		0.40		2.845e-03		86.281		1.146e-03		58.921
6		0.00		0.80		2.120e-03		62.377		9.946e-04		73.761
6		0.00		1.20		1.894e-03		9.856		8.294e-04		89.759
6		0.00		1.60		1.674e-03		-3.676		7.135e-04		84.974
6		0.00		2.00		1.924e-03		0.327		7.339e-04		83.670
6		0.00		2.40		1.886e-03		-32.565		8.348e-04		66.445
6		0.00		2.80		2.758e-03		-50.745		1.170e-03		36.243
6		0.00		3.20		3.419e-03		-49.517		1.418e-03		35.217
6		0.00		3.60		4.901e-03		-62.184		1.591e-03		24.320
6		0.00		4.00		6.285e-03		-58.272		1.469e-03		19.175
6		0.00		4.40		7.385e-03		-56.061		1.658e-03		17.014
6		0.00		4.80		9.689e-03		-56.748		1.743e-03		15.599
6		0.00		5.20		1.145e-02		-60.103		2.329e-03		12.930
6		0.00		5.60		1.386e-02		-57.684		2.904e-03		14.215
6		0.00		6.00		1.686e-02		-57.585		3.344e-03		13.012
6		0.00		6.40		2.026e-02		-56.269		3.817e-03		12.266
6		0.00		6.80		2.295e-02		-55.728		4.196e-03		12.316
6		0.00		7.20		2.549e-02		-55.814		4.828e-03		11.442
6		0.00		7.60		2.824e-02		-55.675		5.244e-03		11.873
6		0.00		8.00		3.071e-02		-55.283		5.555e-03		11.872
6		0.00		8.40		3.323e-02		-55.473		5.978e-03		10.882
6		0.00		8.80		3.517e-02		-53.954		6.532e-03		11.210
6		0.00		9.20		3.689e-02		-52.530		6.894e-03		10.837
6		0.00		9.60		4.061e-02		-52.611		7.154e-03		10.599
6		0.00		10.00		4.219e-02		-52.915		7.931e-03		10.408
6		0.00		9.60		4.318e-02		-51.544		7.323e-03		10.419
6		0.00		9.20		4.301e-02		-52.514		8.014e-03		11.178
6		0.00		8.80		4.300e-02		-51.903		7.599e-03		10.901
6		0.00		8.40		4.318e-02		-51.766		8.133e-03		9.645
6		0.00		8.00		4.196e-02		-52.771		7.560e-03		9.922
6		0.00		7.60		4.222e-02		-52.717		7.967e-03		10.011
6		0.00		7.20		4.148e-02		-53.029		7.847e-03		10.022
6		0.00		6.80		4.095e-02		-52.808		7.622e-03		9.933
6		0.00		6.40		4.066e-02		-52.720		7.538e-03		8.508
6		0.00		6.00		4.036e-02		-52.344		7.391e-03		9.448
6		0.00		5.60		3.943e-02		-52.746		7.502e-03		9.535
6		0.00		5.20		3.838e-02		-52.534		7.486e-03		9.153
6		0.00		4.80		3.970e-02		-52.412		7.880e-03		8.409
6		0.00		4.40		3.818e-02		-53.090		7.139e-03		8.552
6		0.00		4.00		3.746e-02		-52.542		7.715e-03		9.253
6		0.00		3.60		3.640e-02		-52.170		7.721e-03		9.423
6		0.00		3.20		3.624e-02		-52.925		8.110e-03		10.153
6		0.00		2.80		3.641e-02		-52.332		7.940e-03		10.038
6		0.00		2.40		3.641e-02		-53.402		7.853e-03		10.215
6		0.00		2.00		3.654e-02		-52.284		7.937e-03		10.254
6		0.00		1.60		3.694e-02		-52.751		7.856e-03		9.342
6		0.00		1.20		3.628e-02		-52.782		7.660e-03		9.472
6		0.00		0.80		3.664e-02		-53.169		7.755e-03		10.746
6		0.00		0.40		3.630e-02		-52.688		7.961e-03		9.601
6		0.00		0.00		3.599e-02		-53.146		7.759e-03		9.934
6		0.00		-0.40		3.571e-02		-52.917		8.259e-03		9.200
6		0.00		-0.80		3.575e-02		-52.864		7.740e-03		9.820
6		0.00		-1.20		3.486e-02		-52.581		7.899e-03		9.730
6		0.00		-1.60		3.390e-02		-52.832		7.878e-03		9.575
6		0.00		-2.00		3.127e-02		-52.966		7.595e-03		10.006
6		0.00		-2.40		2.839e-02		-54.079		7.294e-03		10.418
6		0.00		-2.80		2.686e-02		-53.935		6.865e-03		10.667
6		0.00		-3.20		2.408e-02		-54.400		6.153e-03		12.215
6		0.00		-3.60		2.104e-02		-53.730		5.506e-03		12.381
6		0.00		-4.00		1.678e-02		-54.793		3.925e-03		12.334
6		0.00		-4.40		1.412e-02		-54.903		3.556e-03		12.640
6		0.00		-4.80		1.043e-02		-55.426		2.552e-03		15.756
6		0.00		-5.20		7.641e-03		-49.362		1.812e-03		18.598
6		0.00		-5.60		4.075e-03		-50.579		1.338e-03		23.105
6		0.00		-6.00		2.641e-03		-53.059		1.094e-03		39.227
6		0.00		-6.40		2.053e-03		23.228		8.755e-04		75.015
6		0.00		-6.80		2.456e-03		58.709		1.110e-03		80.427
6		0.00		-7.20		4.189e-03		103.806		1.703e-03		49.985
6		0.00		-7.60		5.194e-03		117.224		1.884e-03		21.727
6		0.00		-8.00		7.296e-03		125.960		2.330e-03		18.322
6		0.00		-8.40		8.457e-03		116.319		2.601e-03		16.655
6		0.00		-8.80		8.878e-03		122.327		2.735e-03		16.751
6		0.00		-9.20		9.272e-03		124.949		2.611e-03		14.091
6		0.00		-9.60		1.038e-02		123.854		2.799e-03		15.282
6		0.00		-10.00		1.101e-02		121.746		3.335e-03		16.729
6		0.00		-9.60		1.141e-02		121.297		3.532e-03		15.395
6		0.00		-9.20		1.200e-02		121.313		3.442e-03		13.668
6		0.00		-8.80		1.167e-02		122.668		3.443e-03		15.437
6		0.00		-8.40		1.150e-02		122.799		3.092e-03		14.753
6		0.00		-8.00		1.087e-02		122.775		3.230e-03		14.575
6		0.00		-7.60		1.066e-02		124.304		3.021e-03		14.052
6		0.00		-7.20		1.064e-02		125.257		3.005e-03		13.427
6		0.00		-6.80		1.027e-02		125.896		2.758e-03		14.999
6		0.00		-6.40		9.660e-03		122.770		2.796e-03		15.178
6		0.00		-6.00		9.493e-03		122.414		2.528e-03		15.780
6		0.00		-5.60		8.503e-03		124.148		2.315e-03		16.707
6		0.00		-5.20		7.595e-03		124.801		2.066e-03		15.157
6		0.00		-4.80		7.083e-03		124.414		2.088e-03		15.351
6		0.00		-4.40		6.703e-03		126.422		2.204e-03		19.615
6		0.00		-4.00		6.190e-03		124.221		1.972e-03		16.800
6		0.00		-3.60		6.043e-03		119.992		1.748e-03		15.047
6		0.00		-3.20		5.611e-03		124.360		1.649e-03		28.270
6		0.00		-2.80		5.014e-03		120.533		1.755e-03		25.764
6		0.00		-2.40		4.493e-03		117.732		1.728e-03		23.501
6		0.00		-2.00		4.327e-03		116.849		1.610e-03		27.273
6		0.00		-1.60		3.841e-03		110.536		1.425e-03		49.518
6		0.00		-1.20		3.421e-03		90.140		1.546e-03		64.214
6		0.00		-0.80		3.211e-03		106.710		1.279e-03		46.959
6		0.00		-0.40		2.712e-03		81.283		1.173e-03		66.644
7		0.00		0.00		2.496e-03		77.292		1.260e-03		84.257
7		0.00		0.40		2.211e-03		48.616		9.314e-04		87.322
7		0.00		0.80		1.870e-03		29.733		7.598e-04		87.963
7		0.00		1.20		1.834e-03		-2.203		8.195e-04		97.255
7		0.00		1.60		1.856e-03		-24.121		7.751e-04		81.792
7		0.00		2.00		1.994e-03		-45.282		8.093e-04		65.861
7		0.00		2.40		2.471e-03		-69.005		1.019e-03		46.409
7		0.00		2.80		3.469e-03		-67.933		1.335e-03		32.224
7		0.00		3.20		3.907e-03		-64.331		1.169e-03		27.241
7		0.00		3.60		5.139e-03		-59.224		1.516e-03		22.172
7		0.00		4.00		6.658e-03		-59.724		1.708e-03		17.405
7		0.00		4.40		8.178e-03		-55.760		2.150e-03		18.944
7		0.00		4.80		9.511e-03		-53.135		2.292e-03		14.025
7		0.00		5.20		1.181e-02		-55.784		2.731e-03		15.419
7		0.00		5.60		1.382e-02		-54.993		3.541e-03		15.226
7		0.00		6.00		1.626e-02		-53.757		3.982e-03		13.328
7		0.00		6.40		1.927e-02		-55.635		4.713e-03		14.176
7		0.00		6.80		2.183e-02		-57.733		5.597e-03		12.617
7		0.00		7.20		2.425e-02		-54.727		5.931e-03		12.869
7		0.00		7.60		2.685e-02		-56.660		6.307e-03		12.401
7		0.00		8.00		2.896e-02		-54.123		6.934e-03		12.889
7		0.00		8.40		3.250e-02		-55.322		7.196e-03		13.074
7		0.00		8.80		3.498e-02		-55.588		7.044e-03		11.807
7		0.00		9.20		3.722e-02		-55.929		7.110e-03		12.232
7		0.00		9.60		4.036e-02		-54.321		7.419e-03		12.558
7		0.00		10.00		4.290e-02		-53.235		7.555e-03		11.638
7		0.00		9.60		4.364e-02		-52.557		7.693e-03		11.305
7		0.00		9.20		4.295e-02		-52.250		8.165e-03		11.764
7		0.00		8.80		4.268e-02		-52.764		7.868e-03		11.625
7		0.00		8.40		4.335e-02		-51.624		8.140e-03		10.119
7		0.00		8.00		4.228e-02		-51.179		8.159e-03		10.532
7		0.00		7.60		4.319e-02		-52.503		8.918e-03		9.316
7		0.00		7.20		4.076e-02		-52.530		9.770e-03		10.346
7		0.00		6.80		4.055e-02		-52.173		1.023e-02		10.512
7		0.00		6.40		3.955e-02		-53.457		1.063e-02		10.725
7		0.00		6.00		3.960e-02		-54.208		1.023e-02		11.591
7		0.00		5.60		3.891e-02		-55.361		1.011e-02		11.926
7		0.00		5.20		3.849e-02		-54.980		9.882e-03		12.003
7		0.00		4.80		3.780e-02		-56.420		9.548e-03		12.738
7		0.00		4.40		3.799e-02		-55.818		8.878e-03		12.538
7		0.00		4.00		3.710e-02		-55.725		7.867e-03		12.404
7		0.00		3.60		3.691e-02		-55.944		7.390e-03		12.046
7		0.00		3.20		3.726e-02		-54.394		6.410e-03		10.511
7		0.00		2.80		3.670e-02		-52.996		6.464e-03		11.135
7		0.00		2.40		3.627e-02		-53.001		6.623e-03		9.927
7		0.00		2.00		3.673e-02		-53.221		7.143e-03		10.331
7		0.00		1.60		3.649e-02		-51.940		7.311e-03		9.399
7		0.00		1.20		3.664e-02		-52.603		7.811e-03		9.877
7		0.00		0.80		3.655e-02		-53.734		8.207e-03		8.993
7		0.00		0.40		3.654e-02		-53.703		8.494e-03		9.182
7		0.00		0.00		3.639e-02		-54.318		8.872e-03		10.312
7		0.00		-0.40		3.623e-02		-55.323		8.485e-03		10.222
7		0.00		-0.80		3.549e-02		-55.787		8.412e-03		12.691
7		0.00		-1.20		3.383e-02		-56.312		7.765e-03		11.521
7		0.00		-1.60		3.219e-02		-55.573		6.393e-03		11.725
7		0.00		-2.00		3.131e-02		-54.830		5.768e-03		11.110
7		0.00		-2.40		2.864e-02		-54.284		4.578e-03		11.014
7		0.00		-2.80		2.633e-02		-54.935		4.699e-03		11.644
7		0.00		-3.20		2.291e-02		-53.040		4.440e-03		12.772
7		0.00		-3.60		2.011e-02		-52.728		4.100e-03		12.714
7		0.00		-4.00		1.684e-02		-52.536		3.911e-03		13.134
7		0.00		-4.40		1.389e-02		-54.686		3.515e-03		13.646
7		0.00		-4.80		1.008e-02		-50.906		2.417e-03		15.743
7		0.00		-5.20		6.856e-03		-49.775		1.736e-03		17.897
7		0.00		-5.60		4.309e-03		-55.668		1.261e-03		26.584
7		0.00		-6.00		2.162e-03		-23.743		1.016e-03		60.174
7		0.00		-6.40		1.953e-03		39.174		9.263e-04		79.123
7		0.00		-6.80		3.636e-03		92.362		1.403e-03		52.358
7		0.00		-7.20		4.423e-03		115.446		1.561e-03		40.523
7		0.00		-7.60		5.713e-03		119.408		1.739e-03		24.513
7		0.00		-8.00		7.400e-03		126.141		2.104e-03		13.914
7		0.00		-8.40		9.171e-03		127.379		2.564e-03		16.821
7		0.00		-8.80		9.707e-03		122.997		3.075e-03		16.051
7		0.00		-9.20		9.598e-03		123.664		3.099e-03		16.217
7		0.00		-9.60		1.100e-02		125.650		3.083e-03		13.484
7		0.00		-10.00		1.088e-02		120.922		3.211e-03		15.524
7		0.00		-9.60		1.118e-02		121.767		3.006e-03		16.583
7		0.00		-9.20		1.161e-02		123.909		3.005e-03		15.585
7		0.00		-8.80		1.094e-02		124.009		3.146e-03		15.940
7		0.00		-8.40		1.070e-02		124.967		2.893e-03		16.460
7		0.00		-8.00		9.914e-03		130.090		3.035e-03		15.280
7		0.00		-7.60		9.998e-03		125.643		3.272e-03		17.617
7		0.00		-7.20		9.129e-03		123.223		3.080e-03		16.329
7		0.00		-6.80		9.030e-03		120.814		2.814e-03		17.554
7		0.00		-6.40		7.767e-03		124.120		2.493e-03		15.737
7		0.00		-6.00		8.309e-03		124.050		2.292e-03		18.681
7		0.00		-5.60		7.764e-03		118.508		2.299e-03		18.317
7		0.00		-5.20		7.422e-03		127.708		2.198e-03		18.746
7		0.00		-4.80		6.839e-03		125.218		1.770e-03		17.271
7		0.00		-4.40		6.243e-03		125.239		2.004e-03		18.747
7		0.00		-4.00		5.746e-03		120.405		2.004e-03		21.784
7		0.00		-3.60		4.716e-03		120.573		1.803e-03		33.727
7		0.00		-3.20		4.852e-03		123.615		1.807e-03		23.495
7		0.00		-2.80		4.044e-03		108.126		1.716e-03		35.401
7		0.00		-2.40		3.791e-03		104.846		1.453e-03		47.523
7		0.00		-2.00		3.316e-03		106.287		1.318e-03		44.489
7		0.00		-1.60		3.229e-03		98.552		1.328e-03		64.026
7		0.00		-1.20		2.606e-03		77.941		1.127e-03		66.749
7		0.00		-0.80		2.427e-03		73.802		1.197e-03		69.744
7		0.00		-0.40		2.218e-03		49.968		8.724e-04		85.414
8		0.00		0.00		2.073e-03		29.481		8.179e-04		87.427
8		0.00		0.40		1.816e-03		12.300		7.552e-04		81.525
8		0.00		0.80		1.886e-03		-7.796		8.255e-04		80.854
8		0.00		1.20		2.026e-03		-48.644		9.187e-04		58.860
8		0.00		1.60		2.597e-03		-65.209		1.013e-03		46.535
8		0.00		2.00		2.897e-03		-58.591		9.878e-04		38.118
8		0.00		2.40		3.703e-03		-75.054		1.076e-03		27.774
8		0.00		2.80		4.016e-03		-61.362		1.373e-03		23.432
8		0.00		3.20		5.147e-03		-59.542		1.396e-03		21.510
8		0.00		3.60		5.936e-03		-52.195		1.570e-03		21.107
8		0.00		4.00		6.604e-03		-52.991		1.549e-03		18.865
8		0.00		4.40		7.898e-03		-54.812		1.683e-03		18.774
8		0.00		4.80		9.386e-03		-54.335		1.723e-03		16.332
8		0.00		5.20		1.117e-02		-56.045		2.078e-03		15.058
8		0.00		5.60		1.432e-02		-53.283		2.597e-03		13.946
8		0.00		6.00		1.585e-02		-52.868		3.262e-03		13.610
8		0.00		6.40		1.802e-02		-54.447		4.303e-03		14.184
8		0.00		6.80		2.126e-02		-55.258		5.313e-03		14.195
8		0.00		7.20		2.390e-02		-54.082		6.282e-03		13.013
8		0.00		7.60		2.704e-02		-56.311		6.342e-03		12.367
8		0.00		8.00		2.912e-02		-55.965		6.178e-03		12.879
8		0.00		8.40		3.051e-02		-54.125		5.696e-03		12.490
8		0.00		8.80		3.448e-02		-53.777		6.790e-03		12.102
8		0.00		9.20		3.723e-02		-53.693		8.440e-03		12.104
8		0.00		9.60		3.960e-02		-53.027		9.324e-03		10.737
8		0.00		10.00		4.113e-02		-52.747		9.746e-03		10.906
8		0.00		9.60		4.227e-02		-54.854		1.028e-02		10.936
8		0.00		9.20		4.181e-02		-55.023		9.107e-03		12.125
8		0.00		8.80		4.273e-02		-56.766		9.478e-03		12.652
8		0.00		8.40		4.157e-02		-55.192		7.781e-03		13.361
8		0.00		8.00		4.136e-02		-53.192		7.069e-03		11.383
8		0.00		7.60		4.027e-02		-53.504		7.826e-03		11.354
8		0.00		7.20		3.971e-02		-52.663		7.482e-03		10.320
8		0.00		6.80		3.889e-02		-52.892		8.500e-03		11.064
8		0.00		6.40		3.857e-02		-54.023		9.183e-03		11.075
8		0.00		6.00		3.755e-02		-55.539		9.267e-03		12.750
8		0.00		5.60		3.713e-02		-56.585		8.580e-03		13.510
8		0.00		5.20		3.668e-02		-56.896		7.299e-03		13.147
8		0.00		4.80		3.668e-02		-54.158		6.451e-03		11.659
8		0.00		4.40		3.672e-02		-54.263		6.329e-03		11.856
8		0.00		4.00		3.596e-02		-53.486		6.663e-03		11.396
8		0.00		3.60		3.569e-02		-52.422		7.158e-03		10.599
8		0.00		3.20		3.470e-02		-54.167		8.233e-03		11.358
8		0.00		2.80		3.432e-02		-53.499		8.516e-03		11.682
8		0.00		2.40		3.458e-02		-55.684		8.199e-03		12.994
8		0.00		2.00		3.454e-02		-55.937		7.521e-03		12.919
8		0.00		1.60		3.434e-02		-54.887		6.094e-03		12.642
8		0.00		1.20		3.391e-02		-53.687		5.766e-03		11.497
8		0.00		0.80		3.355e-02		-54.457		5.811e-03		11.000
8		0.00		0.40		3.321e-02		-53.133		6.430e-03		10.936
8		0.00		0.00		3.326e-02		-53.150		6.812e-03		8.623
8		0.00		-0.40		3.326e-02		-54.041		7.378e-03		10.000
8		0.00		-0.80		3.231e-02		-54.381		7.603e-03		10.733
8		0.00		-1.20		3.219e-02		-56.508		7.256e-03		10.617
8		0.00		-1.60		3.072e-02		-54.698		6.284e-03		11.909
8		0.00		-2.00		2.959e-02		-56.116		6.006e-03		11.630
8		0.00		-2.40		2.665e-02		-56.496		4.765e-03		11.227
8		0.00		-2.80		2.484e-02		-55.037		4.740e-03		11.901
8		0.00		-3.20		2.170e-02		-55.173		4.669e-03		11.943
8		0.00		-3.60		1.824e-02		-54.895		4.241e-03		12.664
8		0.00		-4.00		1.556e-02		-55.069		3.897e-03		14.439
8		0.00		-4.40		1.273e-02		-56.365		3.094e-03		13.086
8		0.00		-4.80		1.082e-02		-54.249		2.635e-03		16.760
8		0.00		-5.20		7.980e-03		-53.392		1.879e-03		17.351
8		0.00		-5.60		5.302e-03		-60.222		1.421e-03		26.989
8		0.00		-6.00		2.644e-03		-40.249		1.053e-03		44.836
8		0.00		-6.40		1.795e-03		-27.607		8.061e-04		67.071
8		0.00		-6.80		2.467e-03		65.512		1.032e-03		63.875
8		0.00		-7.20		3.588e-03		103.903		1.480e-03		37.859
8		0.00		-7.60		4.926e-03		111.267		2.093e-03		46.120
8		0.00		-8.00		6.509e-03		122.012		2.161e-03		23.346
8		0.00		-8.40		6.990e-03		117.990		2.396e-03		19.144
8		0.00		-8.80		8.331e-03		123.769		2.698e-03		15.138
8		0.00		-9.20		8.630e-03		122.058		2.563e-03		17.037
8		0.00		-9.60		1.045e-02		121.036		2.522e-03		15.570
8		0.00		-10.00		1.134e-02		127.394		2.774e-03		14.767
8		0.00		-9.60		1.211e-02		126.124		3.043e-03		15.688
8		0.00		-9.20		1.107e-02		124.859		3.349e-03		16.387
8		0.00		-8.80		1.112e-02		123.406		3.343e-03		15.574
8		0.00		-8.40		1.025e-02		120.838		3.388e-03		16.054
8		0.00		-8.00		1.004e-02		122.138		3.226e-03		14.183
8		0.00		-7.60		9.547e-03		121.452		2.732e-03		14.777
8		0.00		-7.20		9.463e-03		123.896		2.298e-03		15.962
8		0.00		-6.80		8.634e-03		125.702		2.265e-03		15.809
8		0.00		-6.40		8.601e-03		129.350		2.256e-03		13.934
8		0.00		-6.00		7.340e-03		127.008		2.327e-03		18.294
8		0.00		-5.60		7.007e-03		128.641		2.370e-03		16.825
8		0.00		-5.20		6.097e-03		122.374		1.955e-03		32.870
8		0.00		-4.80		5.438e-03		123.756		1.875e-03		19.462
8		0.00		-4.40		4.813e-03		117.122		1.722e-03		44.104
8		0.00		-4.00		5.430e-03		118.413		1.697e-03		29.480
8		0.00		-3.60		4.991e-03		115.402		1.728e-03		29.827
8		0.00		-3.20		4.303e-03		116.752		1.692e-03		36.317
8		0.00		-2.80		3.586e-03		115.246		1.506e-03		37.601
8		0.00		-2.40		3.516e-03		102.486		1.425e-03		59.688
8		0.00		-2.00		2.806e-03		89.179		1.142e-03		74.491
8		0.00		-1.60		2.518e-03		72.531		1.230e-03		79.613
8		0.00		-1.20		2.333e-03		59.636		8.921e-04		77.217
8		0.00		-0.80		2.070e-03		37.078		8.636e-04		84.497
8		0.00		-0.40		1.903e-03		34.361		7.583e-04		89.006
