# Date of analysis: 2024-03-08 10;58
# Segment other properties: height: -62.43890942145178, diff height: 524.6826360804635, deflection: 33.212911573929816, deflection error: 5.866848602608174, adhesion: 13.977233298497373, phase offset: 0
# 
# Loop index	Read Volt (V)	Write Volt (V)	Amplitude (a.u)	Phase (deg)	Sigma Amp (a.u)	Sigma Pha (deg)	
1		0.00		0.00		1.715e-02		-46.905		4.755e-03		18.582
1		0.00		0.40		1.737e-02		-47.316		4.738e-03		19.008
1		0.00		0.80		1.808e-02		-47.102		5.430e-03		19.193
1		0.00		1.20		1.798e-02		-46.893		5.454e-03		18.343
1		0.00		1.60		1.858e-02		-47.582		5.239e-03		17.707
1		0.00		2.00		1.811e-02		-44.031		5.512e-03		20.074
1		0.00		2.40		1.791e-02		-43.517		5.794e-03		19.942
1		0.00		2.80		1.864e-02		-47.126		6.541e-03		21.434
1		0.00		3.20		1.922e-02		-43.816		6.892e-03		23.985
1		0.00		3.60		2.059e-02		-50.102		6.891e-03		22.463
1		0.00		4.00		2.077e-02		-49.684		6.509e-03		21.329
1		0.00		4.40		2.212e-02		-46.503		6.839e-03		20.541
1		0.00		4.80		2.329e-02		-46.598		6.729e-03		18.653
1		0.00		5.20		2.477e-02		-46.181		7.393e-03		18.209
1		0.00		5.60		2.552e-02		-47.227		8.266e-03		17.640
1		0.00		6.00		2.726e-02		-47.360		8.392e-03		19.425
1		0.00		6.40		2.675e-02		-48.771		8.396e-03		22.690
1		0.00		6.80		2.714e-02		-45.361		8.801e-03		22.959
1		0.00		7.20		2.627e-02		-49.032		9.244e-03		21.841
1		0.00		7.60		2.615e-02		-47.854		9.151e-03		26.749
1		0.00		8.00		2.763e-02		-47.375		9.382e-03		28.168
1		0.00		8.40		2.931e-02		-46.065		9.913e-03		22.150
1		0.00		8.80		2.988e-02		-50.269		9.469e-03		20.718
1		0.00		9.20		3.006e-02		-46.908		8.782e-03		19.822
1		0.00		9.60		2.986e-02		-45.174		8.778e-03		19.260
1		0.00		10.00		3.029e-02		-46.745		8.951e-03		18.611
1		0.00		9.60		2.990e-02		-47.633		8.912e-03		17.700
1		0.00		9.20		2.883e-02		-47.495		7.975e-03		20.054
1		0.00		8.80		2.706e-02		-45.994		8.089e-03		22.332
1		0.00		8.40		2.634e-02		-47.029		8.771e-03		20.949
1		0.00		8.00		2.360e-02		-47.515		8.341e-03		20.762
1		0.00		7.60		2.221e-02		-44.783		7.756e-03		23.815
1		0.00		7.20		2.072e-02		-40.465		8.163e-03		30.312
1		0.00		6.80		1.974e-02		-48.601		7.389e-03		29.319
1		0.00		6.40		1.856e-02		-47.702		6.475e-03		27.930
1		0.00		6.00		1.817e-02		-45.308		5.831e-03		27.124
1		0.00		5.60		1.834e-02		-42.651		5.424e-03		24.574
1		0.00		5.20		1.816e-02		-42.668		5.867e-03		21.826
1		0.00		4.80		1.701e-02		-39.380		6.281e-03		24.289
1		0.00		4.40		1.714e-02		-39.630		6.595e-03		27.494
1		0.00		4.00		1.745e-02		-34.882		6.787e-03		28.454
1		0.00		3.60		1.690e-02		-36.399		6.637e-03		29.291
1		0.00		3.20		1.657e-02		-40.706		6.519e-03		26.937
1		0.00		2.80		1.596e-02		-39.040		6.219e-03		26.027
1		0.00		2.40		1.556e-02		-40.528		6.198e-03		27.378
1		0.00		2.00		1.422e-02		-34.974		5.696e-03		32.703
1		0.00		1.60		1.420e-02		-34.459		5.050e-03		31.462
1		0.00		1.20		1.414e-02		-36.789		4.836e-03		29.310
1		0.00		0.80		1.481e-02		-44.304		4.728e-03		24.056
1		0.00		0.40		1.518e-02		-42.342		5.218e-03		21.977
1		0.00		0.00		1.631e-02		-45.301		5.910e-03		24.339
1		0.00		-0.40		1.700e-02		-41.017		6.351e-03		27.795
1		0.00		-0.80		1.733e-02		-45.801		6.457e-03		19.922
1		0.00		-1.20		1.701e-02		-42.138		6.700e-03		21.645
1		0.00		-1.60		1.723e-02		-51.303		6.614e-03		24.430
1		0.00		-2.00		1.635e-02		-49.738		6.158e-03		26.700
1		0.00		-2.40		1.615e-02		-52.068		5.897e-03		26.971
1		0.00		-2.80		1.653e-02		-48.713		5.402e-03		25.265
1		0.00		-3.20		1.653e-02		-49.985		4.753e-03		20.573
1		0.00		-3.60		1.664e-02		-45.694		4.283e-03		18.897
1		0.00		-4.00		1.531e-02		-44.251		4.491e-03		17.886
1		0.00		-4.40		1.439e-02		-49.999		4.404e-03		16.564
1		0.00		-4.80		1.456e-02		-49.915		4.308e-03		17.167
1		0.00		-5.20		1.390e-02		-46.384		4.686e-03		14.981
1		0.00		-5.60		1.299e-02		-48.606		4.646e-03		15.118
1		0.00		-6.00		1.189e-02		-46.583		4.684e-03		15.562
1		0.00		-6.40		1.102e-02		-44.376		4.454e-03		19.019
1		0.00		-6.80		9.871e-03		-45.109		4.142e-03		28.239
1		0.00		-7.20		9.422e-03		-45.982		3.717e-03		20.927
1		0.00		-7.60		8.407e-03		-38.909		3.515e-03		18.841
1		0.00		-8.00		7.998e-03		-31.395		3.604e-03		19.642
1		0.00		-8.40		7.323e-03		-33.742		3.509e-03		18.960
1		0.00		-8.80		6.519e-03		-32.029		3.076e-03		22.046
1		0.00		-9.20		5.558e-03		-28.590		2.936e-03		32.401
1		0.00		-9.60		5.864e-03		-28.231		2.967e-03		31.751
1		0.00		-10.00		5.608e-03		-24.253		3.189e-03		31.137
1		0.00		-9.60		5.096e-03		-35.922		2.874e-03		34.699
1		0.00		-9.20		5.589e-03		-35.216		3.011e-03		27.420
1		0.00		-8.80		5.260e-03		-34.224		2.864e-03		27.639
1		0.00		-8.40		5.359e-03		-28.025		2.809e-03		35.711
1		0.00		-8.00		4.992e-03		-29.103		2.806e-03		41.814
1		0.00		-7.60		5.107e-03		-26.698		2.961e-03		41.848
1		0.00		-7.20		4.875e-03		-27.632		2.528e-03		47.628
1		0.00		-6.80		5.538e-03		-24.175		3.281e-03		30.431
1		0.00		-6.40		5.601e-03		-31.420		3.139e-03		31.716
1		0.00		-6.00		5.770e-03		-28.897		3.443e-03		35.775
1		0.00		-5.60		5.722e-03		-34.714		3.030e-03		29.803
1		0.00		-5.20		5.884e-03		-36.942		3.158e-03		29.723
1		0.00		-4.80		5.653e-03		-35.748		2.854e-03		28.256
1		0.00		-4.40		5.841e-03		-40.786		2.997e-03		30.855
1		0.00		-4.00		5.643e-03		-45.002		3.018e-03		31.354
1		0.00		-3.60		5.621e-03		-50.484		2.934e-03		25.538
1		0.00		-3.20		5.670e-03		-48.206		2.966e-03		28.599
1		0.00		-2.80		6.099e-03		-51.129		3.091e-03		28.654
1		0.00		-2.40		6.499e-03		-50.136		3.333e-03		30.073
1		0.00		-2.00		6.554e-03		-48.175		3.463e-03		32.079
1		0.00		-1.60		6.530e-03		-51.848		3.365e-03		39.453
1		0.00		-1.20		6.308e-03		-54.657		3.048e-03		25.644
1		0.00		-0.80		6.459e-03		-57.380		3.067e-03		29.027
1		0.00		-0.40		6.368e-03		-61.680		2.811e-03		26.709
2		0.00		0.00		4.803e-03		23.143		2.358e-03		68.946
2		0.00		0.40		6.311e-03		42.580		3.330e-03		72.780
2		0.00		0.80		5.835e-03		51.237		2.831e-03		68.272
2		0.00		1.20		8.253e-03		59.818		4.411e-03		59.272
2		0.00		1.60		6.650e-03		54.205		3.399e-03		68.526
2		0.00		2.00		6.622e-03		39.606		3.103e-03		71.174
2		0.00		2.40		5.577e-03		31.014		2.771e-03		71.556
2		0.00		2.80		4.788e-03		24.239		2.224e-03		74.612
2		0.00		3.20		4.544e-03		2.332		2.208e-03		77.241
2		0.00		3.60		4.991e-03		3.644		2.553e-03		76.584
2		0.00		4.00		5.489e-03		-4.883		3.302e-03		69.622
2		0.00		4.40		6.247e-03		-19.121		4.051e-03		53.904
2		0.00		4.80		7.655e-03		-18.369		5.127e-03		58.244
2		0.00		5.20		8.162e-03		-20.491		5.388e-03		51.691
2		0.00		5.60		9.571e-03		-18.989		6.142e-03		48.814
2		0.00		6.00		1.063e-02		-24.587		6.831e-03		39.637
2		0.00		6.40		1.100e-02		-32.737		7.353e-03		33.574
2		0.00		6.80		1.257e-02		-41.054		7.665e-03		24.950
2		0.00		7.20		1.226e-02		-41.266		7.866e-03		32.890
2		0.00		7.60		1.366e-02		-49.456		7.376e-03		29.222
2		0.00		8.00		1.398e-02		-44.545		6.979e-03		27.224
2		0.00		8.40		1.533e-02		-49.203		6.959e-03		26.150
2		0.00		8.80		1.662e-02		-41.421		6.710e-03		21.495
2		0.00		9.20		1.629e-02		-41.203		7.141e-03		23.614
2		0.00		9.60		1.784e-02		-37.839		8.048e-03		26.193
2		0.00		10.00		1.899e-02		-37.320		7.868e-03		30.164
2		0.00		9.60		1.883e-02		-41.259		8.200e-03		25.886
2		0.00		9.20		1.765e-02		-45.935		8.951e-03		27.317
2		0.00		8.80		1.742e-02		-48.602		8.671e-03		28.188
2		0.00		8.40		1.655e-02		-48.409		8.133e-03		27.823
2		0.00		8.00		1.643e-02		-55.321		7.885e-03		27.957
2		0.00		7.60		1.460e-02		-49.916		6.603e-03		28.038
2		0.00		7.20		1.480e-02		-46.155		5.885e-03		23.178
2		0.00		6.80		1.521e-02		-47.537		5.942e-03		22.183
2		0.00		6.40		1.583e-02		-43.524		6.330e-03		20.123
2		0.00		6.00		1.568e-02		-47.343		6.361e-03		20.790
2		0.00		5.60		1.679e-02		-45.501		6.613e-03		23.934
2		0.00		5.20		1.682e-02		-39.779		6.990e-03		27.095
2		0.00		4.80		1.733e-02		-43.853		6.548e-03		25.935
2		0.00		4.40		1.794e-02		-45.938		6.845e-03		20.485
2		0.00		4.00		1.689e-02		-50.998		6.656e-03		24.952
2		0.00		3.60		1.691e-02		-48.897		7.339e-03		28.120
2		0.00		3.20		1.781e-02		-56.248		6.814e-03		26.544
2		0.00		2.80		1.884e-02		-53.681		6.304e-03		23.708
2		0.00		2.40		1.794e-02		-51.931		5.959e-03		21.130
2		0.00		2.00		1.847e-02		-48.190		5.569e-03		21.220
2		0.00		1.60		1.907e-02		-47.699		5.089e-03		18.319
2		0.00		1.20		1.998e-02		-47.536		5.086e-03		12.785
2		0.00		0.80		2.075e-02		-45.783		5.573e-03		12.671
2		0.00		0.40		2.144e-02		-47.316		5.442e-03		12.299
2		0.00		0.00		2.154e-02		-46.866		5.622e-03		13.373
2		0.00		-0.40		2.185e-02		-47.601		6.419e-03		14.312
2		0.00		-0.80		2.266e-02		-47.972		6.755e-03		15.162
2		0.00		-1.20		2.175e-02		-47.837		7.240e-03		14.399
2		0.00		-1.60		2.124e-02		-44.735		7.115e-03		19.297
2		0.00		-2.00		1.959e-02		-45.435		6.941e-03		28.415
2		0.00		-2.40		1.880e-02		-46.224		7.036e-03		32.588
2		0.00		-2.80		1.707e-02		-53.408		6.045e-03		27.190
2		0.00		-3.20		1.655e-02		-56.237		5.660e-03		23.162
2		0.00		-3.60		1.558e-02		-51.663		4.699e-03		18.807
2		0.00		-4.00		1.535e-02		-49.464		4.689e-03		14.906
2		0.00		-4.40		1.488e-02		-46.043		4.681e-03		14.876
2		0.00		-4.80		1.471e-02		-45.400		4.506e-03		14.396
2		0.00		-5.20		1.313e-02		-44.735		4.361e-03		14.544
2		0.00		-5.60		1.249e-02		-46.496		3.990e-03		13.970
2		0.00		-6.00		1.197e-02		-45.815		4.164e-03		14.481
2		0.00		-6.40		1.064e-02		-41.096		3.785e-03		15.123
2		0.00		-6.80		9.259e-03		-37.352		3.487e-03		15.677
2		0.00		-7.20		8.490e-03		-35.451		3.308e-03		20.292
2		0.00		-7.60		8.065e-03		-33.195		3.170e-03		22.366
2		0.00		-8.00		6.704e-03		-41.513		2.928e-03		28.109
2		0.00		-8.40		6.220e-03		-43.770		2.532e-03		27.562
2		0.00		-8.80		4.984e-03		-45.557		2.073e-03		27.181
2		0.00		-9.20		3.510e-03		-45.940		1.698e-03		38.728
2		0.00		-9.60		3.388e-03		-50.051		1.612e-03		33.168
2		0.00		-10.00		3.824e-03		-46.965		1.829e-03		26.358
2		0.00		-9.60		3.585e-03		-35.934		1.545e-03		27.006
2		0.00		-9.20		3.116e-03		-32.361		1.410e-03		44.635
2		0.00		-8.80		2.974e-03		-32.477		1.499e-03		39.549
2		0.00		-8.40		3.412e-03		-23.661		1.633e-03		48.101
2		0.00		-8.00		3.206e-03		-48.668		1.326e-03		35.035
2		0.00		-7.60		3.625e-03		-46.980		1.694e-03		41.506
2		0.00		-7.20		3.414e-03		-34.826		1.551e-03		43.140
2		0.00		-6.80		3.876e-03		-41.799		1.615e-03		34.476
2		0.00		-6.40		3.887e-03		-35.960		1.792e-03		33.072
2		0.00		-6.00		5.081e-03		-40.029		2.006e-03		22.029
2		0.00		-5.60		4.816e-03		-52.645		1.811e-03		20.853
2		0.00		-5.20		5.834e-03		-42.543		1.924e-03		18.851
2		0.00		-4.80		6.293e-03		-35.814		2.247e-03		15.947
2		0.00		-4.40		6.112e-03		-48.935		2.386e-03		22.545
2		0.00		-4.00		6.811e-03		-40.660		2.394e-03		18.098
2		0.00		-3.60		8.187e-03		-42.717		2.612e-03		13.301
2		0.00		-3.20		7.528e-03		-39.741		2.330e-03		13.843
2		0.00		-2.80		7.950e-03		-46.345		2.703e-03		16.496
2		0.00		-2.40		8.706e-03		-39.063		2.774e-03		18.113
2		0.00		-2.00		9.153e-03		-39.990		3.177e-03		16.086
2		0.00		-1.60		9.133e-03		-41.926		3.432e-03		21.762
2		0.00		-1.20		9.228e-03		-40.775		3.541e-03		25.697
2		0.00		-0.80		9.273e-03		-40.246		3.489e-03		24.340
2		0.00		-0.40		9.386e-03		-42.250		4.027e-03		23.445
3		0.00		0.00		9.078e-03		-39.903		3.751e-03		27.890
3		0.00		0.40		9.227e-03		-43.541		4.044e-03		31.506
3		0.00		0.80		9.449e-03		-47.343		3.842e-03		28.927
3		0.00		1.20		1.005e-02		-45.560		3.752e-03		30.852
3		0.00		1.60		1.007e-02		-45.908		3.773e-03		29.303
3		0.00		2.00		1.064e-02		-42.631		3.818e-03		33.283
3		0.00		2.40		9.908e-03		-50.194		3.623e-03		28.643
3		0.00		2.80		1.043e-02		-49.875		4.106e-03		30.402
3		0.00		3.20		1.055e-02		-45.619		4.192e-03		34.319
3		0.00		3.60		1.103e-02		-53.953		4.194e-03		26.664
3		0.00		4.00		1.183e-02		-50.136		4.394e-03		25.032
3		0.00		4.40		1.276e-02		-50.645		4.712e-03		24.934
3		0.00		4.80		1.285e-02		-46.551		4.665e-03		23.349
3		0.00		5.20		1.387e-02		-50.413		5.277e-03		25.847
3		0.00		5.60		1.459e-02		-48.359		6.017e-03		25.233
3		0.00		6.00		1.586e-02		-47.022		6.207e-03		22.532
3		0.00		6.40		1.703e-02		-51.810		6.503e-03		23.872
3		0.00		6.80		1.764e-02		-47.117		6.614e-03		21.965
3		0.00		7.20		1.838e-02		-47.902		7.005e-03		24.262
3		0.00		7.60		1.858e-02		-47.962		7.409e-03		26.409
3		0.00		8.00		1.955e-02		-46.793		7.783e-03		24.830
3		0.00		8.40		2.093e-02		-45.543		8.760e-03		24.980
3		0.00		8.80		2.067e-02		-44.218		8.906e-03		25.017
3		0.00		9.20		2.070e-02		-44.713		8.545e-03		24.316
3		0.00		9.60		1.989e-02		-46.501		8.732e-03		25.691
3		0.00		10.00		2.082e-02		-50.619		8.646e-03		25.776
3		0.00		9.60		2.023e-02		-46.149		8.425e-03		25.035
3		0.00		9.20		2.049e-02		-47.077		8.517e-03		24.113
3		0.00		8.80		1.940e-02		-45.362		7.761e-03		24.136
3		0.00		8.40		1.908e-02		-44.982		7.631e-03		23.603
3		0.00		8.00		1.897e-02		-43.347		7.194e-03		24.512
3		0.00		7.60		1.844e-02		-39.711		6.747e-03		24.256
3		0.00		7.20		1.950e-02		-43.539		6.984e-03		21.121
3		0.00		6.80		1.969e-02		-46.786		6.704e-03		22.821
3		0.00		6.40		1.946e-02		-45.485		6.384e-03		20.410
3		0.00		6.00		1.927e-02		-44.255		5.604e-03		20.417
3		0.00		5.60		1.845e-02		-44.484		5.619e-03		22.726
3		0.00		5.20		1.922e-02		-45.339		5.869e-03		21.140
3		0.00		4.80		1.943e-02		-46.923		5.738e-03		21.886
3		0.00		4.40		1.934e-02		-47.575		5.708e-03		20.599
3		0.00		4.00		1.964e-02		-49.771		5.461e-03		23.414
3		0.00		3.60		1.919e-02		-52.315		5.824e-03		22.300
3		0.00		3.20		1.982e-02		-53.049		5.752e-03		22.173
3		0.00		2.80		2.000e-02		-50.724		6.015e-03		22.205
3		0.00		2.40		2.081e-02		-52.240		6.128e-03		21.418
3		0.00		2.00		2.102e-02		-50.697		6.004e-03		20.455
3		0.00		1.60		2.155e-02		-48.817		6.465e-03		19.906
3		0.00		1.20		2.110e-02		-52.940		6.190e-03		20.402
3		0.00		0.80		2.095e-02		-53.405		6.311e-03		21.113
3		0.00		0.40		2.058e-02		-50.987		6.689e-03		22.347
3		0.00		0.00		2.008e-02		-51.772		6.385e-03		20.860
3		0.00		-0.40		1.970e-02		-52.365		6.593e-03		21.228
3		0.00		-0.80		1.865e-02		-51.848		6.516e-03		21.057
3		0.00		-1.20		1.835e-02		-53.782		6.243e-03		20.462
3		0.00		-1.60		1.697e-02		-54.582		6.096e-03		22.398
3		0.00		-2.00		1.630e-02		-53.930		6.202e-03		23.272
3		0.00		-2.40		1.561e-02		-54.871		5.924e-03		23.956
3		0.00		-2.80		1.488e-02		-55.536		5.523e-03		23.689
3		0.00		-3.20		1.413e-02		-59.042		5.414e-03		24.880
3		0.00		-3.60		1.321e-02		-57.463		5.046e-03		22.276
3		0.00		-4.00		1.262e-02		-57.198		4.732e-03		22.127
3		0.00		-4.40		1.259e-02		-53.471		4.377e-03		18.661
3		0.00		-4.80		1.106e-02		-57.059		3.967e-03		18.025
3		0.00		-5.20		1.007e-02		-56.854		3.575e-03		19.212
3		0.00		-5.60		8.938e-03		-54.040		3.268e-03		24.085
3		0.00		-6.00		7.827e-03		-48.086		2.956e-03		18.342
3		0.00		-6.40		7.950e-03		-52.232		2.615e-03		21.288
3		0.00		-6.80		7.170e-03		-50.736		2.192e-03		20.685
3		0.00		-7.20		6.303e-03		-46.695		2.314e-03		24.509
3		0.00		-7.60		5.399e-03		-41.131		1.975e-03		30.123
3		0.00		-8.00		4.843e-03		-39.848		1.585e-03		27.299
3		0.00		-8.40		4.259e-03		-33.202		1.705e-03		35.321
3		0.00		-8.80		3.835e-03		-27.483		1.473e-03		40.515
3		0.00		-9.20		3.608e-03		-35.853		1.442e-03		32.909
3		0.00		-9.60		3.421e-03		-27.415		1.414e-03		53.100
3		0.00		-10.00		3.279e-03		-39.773		1.547e-03		40.286
3		0.00		-9.60		3.303e-03		-35.286		1.419e-03		43.566
3		0.00		-9.20		2.944e-03		-11.637		1.375e-03		59.140
3		0.00		-8.80		2.757e-03		-24.604		1.161e-03		56.865
3		0.00		-8.40		3.193e-03		-35.032		1.496e-03		52.927
3		0.00		-8.00		3.080e-03		-36.740		1.301e-03		46.580
3		0.00		-7.60		3.172e-03		-26.498		1.420e-03		43.802
3		0.00		-7.20		3.319e-03		-47.185		1.347e-03		42.043
3		0.00		-6.80		3.203e-03		-44.315		1.237e-03		44.871
3		0.00		-6.40		3.379e-03		-22.964		1.483e-03		35.389
3		0.00		-6.00		3.988e-03		-47.536		1.653e-03		28.645
3		0.00		-5.60		4.201e-03		-43.381		1.791e-03		29.458
3		0.00		-5.20		4.364e-03		-52.699		1.735e-03		34.528
3		0.00		-4.80		4.127e-03		-43.338		1.634e-03		30.735
3		0.00		-4.40		4.535e-03		-58.158		1.811e-03		29.299
3		0.00		-4.00		4.753e-03		-53.418		1.883e-03		28.602
3		0.00		-3.60		4.409e-03		-57.666		1.916e-03		31.807
3		0.00		-3.20		4.684e-03		-48.008		1.818e-03		30.060
3		0.00		-2.80		5.079e-03		-54.896		2.030e-03		30.185
3		0.00		-2.40		6.208e-03		-52.354		2.197e-03		26.011
3		0.00		-2.00		5.765e-03		-60.706		1.852e-03		21.811
3		0.00		-1.60		6.347e-03		-56.296		1.714e-03		19.269
3		0.00		-1.20		6.526e-03		-56.157		2.156e-03		21.470
3		0.00		-0.80		6.449e-03		-48.744		2.022e-03		20.302
3		0.00		-0.40		6.814e-03		-48.671		2.297e-03		19.320
4		0.00		0.00		6.949e-03		-48.764		2.113e-03		19.270
4		0.00		0.40		7.541e-03		-50.784		2.033e-03		16.424
4		0.00		0.80		7.389e-03		-51.419		2.228e-03		18.950
4		0.00		1.20		7.926e-03		-49.461		2.318e-03		20.629
4		0.00		1.60		8.341e-03		-46.892		2.606e-03		17.461
4		0.00		2.00		7.948e-03		-45.828		2.541e-03		26.767
4		0.00		2.40		8.417e-03		-50.443		2.669e-03		25.122
4		0.00		2.80		8.649e-03		-50.295		3.016e-03		23.956
4		0.00		3.20		8.475e-03		-59.838		3.150e-03		22.792
4		0.00		3.60		9.569e-03		-57.801		3.460e-03		23.902
4		0.00		4.00		1.047e-02		-63.269		3.501e-03		23.698
4		0.00		4.40		1.123e-02		-60.979		3.260e-03		21.263
4		0.00		4.80		1.184e-02		-58.834		3.411e-03		20.618
4		0.00		5.20		1.292e-02		-54.048		3.600e-03		19.216
4		0.00		5.60		1.354e-02		-53.871		3.563e-03		17.638
4		0.00		6.00		1.501e-02		-51.715		4.092e-03		15.191
4		0.00		6.40		1.585e-02		-50.705		4.019e-03		14.584
4		0.00		6.80		1.745e-02		-47.896		4.706e-03		16.832
4		0.00		7.20		1.898e-02		-50.504		5.375e-03		18.749
4		0.00		7.60		2.011e-02		-50.536		6.309e-03		24.359
4		0.00		8.00		2.069e-02		-55.671		6.701e-03		19.870
4		0.00		8.40		2.093e-02		-58.823		7.086e-03		24.753
4		0.00		8.80		2.126e-02		-60.347		7.214e-03		26.400
4		0.00		9.20		2.161e-02		-62.485		7.027e-03		24.518
4		0.00		9.60		2.228e-02		-58.771		6.857e-03		22.579
4		0.00		10.00		2.227e-02		-62.251		7.194e-03		21.804
4		0.00		9.60		2.190e-02		-60.844		6.573e-03		19.952
4		0.00		9.20		2.204e-02		-55.567		6.860e-03		18.357
4		0.00		8.80		2.129e-02		-50.483		6.473e-03		15.464
4		0.00		8.40		1.990e-02		-48.044		5.815e-03		20.136
4		0.00		8.00		2.002e-02		-50.348		6.264e-03		21.144
4		0.00		7.60		2.055e-02		-52.214		7.054e-03		24.723
4		0.00		7.20		2.023e-02		-54.528		6.608e-03		21.605
4		0.00		6.80		1.957e-02		-56.908		6.699e-03		24.619
4		0.00		6.40		1.809e-02		-60.971		6.398e-03		22.645
4		0.00		6.00		1.770e-02		-63.683		6.159e-03		24.472
4		0.00		5.60		1.769e-02		-61.728		5.792e-03		24.005
4		0.00		5.20		1.815e-02		-60.108		5.337e-03		22.109
4		0.00		4.80		1.811e-02		-57.155		4.589e-03		18.240
4		0.00		4.40		1.793e-02		-53.209		5.228e-03		16.048
4		0.00		4.00		1.736e-02		-49.368		5.171e-03		15.850
4		0.00		3.60		1.733e-02		-50.414		5.511e-03		21.066
4		0.00		3.20		1.771e-02		-50.204		5.835e-03		19.956
4		0.00		2.80		1.828e-02		-46.874		6.176e-03		27.044
4		0.00		2.40		1.806e-02		-55.535		6.360e-03		18.852
4		0.00		2.00		1.779e-02		-54.250		6.333e-03		18.824
4		0.00		1.60		1.695e-02		-53.937		5.897e-03		21.535
4		0.00		1.20		1.653e-02		-54.181		5.665e-03		23.387
4		0.00		0.80		1.635e-02		-58.852		5.269e-03		22.507
4		0.00		0.40		1.606e-02		-57.030		5.196e-03		25.115
4		0.00		0.00		1.608e-02		-57.078		4.920e-03		22.142
4		0.00		-0.40		1.611e-02		-55.984		4.537e-03		21.082
4		0.00		-0.80		1.568e-02		-55.598		4.321e-03		17.824
4		0.00		-1.20		1.534e-02		-52.911		4.168e-03		17.153
4		0.00		-1.60		1.558e-02		-51.153		4.203e-03		15.312
4		0.00		-2.00		1.536e-02		-52.489		4.654e-03		16.206
4		0.00		-2.40		1.486e-02		-48.630		4.594e-03		19.832
4		0.00		-2.80		1.426e-02		-51.467		4.716e-03		20.492
4		0.00		-3.20		1.399e-02		-53.956		4.934e-03		19.956
4		0.00		-3.60		1.319e-02		-51.865		4.713e-03		21.931
4		0.00		-4.00		1.230e-02		-55.008		4.730e-03		21.955
4		0.00		-4.40		1.081e-02		-56.831		4.060e-03		20.542
4		0.00		-4.80		1.009e-02		-58.968		4.044e-03		21.238
4		0.00		-5.20		9.788e-03		-62.023		3.526e-03		21.563
4		0.00		-5.60		9.676e-03		-62.919		3.055e-03		23.483
4		0.00		-6.00		8.947e-03		-55.439		2.598e-03		21.172
4		0.00		-6.40		7.878e-03		-54.903		2.892e-03		20.918
4		0.00		-6.80		7.188e-03		-60.300		2.329e-03		22.881
4		0.00		-7.20		6.316e-03		-45.646		2.360e-03		30.977
4		0.00		-7.60		5.986e-03		-57.324		2.113e-03		21.341
4		0.00		-8.00		5.203e-03		-50.175		1.798e-03		26.333
4		0.00		-8.40		4.332e-03		-44.233		1.877e-03		34.932
4		0.00		-8.80		4.600e-03		-44.354		1.869e-03		31.023
4		0.00		-9.20		4.373e-03		-46.433		1.898e-03		32.028
4		0.00		-9.60		3.708e-03		-50.230		1.612e-03		34.695
4		0.00		-10.00		3.644e-03		-28.461		1.645e-03		39.658
4		0.00		-9.60		3.309e-03		-30.738		1.655e-03		49.313
4		0.00		-9.20		3.055e-03		-57.761		1.622e-03		37.316
4		0.00		-8.80		3.161e-03		-46.204		1.569e-03		47.623
4		0.00		-8.40		3.230e-03		-41.145		1.526e-03		39.433
4		0.00		-8.00		3.465e-03		-49.352		1.494e-03		36.761
4		0.00		-7.60		3.089e-03		-25.542		1.375e-03		53.025
4		0.00		-7.20		3.288e-03		-22.311		1.272e-03		56.556
4		0.00		-6.80		3.446e-03		-45.477		1.502e-03		44.192
4		0.00		-6.40		3.667e-03		-53.242		1.483e-03		34.930
4		0.00		-6.00		4.185e-03		-46.724		1.561e-03		40.081
4		0.00		-5.60		4.314e-03		-47.414		1.585e-03		31.947
4		0.00		-5.20		4.649e-03		-33.004		1.861e-03		39.407
4		0.00		-4.80		5.215e-03		-43.015		1.877e-03		34.527
4		0.00		-4.40		5.290e-03		-45.552		1.959e-03		32.239
4		0.00		-4.00		5.542e-03		-35.954		1.968e-03		29.913
4		0.00		-3.60		5.254e-03		-41.667		2.214e-03		27.399
4		0.00		-3.20		4.764e-03		-51.629		2.222e-03		36.089
4		0.00		-2.80		5.479e-03		-50.632		2.271e-03		29.285
4		0.00		-2.40		6.069e-03		-55.647		2.252e-03		26.617
4		0.00		-2.00		5.884e-03		-56.869		2.141e-03		25.836
4		0.00		-1.60		6.442e-03		-60.438		1.984e-03		24.020
4		0.00		-1.20		6.852e-03		-59.698		2.059e-03		24.569
4		0.00		-0.80		6.875e-03		-57.169		2.105e-03		20.932
4		0.00		-0.40		7.181e-03		-57.802		2.360e-03		22.669
5		0.00		0.00		6.697e-03		-49.542		2.578e-03		28.295
5		0.00		0.40		6.756e-03		-56.831		2.350e-03		19.113
5		0.00		0.80		7.611e-03		-51.241		2.643e-03		20.483
5		0.00		1.20		7.816e-03		-49.524		2.649e-03		22.728
5		0.00		1.60		7.590e-03		-49.012		2.620e-03		25.889
5		0.00		2.00		8.120e-03		-51.787		2.981e-03		27.188
5		0.00		2.40		8.960e-03		-54.801		2.930e-03		23.673
5		0.00		2.80		8.144e-03		-51.694		3.160e-03		31.952
5		0.00		3.20		8.612e-03		-50.562		3.122e-03		23.761
5		0.00		3.60		9.058e-03		-48.844		3.077e-03		24.152
5		0.00		4.00		9.344e-03		-55.824		3.116e-03		24.888
5		0.00		4.40		1.038e-02		-55.973		3.489e-03		24.002
5		0.00		4.80		1.048e-02		-55.714		3.742e-03		27.141
5		0.00		5.20		1.143e-02		-56.868		3.823e-03		24.580
5		0.00		5.60		1.219e-02		-59.022		3.729e-03		23.831
5		0.00		6.00		1.307e-02		-60.580		4.098e-03		21.240
5		0.00		6.40		1.428e-02		-61.265		4.345e-03		23.383
5		0.00		6.80		1.536e-02		-61.544		4.386e-03		22.463
5		0.00		7.20		1.668e-02		-57.547		4.887e-03		19.672
5		0.00		7.60		1.826e-02		-56.021		5.145e-03		19.392
5		0.00		8.00		1.974e-02		-55.538		4.944e-03		18.344
5		0.00		8.40		2.030e-02		-56.060		5.260e-03		16.908
5		0.00		8.80		2.105e-02		-53.658		5.632e-03		16.659
5		0.00		9.20		2.284e-02		-52.855		6.090e-03		14.830
5		0.00		9.60		2.289e-02		-53.634		6.041e-03		13.361
5		0.00		10.00		2.361e-02		-51.523		6.328e-03		14.217
5		0.00		9.60		2.287e-02		-52.509		6.586e-03		15.432
5		0.00		9.20		2.187e-02		-52.091		5.740e-03		16.309
5		0.00		8.80		2.137e-02		-50.674		5.555e-03		16.835
5		0.00		8.40		2.091e-02		-51.322		5.756e-03		16.522
5		0.00		8.00		2.091e-02		-52.637		5.766e-03		16.971
5		0.00		7.60		2.027e-02		-50.696		5.905e-03		19.908
5		0.00		7.20		2.012e-02		-48.897		6.147e-03		21.159
5		0.00		6.80		2.016e-02		-48.123		6.758e-03		21.550
5		0.00		6.40		1.895e-02		-55.245		7.255e-03		18.315
5		0.00		6.00		1.895e-02		-54.855		7.171e-03		17.935
5		0.00		5.60		1.918e-02		-56.197		7.368e-03		16.251
5		0.00		5.20		1.911e-02		-56.512		7.352e-03		18.187
5		0.00		4.80		1.848e-02		-58.562		7.644e-03		19.226
5		0.00		4.40		1.894e-02		-60.375		7.461e-03		20.529
5		0.00		4.00		1.805e-02		-58.759		7.376e-03		20.594
5		0.00		3.60		1.795e-02		-60.463		7.290e-03		22.051
5		0.00		3.20		1.753e-02		-61.395		6.536e-03		22.428
5		0.00		2.80		1.727e-02		-63.292		6.471e-03		21.190
5		0.00		2.40		1.746e-02		-57.476		6.341e-03		22.097
5		0.00		2.00		1.770e-02		-56.135		5.804e-03		21.104
5		0.00		1.60		1.738e-02		-57.324		5.820e-03		20.751
5		0.00		1.20		1.704e-02		-54.908		5.029e-03		19.142
5		0.00		0.80		1.689e-02		-54.405		5.073e-03		17.762
5		0.00		0.40		1.686e-02		-50.948		4.986e-03		17.810
5		0.00		0.00		1.681e-02		-55.091		4.349e-03		16.547
5		0.00		-0.40		1.658e-02		-51.362		4.530e-03		15.598
5		0.00		-0.80		1.624e-02		-50.543		4.702e-03		15.459
5		0.00		-1.20		1.631e-02		-51.177		4.757e-03		15.893
5		0.00		-1.60		1.661e-02		-49.369		5.063e-03		16.361
5		0.00		-2.00		1.599e-02		-52.363		4.990e-03		18.616
5		0.00		-2.40		1.485e-02		-48.110		4.904e-03		26.236
5		0.00		-2.80		1.449e-02		-48.238		4.977e-03		28.876
5		0.00		-3.20		1.335e-02		-52.127		5.111e-03		25.602
5		0.00		-3.60		1.292e-02		-49.596		5.336e-03		25.096
5		0.00		-4.00		1.242e-02		-50.052		4.971e-03		22.046
5		0.00		-4.40		1.186e-02		-55.694		4.629e-03		20.821
5		0.00		-4.80		1.040e-02		-54.210		4.719e-03		20.245
5		0.00		-5.20		9.569e-03		-50.778		4.068e-03		23.767
5		0.00		-5.60		8.330e-03		-56.208		3.488e-03		27.005
5		0.00		-6.00		8.193e-03		-54.112		3.136e-03		24.759
5		0.00		-6.40		7.831e-03		-53.788		2.660e-03		23.370
5		0.00		-6.80		6.992e-03		-54.999		2.664e-03		26.115
5		0.00		-7.20		5.975e-03		-50.590		2.322e-03		27.669
5		0.00		-7.60		5.658e-03		-47.879		2.047e-03		26.814
5		0.00		-8.00		4.779e-03		-44.226		1.962e-03		32.488
5		0.00		-8.40		4.381e-03		-39.478		2.006e-03		32.455
5		0.00		-8.80		4.112e-03		-51.618		1.833e-03		36.072
5		0.00		-9.20		3.273e-03		-17.987		1.595e-03		57.026
5		0.00		-9.60		3.262e-03		-20.681		1.448e-03		62.312
5		0.00		-10.00		3.201e-03		-36.060		1.407e-03		49.370
5		0.00		-9.60		2.947e-03		-23.847		1.263e-03		59.547
5		0.00		-9.20		3.578e-03		-9.014		2.301e-03		67.975
5		0.00		-8.80		3.325e-03		-22.546		1.576e-03		65.015
5		0.00		-8.40		2.934e-03		-26.849		1.397e-03		64.989
5		0.00		-8.00		3.196e-03		-26.427		1.700e-03		64.587
5		0.00		-7.60		3.407e-03		-22.777		1.526e-03		71.732
5		0.00		-7.20		3.360e-03		-29.670		1.884e-03		75.685
5		0.00		-6.80		3.394e-03		-31.612		1.705e-03		66.153
5		0.00		-6.40		3.726e-03		-33.477		1.823e-03		65.664
5		0.00		-6.00		3.839e-03		-37.476		1.764e-03		57.263
5		0.00		-5.60		3.771e-03		-36.911		1.886e-03		52.422
5		0.00		-5.20		3.762e-03		-46.136		1.934e-03		57.456
5		0.00		-4.80		3.805e-03		-39.377		1.995e-03		52.083
5		0.00		-4.40		3.815e-03		-46.203		2.154e-03		45.707
5		0.00		-4.00		4.140e-03		-51.360		2.351e-03		48.072
5		0.00		-3.60		3.959e-03		-54.931		2.481e-03		47.758
5		0.00		-3.20		4.343e-03		-54.677		2.484e-03		37.391
5		0.00		-2.80		4.399e-03		-53.938		2.614e-03		39.079
5		0.00		-2.40		4.868e-03		-57.322		2.501e-03		32.074
5		0.00		-2.00		4.913e-03		-46.411		2.534e-03		28.480
5		0.00		-1.60		4.779e-03		-58.887		2.272e-03		26.702
5		0.00		-1.20		5.423e-03		-55.298		2.476e-03		27.147
5		0.00		-0.80		5.954e-03		-55.478		2.610e-03		23.866
5		0.00		-0.40		6.021e-03		-60.242		2.396e-03		26.542
6		0.00		0.00		6.678e-03		-56.256		2.440e-03		23.372
6		0.00		0.40		6.775e-03		-60.282		2.118e-03		23.567
6		0.00		0.80		7.082e-03		-55.379		2.361e-03		22.995
6		0.00		1.20		7.509e-03		-55.026		2.581e-03		19.009
6		0.00		1.60		7.397e-03		-54.903		2.652e-03		23.076
6		0.00		2.00		7.975e-03		-53.640		2.675e-03		19.428
6		0.00		2.40		7.815e-03		-48.704		2.805e-03		23.552
6		0.00		2.80		8.261e-03		-49.498		2.907e-03		19.031
6		0.00		3.20		8.996e-03		-52.771		2.881e-03		19.551
6		0.00		3.60		9.676e-03		-50.628		3.489e-03		18.368
6		0.00		4.00		9.885e-03		-50.874		3.636e-03		22.760
6		0.00		4.40		1.071e-02		-54.556		3.591e-03		21.220
6		0.00		4.80		1.212e-02		-55.575		4.121e-03		21.988
6		0.00		5.20		1.280e-02		-48.330		4.328e-03		26.574
6		0.00		5.60		1.316e-02		-55.051		4.825e-03		23.716
6		0.00		6.00		1.426e-02		-49.160		4.938e-03		27.200
6		0.00		6.40		1.562e-02		-53.441		5.680e-03		27.875
6		0.00		6.80		1.729e-02		-54.909		5.843e-03		24.400
6		0.00		7.20		1.803e-02		-54.174		6.010e-03		25.659
6		0.00		7.60		1.944e-02		-56.644		6.477e-03		21.659
6		0.00		8.00		2.012e-02		-58.095		6.736e-03		21.197
6		0.00		8.40		2.155e-02		-58.592		7.233e-03		21.036
6		0.00		8.80		2.209e-02		-60.254		7.973e-03		21.833
6		0.00		9.20		2.272e-02		-60.097		7.627e-03		23.273
6		0.00		9.60		2.303e-02		-60.876		7.723e-03		21.753
6		0.00		10.00		2.232e-02		-65.092		7.636e-03		23.365
6		0.00		9.60		2.206e-02		-64.550		7.443e-03		23.397
6		0.00		9.20		2.100e-02		-61.825		7.363e-03		22.540
6		0.00		8.80		2.133e-02		-62.145		7.214e-03		21.522
6		0.00		8.40		2.067e-02		-63.800		6.862e-03		21.675
6		0.00		8.00		2.035e-02		-62.592		6.440e-03		20.103
6		0.00		7.60		2.006e-02		-60.351		6.169e-03		18.059
6		0.00		7.20		1.967e-02		-57.681		5.923e-03		17.320
6		0.00		6.80		1.886e-02		-57.018		5.784e-03		18.012
6		0.00		6.40		1.861e-02		-53.195		5.626e-03		19.080
6		0.00		6.00		1.814e-02		-56.797		5.623e-03		20.439
6		0.00		5.60		1.912e-02		-53.826		5.622e-03		19.327
6		0.00		5.20		1.902e-02		-51.555		5.527e-03		24.492
6		0.00		4.80		1.891e-02		-55.283		5.650e-03		21.957
6		0.00		4.40		1.928e-02		-57.185		5.890e-03		19.217
6		0.00		4.00		1.874e-02		-55.670		6.021e-03		20.408
6		0.00		3.60		1.877e-02		-59.005		6.305e-03		20.761
6		0.00		3.20		1.835e-02		-60.100		6.200e-03		21.653
6		0.00		2.80		1.832e-02		-59.392		6.336e-03		22.652
6		0.00		2.40		1.789e-02		-61.046		6.564e-03		24.826
6		0.00		2.00		1.699e-02		-58.811		6.160e-03		23.054
6		0.00		1.60		1.732e-02		-59.557		5.758e-03		21.673
6		0.00		1.20		1.724e-02		-57.987		5.378e-03		24.095
6		0.00		0.80		1.724e-02		-58.844		5.122e-03		20.730
6		0.00		0.40		1.719e-02		-55.357		4.794e-03		18.556
6		0.00		0.00		1.701e-02		-55.604		4.369e-03		18.897
6		0.00		-0.40		1.708e-02		-52.915		4.410e-03		17.746
6		0.00		-0.80		1.741e-02		-53.827		4.458e-03		17.343
6		0.00		-1.20		1.672e-02		-55.652		4.338e-03		20.727
6		0.00		-1.60		1.601e-02		-52.188		4.532e-03		21.654
6		0.00		-2.00		1.496e-02		-52.426		4.800e-03		26.290
6		0.00		-2.40		1.384e-02		-50.645		4.877e-03		26.613
6		0.00		-2.80		1.399e-02		-55.672		5.499e-03		20.605
6		0.00		-3.20		1.302e-02		-51.568		5.232e-03		24.023
6		0.00		-3.60		1.274e-02		-52.631		5.325e-03		20.315
6		0.00		-4.00		1.153e-02		-54.525		5.301e-03		23.141
6		0.00		-4.40		1.107e-02		-57.398		5.402e-03		22.442
6		0.00		-4.80		1.056e-02		-56.379		5.051e-03		23.085
6		0.00		-5.20		9.707e-03		-51.358		4.771e-03		24.471
6		0.00		-5.60		8.622e-03		-56.748		4.405e-03		25.976
6		0.00		-6.00		7.720e-03		-50.674		3.787e-03		28.618
6		0.00		-6.40		5.934e-03		-36.872		3.159e-03		42.521
6		0.00		-6.80		5.961e-03		-37.303		2.869e-03		48.771
6		0.00		-7.20		5.593e-03		-46.685		2.421e-03		28.352
6		0.00		-7.60		5.450e-03		-40.475		2.320e-03		28.222
6		0.00		-8.00		4.262e-03		-41.499		2.131e-03		59.422
6		0.00		-8.40		3.765e-03		-32.840		2.055e-03		50.103
6		0.00		-8.80		3.988e-03		-20.635		2.281e-03		71.405
6		0.00		-9.20		3.390e-03		-32.798		1.676e-03		61.742
6		0.00		-9.60		3.488e-03		-18.622		1.850e-03		76.429
6		0.00		-10.00		3.082e-03		-23.010		1.433e-03		68.285
6		0.00		-9.60		2.885e-03		-18.851		1.527e-03		74.125
6		0.00		-9.20		3.383e-03		-27.239		2.202e-03		75.526
6		0.00		-8.80		3.088e-03		-19.573		1.819e-03		67.492
6		0.00		-8.40		3.049e-03		-17.500		1.921e-03		75.463
6		0.00		-8.00		3.117e-03		-6.504		2.335e-03		67.690
6		0.00		-7.60		3.176e-03		-40.848		2.038e-03		55.751
6		0.00		-7.20		3.252e-03		-20.490		2.139e-03		68.994
6		0.00		-6.80		3.338e-03		-16.988		2.420e-03		63.937
6		0.00		-6.40		3.262e-03		-34.720		2.319e-03		63.115
6		0.00		-6.00		3.523e-03		-46.748		2.158e-03		58.921
6		0.00		-5.60		3.272e-03		-40.383		2.104e-03		48.106
6		0.00		-5.20		3.730e-03		-40.117		1.998e-03		56.024
6		0.00		-4.80		3.635e-03		-38.196		1.969e-03		61.104
6		0.00		-4.40		3.805e-03		-29.661		2.207e-03		57.700
6		0.00		-4.00		4.350e-03		-42.917		2.439e-03		55.805
6		0.00		-3.60		3.745e-03		-36.837		2.078e-03		68.588
6		0.00		-3.20		3.777e-03		-37.828		2.168e-03		59.647
6		0.00		-2.80		4.390e-03		-29.014		2.393e-03		65.408
6		0.00		-2.40		4.402e-03		-34.747		2.436e-03		57.912
6		0.00		-2.00		4.917e-03		-41.347		2.768e-03		58.824
6		0.00		-1.60		4.760e-03		-43.571		3.218e-03		52.716
6		0.00		-1.20		5.166e-03		-48.508		3.257e-03		39.113
6		0.00		-0.80		5.303e-03		-44.481		3.263e-03		32.369
6		0.00		-0.40		4.750e-03		-53.882		3.325e-03		44.621
7		0.00		0.00		5.247e-03		-56.752		3.274e-03		41.655
7		0.00		0.40		5.348e-03		-58.794		3.189e-03		34.474
7		0.00		0.80		5.485e-03		-57.789		3.157e-03		34.935
7		0.00		1.20		5.596e-03		-60.144		2.948e-03		27.249
7		0.00		1.60		5.275e-03		-58.058		2.925e-03		38.858
7		0.00		2.00		6.018e-03		-56.572		2.840e-03		26.437
7		0.00		2.40		5.710e-03		-59.347		3.008e-03		26.660
7		0.00		2.80		5.977e-03		-52.240		3.187e-03		27.997
7		0.00		3.20		6.475e-03		-60.165		3.396e-03		26.245
7		0.00		3.60		7.879e-03		-47.195		3.864e-03		35.435
7		0.00		4.00		8.135e-03		-52.307		4.202e-03		27.964
7		0.00		4.40		8.991e-03		-42.280		4.447e-03		32.491
7		0.00		4.80		9.721e-03		-49.701		4.791e-03		23.149
7		0.00		5.20		9.788e-03		-50.384		4.937e-03		24.064
7		0.00		5.60		1.144e-02		-49.070		5.370e-03		22.350
7		0.00		6.00		1.198e-02		-54.018		5.631e-03		21.874
7		0.00		6.40		1.316e-02		-56.530		6.158e-03		23.811
7		0.00		6.80		1.396e-02		-51.747		6.326e-03		23.920
7		0.00		7.20		1.474e-02		-53.970		6.360e-03		23.453
7		0.00		7.60		1.641e-02		-53.762		6.592e-03		22.084
7		0.00		8.00		1.656e-02		-48.203		6.170e-03		19.785
7		0.00		8.40		1.811e-02		-48.741		6.308e-03		16.787
7		0.00		8.80		1.926e-02		-49.465		7.065e-03		17.249
7		0.00		9.20		2.085e-02		-50.430		7.945e-03		17.184
7		0.00		9.60		2.213e-02		-49.267		8.409e-03		22.872
7		0.00		10.00		2.279e-02		-50.294		8.715e-03		23.151
7		0.00		9.60		2.239e-02		-51.981		9.502e-03		25.740
7		0.00		9.20		2.134e-02		-55.353		1.018e-02		20.131
7		0.00		8.80		2.067e-02		-54.993		9.927e-03		21.147
7		0.00		8.40		1.969e-02		-54.106		9.827e-03		20.504
7		0.00		8.00		1.868e-02		-56.150		9.717e-03		22.038
7		0.00		7.60		1.835e-02		-58.191		8.805e-03		22.481
7		0.00		7.20		1.746e-02		-57.156		7.686e-03		24.343
7		0.00		6.80		1.711e-02		-56.578		7.255e-03		23.591
7		0.00		6.40		1.684e-02		-55.288		6.537e-03		20.909
7		0.00		6.00		1.735e-02		-52.273		5.923e-03		17.838
7		0.00		5.60		1.790e-02		-49.244		6.139e-03		17.316
7		0.00		5.20		1.781e-02		-52.159		6.467e-03		17.151
7		0.00		4.80		1.824e-02		-48.275		6.360e-03		20.841
7		0.00		4.40		1.756e-02		-46.461		7.002e-03		26.591
7		0.00		4.00		1.847e-02		-49.320		7.183e-03		22.100
7		0.00		3.60		1.853e-02		-52.082		7.327e-03		19.004
7		0.00		3.20		1.807e-02		-53.670		8.022e-03		21.569
7		0.00		2.80		1.828e-02		-54.231		7.692e-03		19.398
7		0.00		2.40		1.731e-02		-55.883		7.573e-03		20.955
7		0.00		2.00		1.740e-02		-57.293		7.133e-03		21.802
7		0.00		1.60		1.738e-02		-58.104		6.746e-03		24.012
7		0.00		1.20		1.743e-02		-54.589		6.526e-03		23.187
7		0.00		0.80		1.706e-02		-55.818		6.057e-03		23.847
7		0.00		0.40		1.722e-02		-51.635		5.420e-03		18.761
7		0.00		0.00		1.709e-02		-53.874		4.860e-03		18.671
7		0.00		-0.40		1.776e-02		-56.061		4.852e-03		15.525
7		0.00		-0.80		1.780e-02		-51.651		4.547e-03		14.346
7		0.00		-1.20		1.746e-02		-53.806		4.646e-03		16.192
7		0.00		-1.60		1.793e-02		-54.752		5.010e-03		15.503
7		0.00		-2.00		1.720e-02		-53.859		5.370e-03		19.967
7		0.00		-2.40		1.740e-02		-54.412		5.611e-03		20.527
7		0.00		-2.80		1.597e-02		-53.247		5.520e-03		21.606
7		0.00		-3.20		1.634e-02		-55.574		5.646e-03		19.583
7		0.00		-3.60		1.542e-02		-57.435		5.297e-03		18.579
7		0.00		-4.00		1.380e-02		-57.703		5.433e-03		20.765
7		0.00		-4.40		1.281e-02		-60.142		5.280e-03		22.699
7		0.00		-4.80		1.090e-02		-58.389		5.186e-03		24.011
7		0.00		-5.20		1.091e-02		-51.678		4.675e-03		24.495
7		0.00		-5.60		1.036e-02		-59.704		4.237e-03		23.651
7		0.00		-6.00		9.809e-03		-58.763		3.880e-03		23.278
7		0.00		-6.40		8.400e-03		-55.294		3.618e-03		24.641
7		0.00		-6.80		7.741e-03		-55.035		3.030e-03		24.852
7		0.00		-7.20		6.963e-03		-50.864		2.804e-03		21.831
7		0.00		-7.60		5.693e-03		-48.212		2.558e-03		26.516
7		0.00		-8.00		5.054e-03		-31.548		2.549e-03		43.446
7		0.00		-8.40		5.008e-03		-48.116		2.295e-03		26.545
7		0.00		-8.80		4.181e-03		-46.869		2.040e-03		35.014
7		0.00		-9.20		4.459e-03		-45.203		2.170e-03		39.440
7		0.00		-9.60		4.040e-03		-43.579		2.061e-03		34.370
7		0.00		-10.00		3.525e-03		-37.018		2.005e-03		57.378
7		0.00		-9.60		3.483e-03		-41.685		1.912e-03		47.144
7		0.00		-9.20		3.866e-03		-52.791		1.994e-03		41.438
7		0.00		-8.80		3.535e-03		-40.789		2.197e-03		45.290
7		0.00		-8.40		3.338e-03		-40.721		2.046e-03		41.556
7		0.00		-8.00		3.744e-03		-57.473		1.931e-03		33.047
7		0.00		-7.60		3.577e-03		-38.888		1.776e-03		61.701
7		0.00		-7.20		4.012e-03		-43.112		1.860e-03		44.599
7		0.00		-6.80		4.461e-03		-56.473		1.897e-03		27.789
7		0.00		-6.40		4.362e-03		-56.812		1.932e-03		38.737
7		0.00		-6.00		4.082e-03		-62.751		1.923e-03		32.958
7		0.00		-5.60		4.640e-03		-55.669		2.253e-03		30.934
7		0.00		-5.20		5.338e-03		-45.242		2.585e-03		34.484
7		0.00		-4.80		5.947e-03		-59.017		2.477e-03		20.212
7		0.00		-4.40		4.956e-03		-56.637		2.606e-03		27.307
7		0.00		-4.00		5.232e-03		-48.297		2.856e-03		31.174
7		0.00		-3.60		6.293e-03		-52.705		2.666e-03		27.585
7		0.00		-3.20		6.120e-03		-52.281		2.714e-03		32.660
7		0.00		-2.80		6.625e-03		-52.133		2.426e-03		24.149
7		0.00		-2.40		6.872e-03		-52.598		3.015e-03		22.933
7		0.00		-2.00		6.096e-03		-54.829		2.699e-03		27.754
7		0.00		-1.60		6.765e-03		-56.703		2.618e-03		26.387
7		0.00		-1.20		6.600e-03		-56.921		2.482e-03		27.037
7		0.00		-0.80		7.355e-03		-53.217		2.502e-03		23.553
7		0.00		-0.40		7.506e-03		-51.445		2.496e-03		24.337
8		0.00		0.00		8.094e-03		-51.865		2.450e-03		19.969
8		0.00		0.40		8.375e-03		-51.502		2.959e-03		17.970
8		0.00		0.80		8.981e-03		-54.641		2.885e-03		19.911
8		0.00		1.20		8.998e-03		-58.392		3.105e-03		21.004
8		0.00		1.60		8.937e-03		-48.547		3.501e-03		24.952
8		0.00		2.00		8.785e-03		-53.212		3.514e-03		21.687
8		0.00		2.40		9.115e-03		-56.378		3.614e-03		25.458
8		0.00		2.80		8.628e-03		-53.071		4.004e-03		24.808
8		0.00		3.20		8.865e-03		-57.024		3.743e-03		24.994
8		0.00		3.60		8.650e-03		-62.726		3.255e-03		24.170
8		0.00		4.00		1.020e-02		-57.031		3.177e-03		21.441
8		0.00		4.40		1.109e-02		-54.982		3.435e-03		17.908
8		0.00		4.80		1.171e-02		-55.722		3.382e-03		19.788
8		0.00		5.20		1.285e-02		-57.126		3.973e-03		20.548
8		0.00		5.60		1.376e-02		-56.291		4.544e-03		20.208
8		0.00		6.00		1.494e-02		-57.794		5.307e-03		20.751
8		0.00		6.40		1.474e-02		-60.070		5.730e-03		23.891
8		0.00		6.80		1.569e-02		-59.495		6.310e-03		24.136
8		0.00		7.20		1.724e-02		-60.517		6.429e-03		22.413
8		0.00		7.60		1.773e-02		-60.004		6.867e-03		22.970
8		0.00		8.00		1.813e-02		-58.209		7.101e-03		22.049
8		0.00		8.40		2.021e-02		-57.153		6.963e-03		18.068
8		0.00		8.80		2.132e-02		-56.193		7.004e-03		16.907
8		0.00		9.20		2.315e-02		-54.907		6.854e-03		16.442
8		0.00		9.60		2.360e-02		-56.435		6.907e-03		20.824
8		0.00		10.00		2.391e-02		-58.763		7.171e-03		20.171
8		0.00		9.60		2.414e-02		-57.155		7.256e-03		18.117
8		0.00		9.20		2.260e-02		-57.873		7.499e-03		19.686
8		0.00		8.80		2.250e-02		-57.332		7.624e-03		18.784
8		0.00		8.40		2.092e-02		-58.299		7.308e-03		20.959
8		0.00		8.00		2.026e-02		-60.414		7.625e-03		22.524
8		0.00		7.60		1.904e-02		-59.330		7.169e-03		22.832
8		0.00		7.20		1.879e-02		-57.914		6.416e-03		20.771
8		0.00		6.80		1.851e-02		-59.178		5.776e-03		19.970
8		0.00		6.40		1.929e-02		-53.595		5.224e-03		16.386
8		0.00		6.00		1.942e-02		-55.063		5.042e-03		16.492
8		0.00		5.60		1.937e-02		-55.638		5.153e-03		17.151
8		0.00		5.20		1.942e-02		-56.053		4.910e-03		19.506
8		0.00		4.80		1.993e-02		-55.137		5.344e-03		18.756
8		0.00		4.40		1.963e-02		-57.116		5.679e-03		17.686
8		0.00		4.00		1.963e-02		-56.801		5.401e-03		20.367
8		0.00		3.60		1.879e-02		-58.074		6.000e-03		20.165
8		0.00		3.20		1.840e-02		-58.312		5.953e-03		22.797
8		0.00		2.80		1.844e-02		-57.698		5.717e-03		22.615
8		0.00		2.40		1.802e-02		-57.144		5.704e-03		23.050
8		0.00		2.00		1.794e-02		-55.968		5.177e-03		22.115
8		0.00		1.60		1.839e-02		-54.418		5.019e-03		18.720
8		0.00		1.20		1.872e-02		-55.293		4.451e-03		16.418
8		0.00		0.80		1.857e-02		-53.654		4.704e-03		17.721
8		0.00		0.40		1.853e-02		-56.290		4.968e-03		21.305
8		0.00		0.00		1.885e-02		-59.200		5.125e-03		20.556
8		0.00		-0.40		1.841e-02		-59.030		5.085e-03		22.554
8		0.00		-0.80		1.844e-02		-58.423		5.249e-03		22.125
8		0.00		-1.20		1.712e-02		-58.769		5.148e-03		22.399
8		0.00		-1.60		1.691e-02		-62.241		5.340e-03		24.089
8		0.00		-2.00		1.507e-02		-62.732		5.027e-03		26.353
8		0.00		-2.40		1.577e-02		-60.659		4.956e-03		24.932
8		0.00		-2.80		1.447e-02		-62.082		4.595e-03		25.652
8		0.00		-3.20		1.408e-02		-59.739		4.576e-03		21.321
8		0.00		-3.60		1.351e-02		-56.048		4.165e-03		19.396
8		0.00		-4.00		1.351e-02		-57.440		4.174e-03		18.273
8		0.00		-4.40		1.332e-02		-58.414		4.307e-03		19.954
8		0.00		-4.80		1.282e-02		-57.641		4.421e-03		23.395
8		0.00		-5.20		1.226e-02		-56.364		4.625e-03		24.700
8		0.00		-5.60		1.090e-02		-57.187		4.248e-03		23.140
8		0.00		-6.00		1.008e-02		-55.749		4.269e-03		23.757
8		0.00		-6.40		9.023e-03		-57.399		3.926e-03		22.791
8		0.00		-6.80		7.820e-03		-57.758		3.348e-03		24.420
8		0.00		-7.20		7.301e-03		-55.516		3.188e-03		25.493
8		0.00		-7.60		6.161e-03		-51.459		2.752e-03		28.333
8		0.00		-8.00		5.593e-03		-51.349		2.589e-03		27.023
8		0.00		-8.40		5.232e-03		-48.814		2.482e-03		30.726
8		0.00		-8.80		4.847e-03		-48.608		2.356e-03		29.772
8		0.00		-9.20		3.774e-03		-30.970		2.386e-03		61.133
8		0.00		-9.60		3.748e-03		-38.889		2.192e-03		42.688
8		0.00		-10.00		3.578e-03		-27.336		2.079e-03		52.204
8		0.00		-9.60		3.154e-03		-42.193		2.114e-03		54.020
8		0.00		-9.20		2.672e-03		-30.901		1.739e-03		62.665
8		0.00		-8.80		2.969e-03		-38.941		1.908e-03		60.633
8		0.00		-8.40		3.020e-03		-58.684		2.039e-03		48.406
8		0.00		-8.00		3.266e-03		-57.698		1.880e-03		51.141
8		0.00		-7.60		3.019e-03		-38.347		1.815e-03		54.582
8		0.00		-7.20		3.194e-03		-31.604		1.801e-03		61.177
8		0.00		-6.80		3.331e-03		-57.895		1.914e-03		60.345
8		0.00		-6.40		3.779e-03		-38.503		2.343e-03		56.636
8		0.00		-6.00		3.927e-03		-40.255		2.357e-03		61.018
8		0.00		-5.60		3.942e-03		-46.517		2.381e-03		46.141
8		0.00		-5.20		4.173e-03		-46.690		2.743e-03		54.837
8		0.00		-4.80		4.204e-03		-35.125		2.812e-03		50.174
8		0.00		-4.40		4.112e-03		-41.292		2.766e-03		52.099
8		0.00		-4.00		4.259e-03		-37.474		2.884e-03		51.837
8		0.00		-3.60		4.237e-03		-39.349		2.769e-03		51.976
8		0.00		-3.20		4.072e-03		-46.400		2.558e-03		49.508
8		0.00		-2.80		4.410e-03		-46.612		2.247e-03		33.472
8		0.00		-2.40		4.945e-03		-49.269		2.606e-03		34.303
8		0.00		-2.00		5.131e-03		-54.294		2.521e-03		30.836
8		0.00		-1.60		4.872e-03		-55.597		2.673e-03		44.001
8		0.00		-1.20		4.842e-03		-58.037		2.658e-03		46.836
8		0.00		-0.80		5.686e-03		-56.103		2.638e-03		27.633
8		0.00		-0.40		5.749e-03		-58.184		2.647e-03		23.740
