# Date of analysis: 2024-03-08 10;59
# Segment other properties: height: -57.07657398742554, diff height: 518.5766940544455, deflection: 33.402134433325955, deflection error: 2.8999181339596887, adhesion: 31.588375300443783, phase offset: 0
# 
# Loop index	Read Volt (V)	Write Volt (V)	Amplitude (a.u)	Phase (deg)	Sigma Amp (a.u)	Sigma Pha (deg)	
1		0.00		0.00		6.529e-03		-48.756		1.547e-03		18.266
1		0.00		0.40		6.502e-03		-46.242		1.699e-03		16.041
1		0.00		0.80		6.603e-03		-35.673		1.879e-03		18.358
1		0.00		1.20		7.167e-03		-44.713		1.829e-03		18.393
1		0.00		1.60		6.699e-03		-38.999		2.001e-03		17.203
1		0.00		2.00		6.731e-03		-46.843		1.670e-03		18.320
1		0.00		2.40		7.410e-03		-51.038		1.728e-03		18.879
1		0.00		2.80		7.774e-03		-50.788		1.744e-03		18.675
1		0.00		3.20		7.832e-03		-47.515		1.868e-03		18.537
1		0.00		3.60		8.313e-03		-51.767		1.835e-03		15.480
1		0.00		4.00		8.909e-03		-53.178		1.961e-03		18.057
1		0.00		4.40		9.258e-03		-50.979		2.317e-03		13.814
1		0.00		4.80		9.637e-03		-50.708		2.449e-03		15.845
1		0.00		5.20		1.042e-02		-48.656		2.528e-03		13.576
1		0.00		5.60		1.108e-02		-47.892		2.566e-03		14.149
1		0.00		6.00		1.203e-02		-50.230		3.070e-03		15.754
1		0.00		6.40		1.245e-02		-49.320		3.349e-03		15.804
1		0.00		6.80		1.299e-02		-50.947		3.700e-03		15.581
1		0.00		7.20		1.402e-02		-53.705		3.618e-03		12.597
1		0.00		7.60		1.551e-02		-53.250		4.241e-03		11.969
1		0.00		8.00		1.593e-02		-52.970		4.065e-03		13.051
1		0.00		8.40		1.673e-02		-53.767		3.935e-03		14.464
1		0.00		8.80		1.830e-02		-55.041		4.625e-03		15.132
1		0.00		9.20		1.926e-02		-54.866		4.692e-03		13.853
1		0.00		9.60		2.049e-02		-54.039		4.960e-03		12.355
1		0.00		10.00		2.202e-02		-54.033		5.197e-03		12.269
1		0.00		9.60		2.327e-02		-53.626		5.378e-03		12.940
1		0.00		9.20		2.357e-02		-53.824		5.836e-03		14.066
1		0.00		8.80		2.378e-02		-52.377		5.876e-03		13.464
1		0.00		8.40		2.363e-02		-52.547		6.240e-03		14.843
1		0.00		8.00		2.394e-02		-52.267		6.255e-03		12.961
1		0.00		7.60		2.370e-02		-51.664		6.253e-03		11.195
1		0.00		7.20		2.315e-02		-53.398		6.121e-03		12.642
1		0.00		6.80		2.387e-02		-52.399		5.674e-03		10.707
1		0.00		6.40		2.367e-02		-52.711		5.766e-03		12.803
1		0.00		6.00		2.298e-02		-55.473		5.255e-03		12.630
1		0.00		5.60		2.237e-02		-54.080		5.500e-03		14.351
1		0.00		5.20		2.236e-02		-52.393		5.510e-03		14.787
1		0.00		4.80		2.174e-02		-52.278		5.564e-03		13.668
1		0.00		4.40		2.133e-02		-54.694		6.201e-03		14.929
1		0.00		4.00		2.115e-02		-54.183		6.182e-03		17.661
1		0.00		3.60		2.067e-02		-53.734		6.553e-03		17.224
1		0.00		3.20		2.081e-02		-53.774		6.457e-03		12.859
1		0.00		2.80		2.075e-02		-52.808		6.168e-03		11.361
1		0.00		2.40		2.080e-02		-51.777		5.603e-03		12.776
1		0.00		2.00		2.126e-02		-54.321		5.210e-03		12.232
1		0.00		1.60		2.061e-02		-53.170		5.175e-03		13.033
1		0.00		1.20		2.084e-02		-54.781		5.018e-03		13.489
1		0.00		0.80		2.063e-02		-51.703		5.222e-03		13.496
1		0.00		0.40		2.032e-02		-50.279		5.309e-03		14.738
1		0.00		0.00		2.028e-02		-50.567		5.598e-03		12.266
1		0.00		-0.40		2.009e-02		-52.717		5.905e-03		11.695
1		0.00		-0.80		1.973e-02		-53.175		5.373e-03		11.106
1		0.00		-1.20		2.012e-02		-55.150		5.016e-03		13.104
1		0.00		-1.60		1.999e-02		-54.406		4.929e-03		12.762
1		0.00		-2.00		1.939e-02		-54.089		4.685e-03		13.938
1		0.00		-2.40		1.930e-02		-51.037		4.726e-03		13.172
1		0.00		-2.80		1.869e-02		-50.641		5.385e-03		13.964
1		0.00		-3.20		1.748e-02		-48.495		5.159e-03		17.587
1		0.00		-3.60		1.713e-02		-51.063		5.093e-03		14.091
1		0.00		-4.00		1.690e-02		-53.434		4.970e-03		14.122
1		0.00		-4.40		1.595e-02		-55.481		4.522e-03		13.185
1		0.00		-4.80		1.558e-02		-55.100		4.030e-03		14.781
1		0.00		-5.20		1.486e-02		-53.037		3.497e-03		14.783
1		0.00		-5.60		1.397e-02		-51.179		3.749e-03		14.707
1		0.00		-6.00		1.256e-02		-50.636		3.161e-03		18.371
1		0.00		-6.40		1.147e-02		-51.529		3.137e-03		16.593
1		0.00		-6.80		9.827e-03		-47.534		2.653e-03		16.397
1		0.00		-7.20		7.993e-03		-47.907		2.194e-03		16.786
1		0.00		-7.60		5.748e-03		-42.075		1.757e-03		20.355
1		0.00		-8.00		3.354e-03		-40.272		1.106e-03		32.100
1		0.00		-8.40		2.047e-03		-1.752		9.409e-04		64.623
1		0.00		-8.80		2.155e-03		52.254		8.646e-04		66.344
1		0.00		-9.20		3.558e-03		93.729		1.273e-03		54.742
1		0.00		-9.60		4.924e-03		111.494		1.848e-03		35.297
1		0.00		-10.00		6.626e-03		116.667		2.207e-03		19.576
1		0.00		-9.60		8.182e-03		116.233		2.862e-03		25.225
1		0.00		-9.20		8.336e-03		120.671		2.699e-03		23.125
1		0.00		-8.80		8.783e-03		121.963		3.041e-03		17.273
1		0.00		-8.40		9.188e-03		118.030		2.946e-03		25.782
1		0.00		-8.00		9.416e-03		119.883		3.059e-03		12.948
1		0.00		-7.60		9.629e-03		121.220		2.901e-03		14.717
1		0.00		-7.20		9.620e-03		120.004		2.660e-03		13.967
1		0.00		-6.80		9.134e-03		118.111		2.449e-03		18.633
1		0.00		-6.40		9.450e-03		123.905		2.939e-03		15.409
1		0.00		-6.00		9.248e-03		121.268		2.568e-03		15.115
1		0.00		-5.60		8.732e-03		116.374		2.723e-03		22.860
1		0.00		-5.20		8.836e-03		119.042		2.645e-03		19.392
1		0.00		-4.80		8.106e-03		116.993		2.774e-03		25.391
1		0.00		-4.40		8.184e-03		118.988		2.527e-03		26.404
1		0.00		-4.00		7.718e-03		122.617		2.285e-03		24.020
1		0.00		-3.60		7.806e-03		114.239		2.504e-03		23.210
1		0.00		-3.20		7.463e-03		113.945		2.435e-03		24.561
1		0.00		-2.80		7.206e-03		117.459		2.337e-03		22.549
1		0.00		-2.40		7.534e-03		120.337		2.329e-03		19.297
1		0.00		-2.00		7.350e-03		119.210		2.244e-03		19.170
1		0.00		-1.60		7.327e-03		118.467		2.296e-03		16.572
1		0.00		-1.20		6.987e-03		118.073		2.305e-03		20.627
1		0.00		-0.80		6.855e-03		111.972		2.422e-03		36.095
1		0.00		-0.40		6.330e-03		111.931		2.371e-03		38.225
2		0.00		0.00		6.463e-03		116.608		2.255e-03		27.222
2		0.00		0.40		6.526e-03		121.717		2.526e-03		19.497
2		0.00		0.80		6.326e-03		116.685		2.296e-03		21.971
2		0.00		1.20		5.580e-03		122.205		2.043e-03		25.332
2		0.00		1.60		4.930e-03		110.208		1.790e-03		24.134
2		0.00		2.00		4.669e-03		119.660		1.828e-03		25.918
2		0.00		2.40		3.850e-03		112.196		1.597e-03		35.626
2		0.00		2.80		3.473e-03		100.377		1.339e-03		43.633
2		0.00		3.20		2.824e-03		79.737		1.056e-03		62.796
2		0.00		3.60		2.409e-03		79.251		1.059e-03		57.359
2		0.00		4.00		1.787e-03		32.768		8.305e-04		75.522
2		0.00		4.40		1.825e-03		-18.396		6.544e-04		69.648
2		0.00		4.80		2.032e-03		-46.314		8.903e-04		50.695
2		0.00		5.20		2.683e-03		-52.278		9.271e-04		43.988
2		0.00		5.60		2.923e-03		-57.556		1.065e-03		32.078
2		0.00		6.00		3.997e-03		-45.812		1.248e-03		25.425
2		0.00		6.40		4.806e-03		-45.313		1.528e-03		19.897
2		0.00		6.80		5.560e-03		-43.245		1.507e-03		18.238
2		0.00		7.20		6.534e-03		-47.261		1.792e-03		18.746
2		0.00		7.60		7.581e-03		-55.426		2.196e-03		17.403
2		0.00		8.00		9.355e-03		-51.199		2.109e-03		16.186
2		0.00		8.40		1.050e-02		-51.753		2.495e-03		16.012
2		0.00		8.80		1.158e-02		-48.421		2.851e-03		13.490
2		0.00		9.20		1.351e-02		-51.295		3.419e-03		15.328
2		0.00		9.60		1.539e-02		-52.402		4.283e-03		16.366
2		0.00		10.00		1.798e-02		-52.092		5.371e-03		12.583
2		0.00		9.60		1.932e-02		-53.150		5.807e-03		13.216
2		0.00		9.20		2.074e-02		-54.000		5.760e-03		13.235
2		0.00		8.80		2.201e-02		-54.722		5.111e-03		10.590
2		0.00		8.40		2.168e-02		-54.859		5.087e-03		11.479
2		0.00		8.00		2.203e-02		-51.532		5.153e-03		12.192
2		0.00		7.60		2.197e-02		-52.562		5.059e-03		10.872
2		0.00		7.20		2.106e-02		-52.251		5.203e-03		15.362
2		0.00		6.80		2.096e-02		-51.230		5.374e-03		13.256
2		0.00		6.40		2.106e-02		-52.555		5.697e-03		13.283
2		0.00		6.00		2.059e-02		-54.487		5.096e-03		12.648
2		0.00		5.60		2.082e-02		-55.370		4.760e-03		12.921
2		0.00		5.20		2.041e-02		-55.069		4.624e-03		12.644
2		0.00		4.80		2.039e-02		-54.208		4.685e-03		12.260
2		0.00		4.40		1.990e-02		-52.351		5.008e-03		12.086
2		0.00		4.00		1.950e-02		-52.322		5.332e-03		15.522
2		0.00		3.60		1.915e-02		-55.183		5.575e-03		15.560
2		0.00		3.20		1.861e-02		-51.801		5.667e-03		13.842
2		0.00		2.80		1.828e-02		-51.194		5.786e-03		11.818
2		0.00		2.40		1.868e-02		-54.365		5.485e-03		13.546
2		0.00		2.00		1.834e-02		-54.179		5.073e-03		14.171
2		0.00		1.60		1.827e-02		-52.633		5.001e-03		14.364
2		0.00		1.20		1.826e-02		-53.597		4.755e-03		13.006
2		0.00		0.80		1.785e-02		-52.143		4.874e-03		16.539
2		0.00		0.40		1.796e-02		-52.515		4.569e-03		13.961
2		0.00		0.00		1.771e-02		-52.372		4.730e-03		14.153
2		0.00		-0.40		1.713e-02		-49.731		4.724e-03		16.322
2		0.00		-0.80		1.731e-02		-50.122		4.631e-03		13.537
2		0.00		-1.20		1.723e-02		-50.165		4.631e-03		9.999
2		0.00		-1.60		1.695e-02		-53.851		4.394e-03		15.284
2		0.00		-2.00		1.634e-02		-54.525		3.982e-03		13.760
2		0.00		-2.40		1.638e-02		-53.327		3.975e-03		13.672
2		0.00		-2.80		1.568e-02		-51.855		3.768e-03		14.105
2		0.00		-3.20		1.492e-02		-51.678		3.711e-03		13.450
2		0.00		-3.60		1.490e-02		-50.205		3.742e-03		14.429
2		0.00		-4.00		1.407e-02		-50.039		4.059e-03		15.801
2		0.00		-4.40		1.307e-02		-48.612		3.804e-03		13.706
2		0.00		-4.80		1.256e-02		-48.754		3.678e-03		14.811
2		0.00		-5.20		1.183e-02		-47.302		3.201e-03		12.643
2		0.00		-5.60		1.115e-02		-54.525		2.833e-03		15.170
2		0.00		-6.00		9.833e-03		-57.847		2.600e-03		15.264
2		0.00		-6.40		8.558e-03		-48.554		2.337e-03		18.515
2		0.00		-6.80		7.109e-03		-47.638		2.198e-03		18.644
2		0.00		-7.20		5.357e-03		-47.639		1.664e-03		21.907
2		0.00		-7.60		4.099e-03		-44.333		1.311e-03		27.849
2		0.00		-8.00		2.638e-03		-33.661		1.080e-03		37.137
2		0.00		-8.40		1.815e-03		7.062		6.489e-04		66.606
2		0.00		-8.80		2.185e-03		57.719		9.064e-04		56.459
2		0.00		-9.20		3.901e-03		95.361		1.474e-03		44.184
2		0.00		-9.60		5.570e-03		112.997		1.810e-03		25.459
2		0.00		-10.00		7.724e-03		119.506		2.148e-03		17.437
2		0.00		-9.60		8.864e-03		121.221		2.896e-03		22.030
2		0.00		-9.20		9.149e-03		118.530		3.115e-03		24.844
2		0.00		-8.80		9.586e-03		119.939		3.364e-03		27.290
2		0.00		-8.40		1.015e-02		123.000		3.273e-03		16.531
2		0.00		-8.00		1.002e-02		119.399		3.361e-03		18.860
2		0.00		-7.60		1.024e-02		117.604		3.042e-03		15.436
2		0.00		-7.20		1.002e-02		122.030		3.102e-03		16.851
2		0.00		-6.80		9.779e-03		119.836		3.149e-03		16.051
2		0.00		-6.40		9.074e-03		115.815		2.921e-03		20.820
2		0.00		-6.00		9.340e-03		116.728		3.500e-03		25.358
2		0.00		-5.60		8.936e-03		114.764		3.310e-03		23.790
2		0.00		-5.20		9.024e-03		119.129		2.998e-03		19.514
2		0.00		-4.80		9.244e-03		119.993		2.835e-03		14.975
2		0.00		-4.40		8.530e-03		114.786		2.842e-03		21.164
2		0.00		-4.00		8.395e-03		117.167		2.605e-03		13.806
2		0.00		-3.60		8.292e-03		122.372		2.662e-03		18.660
2		0.00		-3.20		8.343e-03		117.875		2.401e-03		19.242
2		0.00		-2.80		8.124e-03		111.898		2.682e-03		35.782
2		0.00		-2.40		8.540e-03		120.020		2.582e-03		19.184
2		0.00		-2.00		8.193e-03		120.633		2.421e-03		18.008
2		0.00		-1.60		8.599e-03		120.171		2.636e-03		15.474
2		0.00		-1.20		8.512e-03		123.931		2.412e-03		13.061
2		0.00		-0.80		8.533e-03		115.525		2.319e-03		13.501
2		0.00		-0.40		8.117e-03		120.541		2.252e-03		21.809
3		0.00		0.00		7.466e-03		121.653		2.204e-03		19.937
3		0.00		0.40		7.844e-03		119.480		2.601e-03		31.493
3		0.00		0.80		6.929e-03		114.370		2.533e-03		31.297
3		0.00		1.20		6.827e-03		116.457		2.473e-03		23.429
3		0.00		1.60		6.591e-03		123.568		2.248e-03		17.788
3		0.00		2.00		5.941e-03		123.631		1.880e-03		23.418
3		0.00		2.40		5.185e-03		121.413		1.648e-03		21.582
3		0.00		2.80		4.321e-03		109.701		1.408e-03		29.151
3		0.00		3.20		3.762e-03		116.044		1.391e-03		41.168
3		0.00		3.60		3.009e-03		96.614		1.324e-03		53.997
3		0.00		4.00		2.220e-03		47.569		9.954e-04		76.475
3		0.00		4.40		1.764e-03		32.623		8.385e-04		73.375
3		0.00		4.80		1.756e-03		9.653		6.369e-04		75.669
3		0.00		5.20		1.998e-03		-39.959		8.013e-04		56.712
3		0.00		5.60		2.414e-03		-55.584		8.448e-04		38.643
3		0.00		6.00		2.969e-03		-68.263		1.102e-03		36.867
3		0.00		6.40		3.924e-03		-49.642		1.080e-03		26.859
3		0.00		6.80		4.213e-03		-44.025		1.289e-03		23.863
3		0.00		7.20		5.221e-03		-44.478		1.613e-03		18.363
3		0.00		7.60		6.397e-03		-54.121		1.784e-03		19.850
3		0.00		8.00		7.471e-03		-47.710		2.024e-03		15.817
3		0.00		8.40		8.556e-03		-48.749		2.234e-03		13.465
3		0.00		8.80		1.021e-02		-50.124		2.778e-03		16.711
3		0.00		9.20		1.214e-02		-50.957		2.897e-03		14.895
3		0.00		9.60		1.401e-02		-53.387		3.371e-03		13.785
3		0.00		10.00		1.722e-02		-54.766		4.077e-03		13.338
3		0.00		9.60		1.838e-02		-54.846		4.811e-03		12.879
3		0.00		9.20		1.936e-02		-53.513		4.777e-03		14.336
3		0.00		8.80		1.965e-02		-52.492		5.309e-03		15.474
3		0.00		8.40		2.004e-02		-53.573		5.954e-03		16.249
3		0.00		8.00		2.000e-02		-54.787		6.142e-03		16.259
3		0.00		7.60		2.021e-02		-53.167		5.805e-03		13.608
3		0.00		7.20		2.063e-02		-55.213		5.061e-03		12.802
3		0.00		6.80		2.028e-02		-53.762		4.871e-03		11.048
3		0.00		6.40		2.032e-02		-55.341		4.678e-03		11.801
3		0.00		6.00		2.027e-02		-54.997		4.582e-03		12.889
3		0.00		5.60		1.976e-02		-51.703		4.465e-03		13.009
3		0.00		5.20		1.950e-02		-52.673		4.616e-03		11.802
3		0.00		4.80		1.893e-02		-52.406		4.568e-03		13.384
3		0.00		4.40		1.906e-02		-53.837		4.992e-03		15.806
3		0.00		4.00		1.848e-02		-50.093		4.867e-03		11.119
3		0.00		3.60		1.862e-02		-49.943		5.125e-03		11.867
3		0.00		3.20		1.813e-02		-53.005		4.936e-03		11.121
3		0.00		2.80		1.797e-02		-51.796		4.403e-03		12.775
3		0.00		2.40		1.795e-02		-53.408		4.044e-03		11.299
3		0.00		2.00		1.793e-02		-51.676		4.210e-03		14.057
3		0.00		1.60		1.765e-02		-51.402		4.251e-03		13.501
3		0.00		1.20		1.773e-02		-51.021		4.016e-03		12.855
3		0.00		0.80		1.690e-02		-53.167		4.436e-03		14.138
3		0.00		0.40		1.709e-02		-52.213		4.983e-03		13.907
3		0.00		0.00		1.678e-02		-48.166		4.742e-03		13.506
3		0.00		-0.40		1.672e-02		-50.322		4.592e-03		14.020
3		0.00		-0.80		1.636e-02		-54.683		4.644e-03		12.308
3		0.00		-1.20		1.663e-02		-53.551		3.953e-03		12.516
3		0.00		-1.60		1.666e-02		-52.599		3.808e-03		14.129
3		0.00		-2.00		1.566e-02		-55.327		3.648e-03		13.833
3		0.00		-2.40		1.563e-02		-50.991		3.692e-03		12.142
3		0.00		-2.80		1.528e-02		-52.918		3.743e-03		11.627
3		0.00		-3.20		1.462e-02		-48.452		3.705e-03		14.802
3		0.00		-3.60		1.401e-02		-47.903		3.648e-03		14.794
3		0.00		-4.00		1.355e-02		-45.600		3.499e-03		16.471
3		0.00		-4.40		1.299e-02		-52.893		3.488e-03		13.431
3		0.00		-4.80		1.224e-02		-51.997		3.107e-03		11.842
3		0.00		-5.20		1.078e-02		-50.367		2.808e-03		15.115
3		0.00		-5.60		1.018e-02		-53.793		2.695e-03		16.035
3		0.00		-6.00		8.671e-03		-49.986		2.135e-03		17.918
3		0.00		-6.40		7.605e-03		-50.072		2.040e-03		17.365
3		0.00		-6.80		5.522e-03		-52.321		1.905e-03		21.580
3		0.00		-7.20		4.499e-03		-48.179		1.740e-03		22.584
3		0.00		-7.60		3.150e-03		-49.247		1.225e-03		32.585
3		0.00		-8.00		2.237e-03		-30.017		1.029e-03		48.655
3		0.00		-8.40		1.787e-03		19.182		7.428e-04		69.028
3		0.00		-8.80		2.531e-03		70.370		1.016e-03		58.273
3		0.00		-9.20		4.107e-03		110.110		1.469e-03		36.876
3		0.00		-9.60		5.639e-03		121.633		1.880e-03		20.441
3		0.00		-10.00		7.858e-03		123.347		2.269e-03		16.238
3		0.00		-9.60		9.389e-03		122.742		2.344e-03		14.019
3		0.00		-9.20		1.039e-02		121.944		2.699e-03		15.258
3		0.00		-8.80		1.055e-02		122.419		2.965e-03		14.466
3		0.00		-8.40		1.052e-02		121.148		2.902e-03		15.969
3		0.00		-8.00		1.088e-02		123.429		3.081e-03		16.999
3		0.00		-7.60		1.087e-02		122.576		3.451e-03		19.460
3		0.00		-7.20		1.027e-02		117.090		3.140e-03		22.427
3		0.00		-6.80		1.039e-02		122.488		3.356e-03		12.780
3		0.00		-6.40		1.008e-02		122.471		3.055e-03		14.098
3		0.00		-6.00		1.019e-02		122.260		2.782e-03		13.184
3		0.00		-5.60		1.004e-02		120.599		2.670e-03		15.421
3		0.00		-5.20		9.852e-03		120.024		2.752e-03		15.825
3		0.00		-4.80		1.003e-02		122.150		2.566e-03		13.016
3		0.00		-4.40		9.555e-03		121.402		2.536e-03		16.021
3		0.00		-4.00		9.692e-03		121.436		3.053e-03		19.235
3		0.00		-3.60		9.411e-03		125.838		2.872e-03		18.902
3		0.00		-3.20		8.978e-03		118.992		3.066e-03		19.517
3		0.00		-2.80		9.366e-03		121.654		2.857e-03		16.077
3		0.00		-2.40		9.298e-03		121.656		2.670e-03		14.622
3		0.00		-2.00		9.408e-03		121.883		2.645e-03		15.522
3		0.00		-1.60		8.991e-03		124.458		2.481e-03		13.577
3		0.00		-1.20		8.719e-03		124.513		2.391e-03		15.231
3		0.00		-0.80		8.983e-03		121.232		2.407e-03		12.166
3		0.00		-0.40		8.815e-03		120.018		2.446e-03		20.577
4		0.00		0.00		8.477e-03		124.934		2.476e-03		19.473
4		0.00		0.40		7.973e-03		120.992		2.608e-03		18.586
4		0.00		0.80		8.305e-03		123.170		2.479e-03		24.164
4		0.00		1.20		7.329e-03		120.579		2.448e-03		24.169
4		0.00		1.60		6.630e-03		114.510		2.453e-03		27.927
4		0.00		2.00		6.103e-03		116.037		2.056e-03		20.790
4		0.00		2.40		5.612e-03		120.736		2.067e-03		25.264
4		0.00		2.80		4.884e-03		120.001		1.768e-03		30.777
4		0.00		3.20		4.124e-03		110.550		1.632e-03		44.573
4		0.00		3.60		3.354e-03		101.310		1.318e-03		45.141
4		0.00		4.00		2.877e-03		106.307		1.115e-03		41.403
4		0.00		4.40		2.100e-03		48.561		9.047e-04		75.514
4		0.00		4.80		1.663e-03		24.819		7.706e-04		72.316
4		0.00		5.20		1.812e-03		-6.980		7.604e-04		73.202
4		0.00		5.60		2.224e-03		-30.873		9.514e-04		69.235
4		0.00		6.00		2.807e-03		-53.801		1.052e-03		41.378
4		0.00		6.40		3.330e-03		-54.206		1.094e-03		32.348
4		0.00		6.80		3.862e-03		-54.006		1.238e-03		28.127
4		0.00		7.20		4.977e-03		-54.247		1.337e-03		22.121
4		0.00		7.60		6.253e-03		-57.977		1.604e-03		17.640
4		0.00		8.00		7.613e-03		-52.423		1.900e-03		19.207
4		0.00		8.40		8.126e-03		-46.071		2.078e-03		19.626
4		0.00		8.80		9.908e-03		-47.926		2.565e-03		17.760
4		0.00		9.20		1.167e-02		-50.605		3.197e-03		16.125
4		0.00		9.60		1.394e-02		-50.675		3.875e-03		13.395
4		0.00		10.00		1.637e-02		-52.639		4.455e-03		13.639
4		0.00		9.60		1.821e-02		-53.986		4.356e-03		11.955
4		0.00		9.20		1.961e-02		-54.203		4.512e-03		12.306
4		0.00		8.80		1.987e-02		-52.165		4.705e-03		11.974
4		0.00		8.40		1.995e-02		-53.946		4.831e-03		13.442
4		0.00		8.00		2.055e-02		-52.455		4.989e-03		10.970
4		0.00		7.60		1.980e-02		-52.321		5.111e-03		12.991
4		0.00		7.20		1.995e-02		-52.745		5.595e-03		13.197
4		0.00		6.80		1.989e-02		-50.937		5.706e-03		12.444
4		0.00		6.40		2.021e-02		-50.938		5.157e-03		11.204
4		0.00		6.00		1.998e-02		-51.548		4.702e-03		10.135
4		0.00		5.60		1.987e-02		-53.444		4.224e-03		11.330
4		0.00		5.20		1.946e-02		-54.107		4.224e-03		12.511
4		0.00		4.80		1.929e-02		-52.984		4.298e-03		12.712
4		0.00		4.40		1.868e-02		-51.612		4.405e-03		13.475
4		0.00		4.00		1.853e-02		-49.713		4.231e-03		13.562
4		0.00		3.60		1.837e-02		-51.063		4.083e-03		12.098
4		0.00		3.20		1.825e-02		-49.492		4.496e-03		11.323
4		0.00		2.80		1.809e-02		-50.157		4.726e-03		13.157
4		0.00		2.40		1.795e-02		-49.965		4.979e-03		12.268
4		0.00		2.00		1.727e-02		-51.677		5.016e-03		10.683
4		0.00		1.60		1.697e-02		-54.009		4.795e-03		12.384
4		0.00		1.20		1.719e-02		-54.743		4.767e-03		13.652
4		0.00		0.80		1.717e-02		-53.869		4.222e-03		11.631
4		0.00		0.40		1.599e-02		-52.935		4.439e-03		14.963
4		0.00		0.00		1.628e-02		-53.305		4.351e-03		13.204
4		0.00		-0.40		1.651e-02		-51.199		4.371e-03		12.488
4		0.00		-0.80		1.573e-02		-53.265		4.127e-03		14.231
4		0.00		-1.20		1.581e-02		-53.113		4.453e-03		17.055
4		0.00		-1.60		1.566e-02		-55.044		4.176e-03		14.833
4		0.00		-2.00		1.528e-02		-49.900		4.407e-03		12.668
4		0.00		-2.40		1.507e-02		-49.289		4.010e-03		13.482
4		0.00		-2.80		1.469e-02		-51.484		3.987e-03		12.390
4		0.00		-3.20		1.461e-02		-50.512		3.683e-03		12.207
4		0.00		-3.60		1.408e-02		-51.474		3.379e-03		12.647
4		0.00		-4.00		1.367e-02		-51.865		3.162e-03		13.343
4		0.00		-4.40		1.283e-02		-51.947		3.070e-03		14.710
4		0.00		-4.80		1.254e-02		-50.392		2.827e-03		13.134
4		0.00		-5.20		1.134e-02		-53.692		2.834e-03		16.046
4		0.00		-5.60		1.008e-02		-49.409		2.563e-03		15.330
4		0.00		-6.00		8.835e-03		-42.850		2.224e-03		15.133
4		0.00		-6.40		7.432e-03		-47.760		1.801e-03		17.613
4		0.00		-6.80		5.859e-03		-52.229		1.723e-03		16.460
4		0.00		-7.20		4.479e-03		-46.465		1.496e-03		22.681
4		0.00		-7.60		3.349e-03		-55.686		1.270e-03		32.505
4		0.00		-8.00		2.336e-03		-28.461		9.718e-04		53.006
4		0.00		-8.40		1.879e-03		4.015		7.603e-04		70.100
4		0.00		-8.80		2.698e-03		82.150		1.172e-03		54.045
4		0.00		-9.20		4.519e-03		108.967		1.575e-03		26.656
4		0.00		-9.60		5.896e-03		113.076		1.686e-03		24.386
4		0.00		-10.00		7.561e-03		116.265		2.248e-03		35.410
4		0.00		-9.60		8.624e-03		124.440		2.554e-03		22.178
4		0.00		-9.20		9.242e-03		125.208		2.891e-03		15.950
4		0.00		-8.80		1.001e-02		121.490		3.005e-03		20.269
4		0.00		-8.40		1.005e-02		121.964		3.147e-03		15.673
4		0.00		-8.00		1.005e-02		119.552		2.826e-03		13.098
4		0.00		-7.60		9.950e-03		119.091		2.768e-03		13.821
4		0.00		-7.20		9.930e-03		120.653		2.743e-03		12.094
4		0.00		-6.80		1.051e-02		120.248		2.837e-03		13.246
4		0.00		-6.40		9.628e-03		120.827		2.685e-03		13.895
4		0.00		-6.00		9.802e-03		121.960		2.712e-03		12.140
4		0.00		-5.60		9.337e-03		122.839		2.721e-03		13.205
4		0.00		-5.20		9.442e-03		120.439		2.698e-03		15.170
4		0.00		-4.80		9.131e-03		120.394		2.707e-03		13.782
4		0.00		-4.40		9.024e-03		120.494		2.744e-03		15.625
4		0.00		-4.00		8.674e-03		121.843		2.640e-03		15.956
4		0.00		-3.60		9.252e-03		122.118		2.447e-03		10.702
4		0.00		-3.20		8.732e-03		118.100		2.464e-03		14.140
4		0.00		-2.80		9.011e-03		120.413		2.229e-03		14.694
4		0.00		-2.40		8.682e-03		123.293		2.032e-03		15.017
4		0.00		-2.00		9.002e-03		122.786		2.276e-03		13.381
4		0.00		-1.60		8.863e-03		124.676		2.196e-03		13.856
4		0.00		-1.20		8.841e-03		120.880		2.474e-03		14.032
4		0.00		-0.80		8.491e-03		121.735		2.257e-03		16.220
4		0.00		-0.40		8.311e-03		120.873		1.841e-03		14.841
5		0.00		0.00		7.942e-03		125.633		2.058e-03		14.839
5		0.00		0.40		7.957e-03		119.807		2.238e-03		15.401
5		0.00		0.80		8.258e-03		126.698		2.036e-03		14.457
5		0.00		1.20		7.588e-03		124.136		2.015e-03		15.897
5		0.00		1.60		6.652e-03		122.845		1.902e-03		18.195
5		0.00		2.00		6.319e-03		117.480		1.903e-03		20.818
5		0.00		2.40		5.291e-03		118.078		1.610e-03		34.821
5		0.00		2.80		5.184e-03		118.697		1.542e-03		20.377
5		0.00		3.20		4.090e-03		113.472		1.567e-03		28.862
5		0.00		3.60		3.445e-03		113.494		1.475e-03		39.747
5		0.00		4.00		2.425e-03		92.025		1.062e-03		64.828
5		0.00		4.40		2.000e-03		31.700		8.524e-04		91.225
5		0.00		4.80		1.732e-03		17.465		7.784e-04		74.816
5		0.00		5.20		1.812e-03		-24.565		7.431e-04		71.532
5		0.00		5.60		2.109e-03		-27.216		9.254e-04		49.963
5		0.00		6.00		2.800e-03		-52.626		1.113e-03		35.035
5		0.00		6.40		3.603e-03		-50.129		1.156e-03		35.114
5		0.00		6.80		4.371e-03		-50.017		1.407e-03		25.602
5		0.00		7.20		5.217e-03		-48.161		1.501e-03		19.318
5		0.00		7.60		6.051e-03		-48.141		1.770e-03		15.633
5		0.00		8.00		7.233e-03		-50.303		2.174e-03		18.514
5		0.00		8.40		8.391e-03		-51.787		2.367e-03		16.646
5		0.00		8.80		9.892e-03		-51.767		2.679e-03		13.556
5		0.00		9.20		1.154e-02		-51.110		3.560e-03		14.928
5		0.00		9.60		1.334e-02		-53.052		4.108e-03		16.031
5		0.00		10.00		1.579e-02		-50.468		4.738e-03		15.046
5		0.00		9.60		1.730e-02		-52.224		4.696e-03		16.011
5		0.00		9.20		1.859e-02		-53.991		5.176e-03		14.189
5		0.00		8.80		1.853e-02		-51.006		5.355e-03		13.705
5		0.00		8.40		1.869e-02		-54.799		5.483e-03		17.080
5		0.00		8.00		1.872e-02		-52.632		5.294e-03		13.903
5		0.00		7.60		1.895e-02		-52.952		4.920e-03		12.939
5		0.00		7.20		1.905e-02		-53.129		4.809e-03		15.109
5		0.00		6.80		1.867e-02		-51.734		4.429e-03		14.140
5		0.00		6.40		1.887e-02		-52.739		4.252e-03		12.547
5		0.00		6.00		1.869e-02		-52.130		4.525e-03		12.962
5		0.00		5.60		1.850e-02		-50.054		4.313e-03		12.457
5		0.00		5.20		1.800e-02		-51.875		4.217e-03		12.884
5		0.00		4.80		1.804e-02		-51.773		4.338e-03		13.209
5		0.00		4.40		1.796e-02		-51.811		4.227e-03		12.552
5		0.00		4.00		1.822e-02		-51.721		4.202e-03		12.892
5		0.00		3.60		1.802e-02		-52.849		4.153e-03		12.390
5		0.00		3.20		1.761e-02		-54.003		4.318e-03		12.820
5		0.00		2.80		1.753e-02		-53.358		4.131e-03		11.833
5		0.00		2.40		1.741e-02		-53.086		4.108e-03		12.598
5		0.00		2.00		1.748e-02		-53.511		4.022e-03		13.091
5		0.00		1.60		1.681e-02		-51.900		3.887e-03		13.721
5		0.00		1.20		1.751e-02		-52.819		3.983e-03		12.795
5		0.00		0.80		1.707e-02		-53.992		4.034e-03		12.608
5		0.00		0.40		1.656e-02		-53.424		3.892e-03		12.180
5		0.00		0.00		1.704e-02		-52.421		3.998e-03		11.965
5		0.00		-0.40		1.647e-02		-52.582		3.575e-03		12.317
5		0.00		-0.80		1.631e-02		-51.753		4.123e-03		14.013
5		0.00		-1.20		1.664e-02		-52.406		3.744e-03		12.354
5		0.00		-1.60		1.584e-02		-54.952		3.710e-03		10.693
5		0.00		-2.00		1.607e-02		-52.324		3.543e-03		12.305
5		0.00		-2.40		1.577e-02		-53.795		3.464e-03		12.613
5		0.00		-2.80		1.535e-02		-53.169		3.481e-03		12.185
5		0.00		-3.20		1.532e-02		-52.090		3.203e-03		12.101
5		0.00		-3.60		1.415e-02		-50.675		2.818e-03		13.076
5		0.00		-4.00		1.427e-02		-51.088		3.460e-03		12.268
5		0.00		-4.40		1.322e-02		-52.274		3.341e-03		11.980
5		0.00		-4.80		1.276e-02		-52.565		3.158e-03		14.195
5		0.00		-5.20		1.124e-02		-51.213		2.943e-03		14.098
5		0.00		-5.60		1.038e-02		-53.305		2.731e-03		16.804
5		0.00		-6.00		9.711e-03		-51.597		2.556e-03		13.992
5		0.00		-6.40		8.266e-03		-49.834		2.050e-03		16.525
5		0.00		-6.80		7.011e-03		-48.201		1.855e-03		16.417
5		0.00		-7.20		5.701e-03		-57.547		1.667e-03		19.474
5		0.00		-7.60		3.991e-03		-46.950		1.271e-03		26.762
5		0.00		-8.00		2.544e-03		-45.399		1.033e-03		31.794
5		0.00		-8.40		1.987e-03		-28.336		8.682e-04		59.022
5		0.00		-8.80		2.032e-03		35.140		1.047e-03		72.674
5		0.00		-9.20		3.034e-03		84.864		1.180e-03		60.524
5		0.00		-9.60		4.056e-03		112.079		1.431e-03		24.304
5		0.00		-10.00		6.537e-03		121.214		2.187e-03		19.739
5		0.00		-9.60		7.027e-03		119.928		2.326e-03		18.637
5		0.00		-9.20		7.667e-03		122.253		2.321e-03		20.699
5		0.00		-8.80		8.658e-03		120.786		2.679e-03		23.474
5		0.00		-8.40		9.192e-03		122.969		2.739e-03		21.713
5		0.00		-8.00		8.415e-03		121.427		2.765e-03		20.491
5		0.00		-7.60		9.098e-03		120.076		2.939e-03		23.124
5		0.00		-7.20		8.989e-03		118.432		2.926e-03		28.150
5		0.00		-6.80		8.991e-03		123.292		2.708e-03		21.392
5		0.00		-6.40		8.853e-03		117.679		2.528e-03		21.045
5		0.00		-6.00		8.732e-03		122.689		2.857e-03		21.583
5		0.00		-5.60		8.323e-03		117.872		2.639e-03		22.863
5		0.00		-5.20		8.316e-03		121.369		2.695e-03		20.606
5		0.00		-4.80		8.417e-03		123.505		2.614e-03		14.104
5		0.00		-4.40		8.195e-03		118.354		2.518e-03		18.320
5		0.00		-4.00		8.283e-03		118.122		2.525e-03		18.598
5		0.00		-3.60		8.208e-03		120.899		2.458e-03		18.378
5		0.00		-3.20		7.953e-03		127.276		2.139e-03		13.933
5		0.00		-2.80		7.821e-03		124.704		2.221e-03		17.696
5		0.00		-2.40		7.643e-03		124.202		2.185e-03		14.304
5		0.00		-2.00		7.744e-03		121.709		2.249e-03		15.497
5		0.00		-1.60		7.715e-03		121.180		2.071e-03		14.090
5		0.00		-1.20		7.836e-03		120.945		1.975e-03		14.615
5		0.00		-0.80		7.970e-03		121.247		1.912e-03		17.008
5		0.00		-0.40		7.430e-03		121.591		2.253e-03		15.950
6		0.00		0.00		6.749e-03		119.306		2.085e-03		17.474
6		0.00		0.40		7.111e-03		120.469		1.996e-03		14.403
6		0.00		0.80		6.499e-03		120.219		2.023e-03		19.283
6		0.00		1.20		6.740e-03		121.725		2.157e-03		17.649
6		0.00		1.60		5.991e-03		117.721		1.956e-03		24.887
6		0.00		2.00		5.877e-03		118.424		2.051e-03		32.050
6		0.00		2.40		5.170e-03		113.387		1.867e-03		32.300
6		0.00		2.80		4.344e-03		108.815		1.767e-03		40.470
6		0.00		3.20		3.586e-03		100.485		1.377e-03		42.633
6		0.00		3.60		3.004e-03		92.457		1.084e-03		55.018
6		0.00		4.00		2.184e-03		59.776		9.491e-04		73.906
6		0.00		4.40		1.961e-03		31.045		7.844e-04		84.291
6		0.00		4.80		1.827e-03		-1.528		6.487e-04		66.701
6		0.00		5.20		1.949e-03		-17.171		9.266e-04		62.158
6		0.00		5.60		2.375e-03		-44.670		1.127e-03		44.463
6		0.00		6.00		2.913e-03		-45.625		1.228e-03		34.196
6		0.00		6.40		3.863e-03		-52.282		1.328e-03		25.379
6		0.00		6.80		4.961e-03		-51.451		1.443e-03		20.354
6		0.00		7.20		5.853e-03		-59.995		1.556e-03		19.765
6		0.00		7.60		6.941e-03		-51.197		1.673e-03		17.486
6		0.00		8.00		7.452e-03		-54.297		1.773e-03		16.615
6		0.00		8.40		8.942e-03		-54.436		2.191e-03		16.017
6		0.00		8.80		1.030e-02		-50.465		2.652e-03		14.396
6		0.00		9.20		1.130e-02		-50.110		3.088e-03		14.072
6		0.00		9.60		1.358e-02		-52.932		3.692e-03		15.388
6		0.00		10.00		1.571e-02		-54.126		4.470e-03		14.289
6		0.00		9.60		1.705e-02		-52.209		5.109e-03		15.101
6		0.00		9.20		1.754e-02		-50.504		5.612e-03		12.314
6		0.00		8.80		1.869e-02		-53.638		5.375e-03		12.785
6		0.00		8.40		1.924e-02		-54.140		5.342e-03		10.035
6		0.00		8.00		1.889e-02		-54.095		4.591e-03		11.313
6		0.00		7.60		1.893e-02		-54.630		4.289e-03		11.883
6		0.00		7.20		1.876e-02		-54.828		4.249e-03		12.693
6		0.00		6.80		1.879e-02		-49.859		4.356e-03		11.964
6		0.00		6.40		1.796e-02		-53.119		4.484e-03		14.701
6		0.00		6.00		1.831e-02		-53.566		4.667e-03		14.678
6		0.00		5.60		1.796e-02		-52.928		4.800e-03		14.064
6		0.00		5.20		1.768e-02		-49.890		4.799e-03		13.331
6		0.00		4.80		1.746e-02		-51.592		4.813e-03		12.418
6		0.00		4.40		1.739e-02		-49.513		4.723e-03		11.296
6		0.00		4.00		1.727e-02		-52.773		4.439e-03		11.544
6		0.00		3.60		1.696e-02		-54.788		4.348e-03		15.887
6		0.00		3.20		1.646e-02		-53.735		4.506e-03		13.784
6		0.00		2.80		1.610e-02		-51.774		4.684e-03		16.086
6		0.00		2.40		1.574e-02		-51.428		4.636e-03		15.715
6		0.00		2.00		1.576e-02		-54.924		4.756e-03		17.795
6		0.00		1.60		1.554e-02		-53.165		4.975e-03		16.805
6		0.00		1.20		1.554e-02		-50.688		4.863e-03		12.272
6		0.00		0.80		1.585e-02		-51.826		4.232e-03		11.908
6		0.00		0.40		1.570e-02		-55.100		3.767e-03		14.862
6		0.00		0.00		1.578e-02		-52.683		4.146e-03		13.002
6		0.00		-0.40		1.557e-02		-53.128		4.040e-03		12.550
6		0.00		-0.80		1.553e-02		-52.626		3.597e-03		13.665
6		0.00		-1.20		1.527e-02		-49.232		3.940e-03		15.581
6		0.00		-1.60		1.524e-02		-51.717		3.971e-03		13.998
6		0.00		-2.00		1.490e-02		-51.314		4.082e-03		12.133
6		0.00		-2.40		1.475e-02		-51.791		3.521e-03		12.166
6		0.00		-2.80		1.485e-02		-51.484		3.383e-03		13.843
6		0.00		-3.20		1.438e-02		-50.271		3.328e-03		12.635
6		0.00		-3.60		1.351e-02		-49.033		3.224e-03		13.492
6		0.00		-4.00		1.305e-02		-50.289		3.238e-03		15.712
6		0.00		-4.40		1.269e-02		-49.071		3.320e-03		14.316
6		0.00		-4.80		1.204e-02		-49.588		3.322e-03		12.913
6		0.00		-5.20		1.127e-02		-50.713		3.104e-03		13.797
6		0.00		-5.60		1.090e-02		-52.820		2.452e-03		13.548
6		0.00		-6.00		9.688e-03		-50.217		2.422e-03		14.449
6		0.00		-6.40		8.466e-03		-52.142		2.219e-03		14.919
6		0.00		-6.80		6.755e-03		-46.837		1.913e-03		16.195
6		0.00		-7.20		5.415e-03		-42.533		1.657e-03		19.470
6		0.00		-7.60		4.281e-03		-45.962		1.354e-03		23.314
6		0.00		-8.00		3.219e-03		-43.702		1.358e-03		40.962
6		0.00		-8.40		1.994e-03		-15.514		8.333e-04		58.070
6		0.00		-8.80		1.929e-03		34.881		7.676e-04		68.527
6		0.00		-9.20		3.025e-03		89.111		1.150e-03		48.999
6		0.00		-9.60		4.518e-03		114.866		1.152e-03		21.608
6		0.00		-10.00		5.695e-03		111.123		1.806e-03		23.752
6		0.00		-9.60		7.087e-03		120.949		2.000e-03		16.849
6		0.00		-9.20		8.015e-03		119.557		2.277e-03		21.865
6		0.00		-8.80		8.254e-03		121.007		2.426e-03		20.689
6		0.00		-8.40		8.347e-03		120.552		2.728e-03		18.860
6		0.00		-8.00		8.619e-03		119.694		2.305e-03		15.795
6		0.00		-7.60		8.361e-03		120.945		2.341e-03		15.501
6		0.00		-7.20		8.703e-03		120.159		2.336e-03		13.099
6		0.00		-6.80		8.747e-03		123.363		2.352e-03		16.543
6		0.00		-6.40		8.216e-03		116.799		2.351e-03		15.618
6		0.00		-6.00		8.140e-03		118.980		2.532e-03		20.752
6		0.00		-5.60		8.084e-03		117.155		2.661e-03		24.396
6		0.00		-5.20		7.894e-03		125.688		2.758e-03		14.712
6		0.00		-4.80		7.819e-03		115.911		2.583e-03		20.155
6		0.00		-4.40		7.925e-03		123.176		2.542e-03		15.937
6		0.00		-4.00		7.843e-03		121.215		2.304e-03		15.018
6		0.00		-3.60		7.612e-03		118.110		1.878e-03		13.819
6		0.00		-3.20		7.862e-03		119.892		2.147e-03		15.126
6		0.00		-2.80		7.319e-03		118.847		2.375e-03		25.041
6		0.00		-2.40		7.491e-03		122.800		2.127e-03		21.418
6		0.00		-2.00		7.579e-03		123.439		2.094e-03		15.509
6		0.00		-1.60		7.424e-03		122.283		2.097e-03		17.047
6		0.00		-1.20		7.387e-03		121.689		1.960e-03		16.375
6		0.00		-0.80		7.575e-03		119.747		1.932e-03		14.339
6		0.00		-0.40		7.316e-03		121.732		1.918e-03		14.044
7		0.00		0.00		7.191e-03		122.416		2.014e-03		17.586
7		0.00		0.40		7.056e-03		118.373		2.053e-03		22.247
7		0.00		0.80		6.785e-03		118.772		2.014e-03		28.413
7		0.00		1.20		6.436e-03		121.071		2.136e-03		18.668
7		0.00		1.60		5.796e-03		120.015		2.008e-03		18.067
7		0.00		2.00		5.549e-03		120.088		1.743e-03		17.185
7		0.00		2.40		5.490e-03		122.621		1.581e-03		18.806
7		0.00		2.80		5.110e-03		113.664		1.487e-03		18.679
7		0.00		3.20		3.779e-03		112.753		1.408e-03		34.819
7		0.00		3.60		3.046e-03		100.549		1.265e-03		46.435
7		0.00		4.00		2.621e-03		73.343		9.673e-04		61.369
7		0.00		4.40		2.065e-03		56.668		8.967e-04		69.889
7		0.00		4.80		1.723e-03		10.432		7.321e-04		67.844
7		0.00		5.20		1.762e-03		-17.484		7.656e-04		64.862
7		0.00		5.60		2.104e-03		-43.646		8.166e-04		50.541
7		0.00		6.00		2.994e-03		-41.773		1.308e-03		41.327
7		0.00		6.40		3.542e-03		-45.185		1.205e-03		25.190
7		0.00		6.80		4.195e-03		-36.447		1.337e-03		26.878
7		0.00		7.20		5.246e-03		-49.389		1.709e-03		22.226
7		0.00		7.60		6.133e-03		-55.603		1.836e-03		16.291
7		0.00		8.00		7.186e-03		-50.429		1.465e-03		16.415
7		0.00		8.40		8.776e-03		-52.569		1.868e-03		12.297
7		0.00		8.80		9.222e-03		-49.247		2.309e-03		18.160
7		0.00		9.20		1.133e-02		-52.025		2.932e-03		11.242
7		0.00		9.60		1.301e-02		-51.078		3.925e-03		15.188
7		0.00		10.00		1.474e-02		-53.146		4.204e-03		10.878
7		0.00		9.60		1.634e-02		-50.199		4.093e-03		10.243
7		0.00		9.20		1.705e-02		-54.722		3.966e-03		12.505
7		0.00		8.80		1.826e-02		-55.148		4.509e-03		11.948
7		0.00		8.40		1.796e-02		-50.547		4.373e-03		12.216
7		0.00		8.00		1.774e-02		-51.294		5.000e-03		15.114
7		0.00		7.60		1.768e-02		-50.446		5.182e-03		14.646
7		0.00		7.20		1.762e-02		-49.215		4.963e-03		11.152
7		0.00		6.80		1.845e-02		-53.383		4.397e-03		12.509
7		0.00		6.40		1.825e-02		-52.550		3.841e-03		12.148
7		0.00		6.00		1.854e-02		-53.008		3.586e-03		12.178
7		0.00		5.60		1.789e-02		-53.085		3.672e-03		10.913
7		0.00		5.20		1.710e-02		-50.282		4.198e-03		14.762
7		0.00		4.80		1.735e-02		-49.984		4.530e-03		11.163
7		0.00		4.40		1.706e-02		-52.852		4.362e-03		10.826
7		0.00		4.00		1.726e-02		-52.484		3.528e-03		10.145
7		0.00		3.60		1.706e-02		-51.744		3.659e-03		10.504
7		0.00		3.20		1.673e-02		-54.238		3.757e-03		10.894
7		0.00		2.80		1.666e-02		-51.143		3.627e-03		13.894
7		0.00		2.40		1.610e-02		-48.851		3.884e-03		12.895
7		0.00		2.00		1.562e-02		-49.924		4.370e-03		12.050
7		0.00		1.60		1.575e-02		-53.178		4.199e-03		15.118
7		0.00		1.20		1.615e-02		-52.940		3.691e-03		10.826
7		0.00		0.80		1.669e-02		-50.336		3.763e-03		10.714
7		0.00		0.40		1.655e-02		-51.477		3.412e-03		9.907
7		0.00		0.00		1.601e-02		-49.364		3.690e-03		10.942
7		0.00		-0.40		1.558e-02		-50.088		3.664e-03		12.169
7		0.00		-0.80		1.544e-02		-51.609		4.288e-03		15.595
7		0.00		-1.20		1.486e-02		-49.167		4.106e-03		12.529
7		0.00		-1.60		1.454e-02		-48.329		3.503e-03		12.108
7		0.00		-2.00		1.484e-02		-51.985		3.459e-03		12.165
7		0.00		-2.40		1.451e-02		-50.826		3.352e-03		15.040
7		0.00		-2.80		1.455e-02		-51.415		3.210e-03		12.508
7		0.00		-3.20		1.342e-02		-51.882		3.144e-03		12.994
7		0.00		-3.60		1.306e-02		-49.216		3.385e-03		14.684
7		0.00		-4.00		1.250e-02		-50.108		3.419e-03		17.644
7		0.00		-4.40		1.189e-02		-49.997		3.112e-03		15.110
7		0.00		-4.80		1.160e-02		-54.179		2.784e-03		13.655
7		0.00		-5.20		1.099e-02		-49.882		2.435e-03		14.617
7		0.00		-5.60		9.649e-03		-49.985		2.422e-03		15.512
7		0.00		-6.00		8.377e-03		-49.146		2.351e-03		17.469
7		0.00		-6.40		7.251e-03		-44.221		2.250e-03		16.214
7		0.00		-6.80		6.223e-03		-49.743		1.983e-03		21.712
7		0.00		-7.20		4.661e-03		-36.109		1.671e-03		22.798
7		0.00		-7.60		3.517e-03		-44.489		1.199e-03		25.786
7		0.00		-8.00		2.892e-03		-23.825		1.223e-03		39.316
7		0.00		-8.40		1.769e-03		-3.154		7.520e-04		64.789
7		0.00		-8.80		2.072e-03		48.222		9.227e-04		67.200
7		0.00		-9.20		3.117e-03		82.834		1.220e-03		59.301
7		0.00		-9.60		4.629e-03		109.227		1.569e-03		38.029
7		0.00		-10.00		6.297e-03		111.458		2.157e-03		25.225
7		0.00		-9.60		7.191e-03		117.089		2.112e-03		21.805
7		0.00		-9.20		8.441e-03		118.806		2.315e-03		15.147
7		0.00		-8.80		8.923e-03		120.216		2.209e-03		12.256
7		0.00		-8.40		9.520e-03		123.530		2.400e-03		14.887
7		0.00		-8.00		9.254e-03		119.201		2.760e-03		21.619
7		0.00		-7.60		8.927e-03		124.061		2.965e-03		20.813
7		0.00		-7.20		9.114e-03		122.016		2.774e-03		12.240
7		0.00		-6.80		8.648e-03		118.845		2.446e-03		17.705
7		0.00		-6.40		8.778e-03		119.148		2.619e-03		16.605
7		0.00		-6.00		8.716e-03		125.081		2.318e-03		19.010
7		0.00		-5.60		8.157e-03		127.250		2.441e-03		21.472
7		0.00		-5.20		8.212e-03		118.607		2.587e-03		22.751
7		0.00		-4.80		7.857e-03		119.972		2.639e-03		14.424
7		0.00		-4.40		8.435e-03		123.392		2.468e-03		11.867
7		0.00		-4.00		8.394e-03		123.578		2.417e-03		17.177
7		0.00		-3.60		8.388e-03		126.425		2.377e-03		13.743
7		0.00		-3.20		8.556e-03		124.873		2.526e-03		17.949
7		0.00		-2.80		7.926e-03		120.694		2.555e-03		31.015
7		0.00		-2.40		8.230e-03		123.681		2.579e-03		16.919
7		0.00		-2.00		7.788e-03		119.197		2.293e-03		23.883
7		0.00		-1.60		7.984e-03		119.057		2.354e-03		14.896
7		0.00		-1.20		7.906e-03		121.575		2.134e-03		13.654
7		0.00		-0.80		7.842e-03		119.316		2.222e-03		16.900
7		0.00		-0.40		7.570e-03		118.043		2.462e-03		29.192
8		0.00		0.00		7.631e-03		121.055		2.340e-03		13.864
8		0.00		0.40		7.653e-03		123.415		2.312e-03		16.875
8		0.00		0.80		7.478e-03		127.947		1.829e-03		14.060
8		0.00		1.20		7.384e-03		122.842		2.015e-03		16.118
8		0.00		1.60		6.645e-03		118.172		1.984e-03		20.867
8		0.00		2.00		5.975e-03		113.853		1.885e-03		21.075
8		0.00		2.40		5.589e-03		121.908		1.895e-03		22.754
8		0.00		2.80		4.624e-03		116.495		1.381e-03		18.836
8		0.00		3.20		3.803e-03		112.750		1.323e-03		42.566
8		0.00		3.60		3.302e-03		99.275		1.272e-03		47.766
8		0.00		4.00		2.524e-03		84.421		1.066e-03		55.006
8		0.00		4.40		2.241e-03		57.509		8.448e-04		65.779
8		0.00		4.80		1.805e-03		10.450		6.887e-04		68.542
8		0.00		5.20		1.744e-03		-26.584		7.522e-04		64.867
8		0.00		5.60		1.942e-03		-36.263		7.566e-04		59.094
8		0.00		6.00		2.432e-03		-39.307		1.060e-03		45.627
8		0.00		6.40		3.052e-03		-47.563		1.134e-03		31.064
8		0.00		6.80		3.608e-03		-42.531		1.316e-03		27.072
8		0.00		7.20		5.105e-03		-61.282		1.494e-03		18.465
8		0.00		7.60		5.898e-03		-55.875		1.341e-03		18.969
8		0.00		8.00		6.827e-03		-56.156		1.722e-03		18.213
8		0.00		8.40		8.197e-03		-53.433		2.136e-03		13.291
8		0.00		8.80		9.331e-03		-50.352		2.361e-03		16.222
8		0.00		9.20		1.083e-02		-53.426		2.913e-03		18.670
8		0.00		9.60		1.319e-02		-54.643		3.005e-03		12.264
8		0.00		10.00		1.555e-02		-50.786		3.271e-03		11.777
8		0.00		9.60		1.774e-02		-50.225		3.870e-03		10.561
8		0.00		9.20		1.812e-02		-51.322		3.930e-03		11.968
8		0.00		8.80		1.871e-02		-51.411		4.169e-03		12.296
8		0.00		8.40		1.818e-02		-51.284		4.984e-03		13.822
8		0.00		8.00		1.896e-02		-52.106		5.072e-03		10.567
8		0.00		7.60		1.882e-02		-50.686		4.300e-03		9.433
8		0.00		7.20		1.945e-02		-52.814		3.826e-03		11.116
8		0.00		6.80		1.866e-02		-49.476		4.094e-03		11.510
8		0.00		6.40		1.792e-02		-52.745		4.415e-03		13.205
8		0.00		6.00		1.783e-02		-47.957		4.625e-03		13.891
8		0.00		5.60		1.786e-02		-50.655		4.967e-03		13.254
8		0.00		5.20		1.757e-02		-49.710		4.308e-03		11.784
8		0.00		4.80		1.824e-02		-50.274		4.003e-03		12.033
8		0.00		4.40		1.803e-02		-52.430		3.867e-03		11.738
8		0.00		4.00		1.759e-02		-51.154		3.881e-03		13.335
8		0.00		3.60		1.720e-02		-48.620		3.867e-03		10.506
8		0.00		3.20		1.741e-02		-49.520		4.294e-03		11.070
8		0.00		2.80		1.661e-02		-49.906		4.361e-03		14.012
8		0.00		2.40		1.668e-02		-51.897		4.184e-03		11.047
8		0.00		2.00		1.728e-02		-51.543		3.485e-03		10.639
8		0.00		1.60		1.741e-02		-52.941		3.852e-03		9.878
8		0.00		1.20		1.734e-02		-52.793		3.613e-03		10.951
8		0.00		0.80		1.715e-02		-49.321		3.618e-03		10.312
8		0.00		0.40		1.640e-02		-49.624		3.690e-03		12.422
8		0.00		0.00		1.637e-02		-48.663		4.319e-03		14.321
8		0.00		-0.40		1.639e-02		-51.457		4.600e-03		15.220
8		0.00		-0.80		1.612e-02		-50.961		4.675e-03		10.258
8		0.00		-1.20		1.571e-02		-51.212		3.787e-03		11.869
8		0.00		-1.60		1.577e-02		-50.560		3.740e-03		9.885
8		0.00		-2.00		1.517e-02		-53.926		3.957e-03		12.936
8		0.00		-2.40		1.468e-02		-52.708		3.359e-03		11.768
8		0.00		-2.80		1.439e-02		-48.745		3.514e-03		14.819
8		0.00		-3.20		1.396e-02		-51.499		3.786e-03		16.056
8		0.00		-3.60		1.341e-02		-47.341		3.543e-03		10.076
8		0.00		-4.00		1.319e-02		-50.385		3.619e-03		14.540
8		0.00		-4.40		1.290e-02		-52.565		2.961e-03		12.196
8		0.00		-4.80		1.171e-02		-50.754		2.648e-03		11.146
8		0.00		-5.20		1.120e-02		-52.715		2.574e-03		14.412
8		0.00		-5.60		1.049e-02		-48.345		2.324e-03		13.491
8		0.00		-6.00		9.262e-03		-48.425		2.247e-03		11.887
8		0.00		-6.40		8.366e-03		-47.997		2.065e-03		11.807
8		0.00		-6.80		6.529e-03		-45.607		1.996e-03		19.778
8		0.00		-7.20		5.294e-03		-48.374		1.854e-03		26.080
8		0.00		-7.60		4.097e-03		-34.132		1.407e-03		27.246
8		0.00		-8.00		2.979e-03		-38.755		1.241e-03		31.924
8		0.00		-8.40		1.967e-03		-4.385		7.143e-04		56.411
8		0.00		-8.80		2.073e-03		42.094		8.632e-04		69.168
8		0.00		-9.20		3.111e-03		96.043		1.138e-03		40.226
8		0.00		-9.60		4.537e-03		116.050		1.493e-03		39.066
8		0.00		-10.00		6.101e-03		117.993		1.930e-03		24.338
8		0.00		-9.60		7.203e-03		115.075		2.352e-03		22.650
8		0.00		-9.20		7.938e-03		120.019		2.531e-03		18.667
8		0.00		-8.80		8.590e-03		118.367		2.629e-03		28.655
8		0.00		-8.40		8.766e-03		120.331		2.389e-03		14.519
8		0.00		-8.00		9.225e-03		121.391		2.355e-03		12.169
8		0.00		-7.60		9.313e-03		121.294		2.334e-03		13.889
8		0.00		-7.20		9.294e-03		121.838		2.269e-03		14.746
8		0.00		-6.80		9.311e-03		126.105		2.320e-03		12.183
8		0.00		-6.40		9.046e-03		124.132		2.137e-03		14.108
8		0.00		-6.00		8.817e-03		121.610		2.342e-03		18.722
8		0.00		-5.60		8.358e-03		122.486		2.447e-03		17.548
8		0.00		-5.20		8.604e-03		122.410		2.437e-03		17.449
8		0.00		-4.80		8.388e-03		120.942		2.545e-03		15.800
8		0.00		-4.40		8.456e-03		123.774		2.358e-03		13.864
8		0.00		-4.00		8.167e-03		119.404		2.106e-03		13.354
8		0.00		-3.60		8.421e-03		122.239		1.786e-03		13.939
8		0.00		-3.20		7.943e-03		120.043		2.072e-03		14.294
8		0.00		-2.80		7.937e-03		125.009		2.209e-03		15.208
8		0.00		-2.40		8.139e-03		125.612		2.241e-03		14.407
8		0.00		-2.00		7.503e-03		124.195		2.345e-03		18.736
8		0.00		-1.60		7.699e-03		119.639		2.302e-03		18.980
8		0.00		-1.20		7.583e-03		119.307		2.499e-03		27.208
8		0.00		-0.80		7.210e-03		116.865		2.252e-03		16.942
8		0.00		-0.40		7.449e-03		121.347		2.024e-03		15.339
