# Date of analysis: 2023-11-20 16;19
# 
# Loop index	Read Volt (V)	Write Volt (V)	Amplitude (a.u)	Phase (deg)	Sigma Amp (a.u)	Sigma Pha (deg)	
1		0.00		0.00		3.169e-02		-54.055		6.911e-03		11.081
1		0.00		0.40		2.999e-02		-53.648		6.415e-03		12.294
1		0.00		0.80		2.970e-02		-52.216		6.386e-03		13.733
1		0.00		1.20		2.889e-02		-54.013		6.845e-03		13.861
1		0.00		1.60		2.796e-02		-52.221		7.202e-03		14.847
1		0.00		2.00		2.801e-02		-52.933		7.425e-03		15.617
1		0.00		2.40		2.828e-02		-53.284		7.896e-03		17.075
1		0.00		2.80		2.771e-02		-52.930		8.337e-03		18.232
1		0.00		3.20		2.788e-02		-49.014		8.464e-03		17.279
1		0.00		3.60		2.742e-02		-47.570		8.700e-03		17.872
1		0.00		4.00		2.750e-02		-49.984		8.549e-03		14.157
1		0.00		4.40		2.819e-02		-50.473		8.390e-03		11.550
1		0.00		4.80		2.850e-02		-50.669		7.859e-03		10.756
1		0.00		5.20		2.873e-02		-51.810		6.916e-03		10.713
1		0.00		5.60		2.945e-02		-53.311		6.512e-03		12.155
1		0.00		6.00		3.053e-02		-52.168		6.427e-03		12.151
1		0.00		6.40		3.079e-02		-54.925		7.110e-03		14.546
1		0.00		6.80		3.129e-02		-53.181		7.055e-03		14.261
1		0.00		7.20		3.260e-02		-51.243		7.823e-03		14.390
1		0.00		7.60		3.336e-02		-52.163		8.510e-03		14.542
1		0.00		8.00		3.607e-02		-52.613		9.517e-03		15.729
1		0.00		8.40		3.854e-02		-52.985		1.055e-02		14.619
1		0.00		8.80		4.030e-02		-51.263		1.166e-02		15.899
1		0.00		9.20		4.253e-02		-50.433		1.289e-02		17.700
1		0.00		9.60		4.553e-02		-49.269		1.434e-02		15.273
1		0.00		10.00		4.725e-02		-51.559		1.495e-02		10.552
1		0.00		9.60		4.856e-02		-52.934		1.473e-02		9.375
1		0.00		9.20		4.841e-02		-52.077		1.332e-02		9.584
1		0.00		8.80		4.783e-02		-53.073		1.245e-02		9.741
1		0.00		8.40		4.663e-02		-54.671		1.174e-02		11.354
1		0.00		8.00		4.550e-02		-54.377		1.127e-02		12.039
1		0.00		7.60		4.439e-02		-54.193		1.147e-02		13.023
1		0.00		7.20		4.224e-02		-53.910		1.155e-02		15.946
1		0.00		6.80		4.135e-02		-52.550		1.172e-02		14.834
1		0.00		6.40		4.066e-02		-54.258		1.116e-02		16.464
1		0.00		6.00		3.897e-02		-50.950		1.085e-02		15.790
1		0.00		5.60		3.867e-02		-47.629		1.116e-02		20.731
1		0.00		5.20		3.911e-02		-50.770		1.109e-02		12.856
1		0.00		4.80		3.803e-02		-51.701		1.046e-02		11.322
1		0.00		4.40		3.820e-02		-53.229		9.809e-03		9.818
1		0.00		4.00		3.787e-02		-52.904		8.641e-03		9.563
1		0.00		3.60		3.724e-02		-53.463		8.104e-03		10.617
1		0.00		3.20		3.768e-02		-52.690		8.066e-03		11.312
1		0.00		2.80		3.707e-02		-53.154		8.696e-03		12.606
1		0.00		2.40		3.512e-02		-53.491		9.485e-03		14.603
1		0.00		2.00		3.435e-02		-52.106		9.777e-03		14.887
1		0.00		1.60		3.329e-02		-54.428		9.890e-03		21.133
1		0.00		1.20		3.244e-02		-54.358		9.754e-03		22.023
1		0.00		0.80		3.249e-02		-48.278		9.888e-03		20.322
1		0.00		0.40		3.202e-02		-49.973		9.662e-03		12.153
1		0.00		0.00		3.145e-02		-51.626		8.997e-03		11.531
1		0.00		-0.40		3.151e-02		-52.419		7.641e-03		10.881
1		0.00		-0.80		2.961e-02		-53.021		6.564e-03		12.206
1		0.00		-1.20		2.836e-02		-52.130		5.735e-03		12.797
1		0.00		-1.60		2.514e-02		-52.227		5.351e-03		14.976
1		0.00		-2.00		2.264e-02		-51.129		4.719e-03		14.123
1		0.00		-2.40		2.055e-02		-50.381		4.561e-03		14.405
1		0.00		-2.80		1.758e-02		-49.492		4.090e-03		14.904
1		0.00		-3.20		1.414e-02		-47.010		3.661e-03		15.174
1		0.00		-3.60		1.193e-02		-45.482		3.315e-03		12.508
1		0.00		-4.00		8.363e-03		-43.074		3.006e-03		18.259
1		0.00		-4.40		5.779e-03		-37.103		2.523e-03		23.062
1		0.00		-4.80		4.051e-03		-19.230		2.200e-03		48.799
1		0.00		-5.20		3.332e-03		28.672		1.394e-03		62.694
1		0.00		-5.60		4.322e-03		79.933		1.898e-03		52.326
1		0.00		-6.00		5.628e-03		94.680		2.446e-03		40.149
1		0.00		-6.40		7.798e-03		113.655		2.803e-03		26.951
1		0.00		-6.80		9.461e-03		115.795		3.443e-03		25.065
1		0.00		-7.20		1.060e-02		117.330		3.850e-03		24.555
1		0.00		-7.60		1.372e-02		120.218		4.750e-03		23.882
1		0.00		-8.00		1.374e-02		117.854		4.528e-03		25.921
1		0.00		-8.40		1.540e-02		122.532		5.062e-03		15.970
1		0.00		-8.80		1.633e-02		122.331		5.322e-03		9.565
1		0.00		-9.20		1.607e-02		122.034		4.509e-03		9.876
1		0.00		-9.60		1.790e-02		125.263		4.387e-03		9.441
1		0.00		-10.00		1.835e-02		123.715		4.194e-03		11.435
1		0.00		-9.60		1.855e-02		121.344		4.350e-03		11.850
1		0.00		-9.20		1.807e-02		122.796		4.348e-03		11.408
1		0.00		-8.80		1.867e-02		124.749		4.376e-03		10.704
1		0.00		-8.40		1.817e-02		122.212		4.982e-03		16.361
1		0.00		-8.00		1.651e-02		121.605		4.981e-03		19.387
1		0.00		-7.60		1.658e-02		122.387		4.816e-03		19.812
1		0.00		-7.20		1.500e-02		126.561		4.425e-03		11.778
1		0.00		-6.80		1.528e-02		125.171		4.173e-03		10.756
1		0.00		-6.40		1.480e-02		125.544		3.782e-03		9.811
1		0.00		-6.00		1.427e-02		123.077		3.720e-03		11.951
1		0.00		-5.60		1.334e-02		122.458		3.566e-03		11.455
1		0.00		-5.20		1.246e-02		123.690		3.597e-03		15.321
1		0.00		-4.80		1.116e-02		124.650		3.138e-03		14.843
1		0.00		-4.40		1.035e-02		116.807		3.429e-03		25.106
1		0.00		-4.00		9.868e-03		116.678		3.102e-03		31.038
1		0.00		-3.60		9.172e-03		115.251		3.237e-03		33.122
1		0.00		-3.20		8.777e-03		115.404		2.889e-03		29.400
1		0.00		-2.80		8.600e-03		113.402		2.753e-03		27.275
1		0.00		-2.40		8.209e-03		117.341		2.765e-03		25.225
1		0.00		-2.00		7.686e-03		116.102		2.387e-03		14.639
1		0.00		-1.60		7.444e-03		121.910		2.087e-03		16.673
1		0.00		-1.20		6.485e-03		120.403		1.999e-03		18.948
1		0.00		-0.80		6.239e-03		114.508		2.078e-03		24.069
1		0.00		-0.40		5.796e-03		110.733		1.880e-03		31.918
2		0.00		0.00		5.384e-03		100.451		1.850e-03		40.802
2		0.00		0.40		4.601e-03		108.022		1.845e-03		32.280
2		0.00		0.80		4.279e-03		105.886		1.753e-03		33.022
2		0.00		1.20		3.538e-03		94.145		1.367e-03		46.036
2		0.00		1.60		3.035e-03		89.579		1.161e-03		43.067
2		0.00		2.00		2.695e-03		69.617		1.042e-03		71.433
2		0.00		2.40		2.115e-03		28.835		8.109e-04		71.276
2		0.00		2.80		2.045e-03		4.974		8.940e-04		66.337
2		0.00		3.20		2.706e-03		-37.526		1.147e-03		48.091
2		0.00		3.60		3.359e-03		-42.159		1.261e-03		34.704
2		0.00		4.00		4.287e-03		-44.094		1.568e-03		31.516
2		0.00		4.40		5.522e-03		-42.139		1.691e-03		22.336
2		0.00		4.80		6.964e-03		-54.320		1.795e-03		18.801
2		0.00		5.20		8.878e-03		-52.265		2.216e-03		18.338
2		0.00		5.60		1.107e-02		-51.936		2.844e-03		14.724
2		0.00		6.00		1.190e-02		-51.234		3.266e-03		19.219
2		0.00		6.40		1.432e-02		-48.797		3.634e-03		14.037
2		0.00		6.80		1.670e-02		-50.788		4.467e-03		12.379
2		0.00		7.20		1.995e-02		-53.223		4.703e-03		11.256
2		0.00		7.60		2.290e-02		-52.916		4.749e-03		11.821
2		0.00		8.00		2.601e-02		-53.660		5.470e-03		13.828
2		0.00		8.40		2.841e-02		-50.373		6.295e-03		12.756
2		0.00		8.80		3.222e-02		-51.500		7.727e-03		14.215
2		0.00		9.20		3.664e-02		-50.422		9.725e-03		17.340
2		0.00		9.60		4.194e-02		-50.607		1.113e-02		9.952
2		0.00		10.00		4.639e-02		-51.269		1.037e-02		8.661
2		0.00		9.60		4.876e-02		-51.723		1.048e-02		8.118
2		0.00		9.20		4.709e-02		-54.358		1.139e-02		12.896
2		0.00		8.80		4.666e-02		-51.955		1.152e-02		12.131
2		0.00		8.40		4.511e-02		-52.295		1.239e-02		14.255
2		0.00		8.00		4.393e-02		-50.587		1.322e-02		15.029
2		0.00		7.60		4.313e-02		-50.685		1.298e-02		9.329
2		0.00		7.20		4.380e-02		-51.949		1.146e-02		8.036
2		0.00		6.80		4.360e-02		-51.953		9.685e-03		9.568
2		0.00		6.40		4.163e-02		-53.333		9.406e-03		11.154
2		0.00		6.00		3.990e-02		-52.583		1.046e-02		13.326
2		0.00		5.60		3.943e-02		-51.100		1.052e-02		17.805
2		0.00		5.20		3.919e-02		-50.757		1.085e-02		12.410
2		0.00		4.80		3.892e-02		-52.343		9.826e-03		10.292
2		0.00		4.40		3.887e-02		-51.212		8.183e-03		8.422
2		0.00		4.00		3.847e-02		-51.251		7.497e-03		10.366
2		0.00		3.60		3.761e-02		-51.469		8.222e-03		10.878
2		0.00		3.20		3.697e-02		-50.573		8.322e-03		11.230
2		0.00		2.80		3.551e-02		-50.675		9.190e-03		15.100
2		0.00		2.40		3.544e-02		-49.972		9.575e-03		11.124
2		0.00		2.00		3.600e-02		-51.061		8.775e-03		9.570
2		0.00		1.60		3.667e-02		-49.778		7.395e-03		9.159
2		0.00		1.20		3.590e-02		-51.533		7.217e-03		10.580
2		0.00		0.80		3.529e-02		-50.289		7.720e-03		10.477
2		0.00		0.40		3.415e-02		-50.509		8.565e-03		10.848
2		0.00		0.00		3.382e-02		-51.101		9.436e-03		12.125
2		0.00		-0.40		3.344e-02		-50.910		8.846e-03		9.158
2		0.00		-0.80		3.373e-02		-50.831		7.190e-03		8.585
2		0.00		-1.20		3.237e-02		-51.265		6.111e-03		9.251
2		0.00		-1.60		2.995e-02		-52.502		6.053e-03		11.741
2		0.00		-2.00		2.764e-02		-50.313		5.673e-03		11.188
2		0.00		-2.40		2.379e-02		-50.157		5.990e-03		13.528
2		0.00		-2.80		1.992e-02		-50.455		5.115e-03		12.408
2		0.00		-3.20		1.614e-02		-49.708		3.403e-03		10.261
2		0.00		-3.60		1.312e-02		-48.438		2.517e-03		12.923
2		0.00		-4.00		9.458e-03		-48.648		2.296e-03		14.052
2		0.00		-4.40		5.947e-03		-41.618		2.133e-03		19.199
2		0.00		-4.80		3.572e-03		-28.582		1.722e-03		38.154
2		0.00		-5.20		2.921e-03		50.810		1.097e-03		53.227
2		0.00		-5.60		4.533e-03		92.925		1.794e-03		37.078
2		0.00		-6.00		7.284e-03		119.199		2.471e-03		29.939
2		0.00		-6.40		8.666e-03		120.037		2.667e-03		17.964
2		0.00		-6.80		1.027e-02		121.131		3.099e-03		16.926
2		0.00		-7.20		1.148e-02		117.950		3.232e-03		21.565
2		0.00		-7.60		1.353e-02		122.920		3.898e-03		15.106
2		0.00		-8.00		1.454e-02		123.337		4.084e-03		9.667
2		0.00		-8.40		1.720e-02		123.543		3.968e-03		12.273
2		0.00		-8.80		1.741e-02		125.048		3.956e-03		8.921
2		0.00		-9.20		1.759e-02		123.791		4.632e-03		12.570
2		0.00		-9.60		1.870e-02		121.284		5.582e-03		20.066
2		0.00		-10.00		1.846e-02		123.332		5.641e-03		17.128
2		0.00		-9.60		1.914e-02		126.276		4.992e-03		7.898
2		0.00		-9.20		1.969e-02		123.215		4.397e-03		9.866
2		0.00		-8.80		1.831e-02		122.207		4.239e-03		10.964
2		0.00		-8.40		1.847e-02		124.479		4.514e-03		10.431
2		0.00		-8.00		1.718e-02		122.470		4.833e-03		18.924
2		0.00		-7.60		1.729e-02		125.410		4.586e-03		9.392
2		0.00		-7.20		1.674e-02		125.390		3.998e-03		9.887
2		0.00		-6.80		1.673e-02		123.205		3.362e-03		11.126
2		0.00		-6.40		1.664e-02		124.059		3.462e-03		10.795
2		0.00		-6.00		1.466e-02		125.910		3.781e-03		13.840
2		0.00		-5.60		1.383e-02		124.586		3.761e-03		21.494
2		0.00		-5.20		1.349e-02		121.612		3.628e-03		10.371
2		0.00		-4.80		1.295e-02		121.950		3.022e-03		15.110
2		0.00		-4.40		1.268e-02		123.021		2.686e-03		11.227
2		0.00		-4.00		1.184e-02		126.920		2.670e-03		12.294
2		0.00		-3.60		1.116e-02		121.797		2.773e-03		13.657
2		0.00		-3.20		1.041e-02		123.794		3.052e-03		19.671
2		0.00		-2.80		1.014e-02		119.189		2.910e-03		12.596
2		0.00		-2.40		9.811e-03		122.057		2.523e-03		10.848
2		0.00		-2.00		9.242e-03		122.537		2.141e-03		14.371
2		0.00		-1.60		8.690e-03		123.191		2.190e-03		11.952
2		0.00		-1.20		7.879e-03		118.635		2.109e-03		14.708
2		0.00		-0.80		7.462e-03		117.606		2.350e-03		27.704
2		0.00		-0.40		6.991e-03		117.207		2.139e-03		19.853
3		0.00		0.00		6.961e-03		121.141		1.986e-03		19.373
3		0.00		0.40		6.503e-03		114.047		1.490e-03		17.453
3		0.00		0.80		5.985e-03		117.713		1.628e-03		16.522
3		0.00		1.20		4.990e-03		116.114		1.493e-03		23.214
3		0.00		1.60		4.269e-03		114.479		1.599e-03		32.374
3		0.00		2.00		3.779e-03		98.891		1.326e-03		39.616
3		0.00		2.40		3.661e-03		95.091		1.329e-03		47.393
3		0.00		2.80		2.490e-03		48.534		1.122e-03		70.447
3		0.00		3.20		1.929e-03		18.220		8.757e-04		74.853
3		0.00		3.60		2.013e-03		-2.959		8.641e-04		63.209
3		0.00		4.00		2.655e-03		-32.895		9.113e-04		38.811
3		0.00		4.40		4.214e-03		-45.691		1.307e-03		22.375
3		0.00		4.80		5.003e-03		-42.084		1.588e-03		20.149
3		0.00		5.20		6.376e-03		-47.761		1.799e-03		16.407
3		0.00		5.60		8.437e-03		-50.674		2.124e-03		12.217
3		0.00		6.00		1.080e-02		-51.411		2.410e-03		13.724
3		0.00		6.40		1.376e-02		-48.573		2.875e-03		11.552
3		0.00		6.80		1.596e-02		-52.973		3.136e-03		11.889
3		0.00		7.20		1.809e-02		-50.471		3.759e-03		12.062
3		0.00		7.60		2.011e-02		-50.905		4.716e-03		13.269
3		0.00		8.00		2.239e-02		-52.520		6.019e-03		17.240
3		0.00		8.40		2.547e-02		-51.362		6.930e-03		14.858
3		0.00		8.80		2.883e-02		-52.541		7.133e-03		10.985
3		0.00		9.20		3.474e-02		-51.427		7.521e-03		10.553
3		0.00		9.60		3.968e-02		-50.252		7.387e-03		8.390
3		0.00		10.00		4.381e-02		-52.077		8.473e-03		9.427
3		0.00		9.60		4.579e-02		-50.724		8.536e-03		9.504
3		0.00		9.20		4.592e-02		-50.295		9.224e-03		9.838
3		0.00		8.80		4.412e-02		-49.393		9.769e-03		10.433
3		0.00		8.40		4.394e-02		-49.796		1.041e-02		12.775
3		0.00		8.00		4.292e-02		-50.297		1.117e-02		15.467
3		0.00		7.60		4.238e-02		-48.101		1.119e-02		10.906
3		0.00		7.20		4.202e-02		-51.444		1.102e-02		9.960
3		0.00		6.80		4.076e-02		-50.590		1.009e-02		9.246
3		0.00		6.40		4.038e-02		-51.059		8.738e-03		10.051
3		0.00		6.00		3.973e-02		-50.971		7.921e-03		8.844
3		0.00		5.60		3.996e-02		-50.931		7.534e-03		8.639
3		0.00		5.20		3.950e-02		-51.479		7.797e-03		9.723
3		0.00		4.80		3.820e-02		-50.043		8.157e-03		10.312
3		0.00		4.40		3.718e-02		-49.888		8.995e-03		11.628
3		0.00		4.00		3.586e-02		-49.021		9.450e-03		12.262
3		0.00		3.60		3.573e-02		-50.559		9.939e-03		14.093
3		0.00		3.20		3.538e-02		-47.577		9.776e-03		12.223
3		0.00		2.80		3.598e-02		-49.538		9.141e-03		8.815
3		0.00		2.40		3.589e-02		-50.368		7.707e-03		9.759
3		0.00		2.00		3.559e-02		-52.004		7.129e-03		9.156
3		0.00		1.60		3.607e-02		-50.720		6.963e-03		9.071
3		0.00		1.20		3.584e-02		-52.045		6.939e-03		10.063
3		0.00		0.80		3.528e-02		-50.588		7.568e-03		9.541
3		0.00		0.40		3.457e-02		-49.841		7.413e-03		9.201
3		0.00		0.00		3.380e-02		-49.022		7.898e-03		10.774
3		0.00		-0.40		3.311e-02		-50.316		8.403e-03		14.115
3		0.00		-0.80		3.178e-02		-48.478		8.667e-03		10.714
3		0.00		-1.20		3.067e-02		-50.320		8.663e-03		9.434
3		0.00		-1.60		2.919e-02		-52.207		7.586e-03		8.626
3		0.00		-2.00		2.741e-02		-52.218		6.227e-03		9.243
3		0.00		-2.40		2.487e-02		-50.722		5.005e-03		9.988
3		0.00		-2.80		2.071e-02		-50.933		4.421e-03		12.308
3		0.00		-3.20		1.663e-02		-50.334		3.911e-03		13.301
3		0.00		-3.60		1.250e-02		-50.048		3.029e-03		16.156
3		0.00		-4.00		9.413e-03		-42.010		2.721e-03		17.824
3		0.00		-4.40		6.627e-03		-42.820		2.289e-03		14.529
3		0.00		-4.80		4.349e-03		-40.708		1.989e-03		29.709
3		0.00		-5.20		2.734e-03		15.985		1.232e-03		60.466
3		0.00		-5.60		4.321e-03		87.810		1.805e-03		56.646
3		0.00		-6.00		6.024e-03		101.395		2.398e-03		42.156
3		0.00		-6.40		8.333e-03		113.042		2.717e-03		27.939
3		0.00		-6.80		1.066e-02		123.202		3.356e-03		14.571
3		0.00		-7.20		1.169e-02		125.057		3.375e-03		15.309
3		0.00		-7.60		1.337e-02		124.411		3.937e-03		18.851
3		0.00		-8.00		1.446e-02		120.983		4.252e-03		22.299
3		0.00		-8.40		1.581e-02		124.583		4.714e-03		13.300
3		0.00		-8.80		1.687e-02		124.169		4.274e-03		11.383
3		0.00		-9.20		1.934e-02		125.280		4.398e-03		10.014
3		0.00		-9.60		1.942e-02		124.494		4.250e-03		9.770
3		0.00		-10.00		2.045e-02		124.620		4.513e-03		9.320
3		0.00		-9.60		2.067e-02		127.196		5.023e-03		9.829
3		0.00		-9.20		1.949e-02		125.669		5.188e-03		13.222
3		0.00		-8.80		1.959e-02		123.888		5.701e-03		17.859
3		0.00		-8.40		1.834e-02		126.799		5.561e-03		13.513
3		0.00		-8.00		1.848e-02		123.960		4.865e-03		9.979
3		0.00		-7.60		1.884e-02		125.821		4.263e-03		8.734
3		0.00		-7.20		1.759e-02		125.705		3.897e-03		9.360
3		0.00		-6.80		1.668e-02		122.598		3.601e-03		10.618
3		0.00		-6.40		1.587e-02		127.141		3.849e-03		9.812
3		0.00		-6.00		1.467e-02		126.242		3.465e-03		12.920
3		0.00		-5.60		1.375e-02		123.008		3.595e-03		19.808
3		0.00		-5.20		1.342e-02		123.300		3.788e-03		16.492
3		0.00		-4.80		1.353e-02		123.574		3.503e-03		9.197
3		0.00		-4.40		1.237e-02		120.622		3.084e-03		11.025
3		0.00		-4.00		1.168e-02		123.631		2.716e-03		10.871
3		0.00		-3.60		1.110e-02		125.009		2.702e-03		11.241
3		0.00		-3.20		1.033e-02		120.728		2.593e-03		12.552
3		0.00		-2.80		9.632e-03		119.655		2.567e-03		20.145
3		0.00		-2.40		9.049e-03		118.546		2.766e-03		24.760
3		0.00		-2.00		8.318e-03		118.189		2.645e-03		23.951
3		0.00		-1.60		8.387e-03		120.012		2.577e-03		18.960
3		0.00		-1.20		8.031e-03		117.320		2.413e-03		26.013
3		0.00		-0.80		7.434e-03		122.481		2.002e-03		15.523
3		0.00		-0.40		6.924e-03		118.619		2.014e-03		28.133
4		0.00		0.00		6.609e-03		118.254		2.076e-03		21.596
4		0.00		0.40		5.765e-03		114.043		2.047e-03		26.661
4		0.00		0.80		5.417e-03		110.740		1.903e-03		37.713
4		0.00		1.20		4.907e-03		109.479		1.702e-03		33.476
4		0.00		1.60		4.603e-03		110.604		1.504e-03		32.785
4		0.00		2.00		3.885e-03		99.151		1.399e-03		48.784
4		0.00		2.40		3.215e-03		97.810		1.217e-03		42.257
4		0.00		2.80		2.393e-03		61.281		9.635e-04		62.376
4		0.00		3.20		2.090e-03		30.755		8.106e-04		60.260
4		0.00		3.60		2.057e-03		-7.655		8.772e-04		51.087
4		0.00		4.00		2.480e-03		-28.696		9.033e-04		51.399
4		0.00		4.40		3.525e-03		-53.065		1.301e-03		36.716
4		0.00		4.80		4.685e-03		-52.349		1.480e-03		25.760
4		0.00		5.20		6.441e-03		-42.997		1.777e-03		18.546
4		0.00		5.60		8.069e-03		-48.789		1.689e-03		19.173
4		0.00		6.00		9.405e-03		-50.466		2.174e-03		14.394
4		0.00		6.40		1.122e-02		-47.426		2.700e-03		13.858
4		0.00		6.80		1.352e-02		-48.197		3.512e-03		18.217
4		0.00		7.20		1.507e-02		-47.064		4.249e-03		17.632
4		0.00		7.60		1.844e-02		-50.746		4.749e-03		11.044
4		0.00		8.00		2.167e-02		-51.572		4.703e-03		9.707
4		0.00		8.40		2.526e-02		-52.810		5.378e-03		11.191
4		0.00		8.80		2.832e-02		-50.039		5.932e-03		11.992
4		0.00		9.20		3.113e-02		-51.361		7.437e-03		11.442
4		0.00		9.60		3.385e-02		-50.718		9.196e-03		14.246
4		0.00		10.00		3.722e-02		-49.549		1.075e-02		12.519
4		0.00		9.60		4.013e-02		-49.798		1.067e-02		9.418
4		0.00		9.20		4.129e-02		-51.218		9.166e-03		7.854
4		0.00		8.80		4.115e-02		-50.469		8.267e-03		9.748
4		0.00		8.40		4.024e-02		-50.596		8.198e-03		10.789
4		0.00		8.00		3.882e-02		-49.545		8.677e-03		10.759
4		0.00		7.60		3.826e-02		-50.097		9.700e-03		15.432
4		0.00		7.20		3.757e-02		-48.726		9.769e-03		14.917
4		0.00		6.80		3.787e-02		-49.346		9.617e-03		8.789
4		0.00		6.40		3.786e-02		-50.962		8.067e-03		8.536
4		0.00		6.00		3.751e-02		-51.493		7.715e-03		10.112
4		0.00		5.60		3.634e-02		-50.853		7.983e-03		11.627
4		0.00		5.20		3.517e-02		-49.804		8.952e-03		14.694
4		0.00		4.80		3.458e-02		-48.570		9.421e-03		16.572
4		0.00		4.40		3.403e-02		-49.859		9.986e-03		9.839
4		0.00		4.00		3.444e-02		-51.543		8.580e-03		8.606
4		0.00		3.60		3.527e-02		-50.721		7.155e-03		8.733
4		0.00		3.20		3.441e-02		-52.234		7.124e-03		11.107
4		0.00		2.80		3.353e-02		-50.063		7.704e-03		11.965
4		0.00		2.40		3.295e-02		-50.867		8.426e-03		13.567
4		0.00		2.00		3.233e-02		-49.253		9.185e-03		14.263
4		0.00		1.60		3.275e-02		-48.890		9.137e-03		9.975
4		0.00		1.20		3.349e-02		-50.075		7.775e-03		7.965
4		0.00		0.80		3.406e-02		-50.751		6.987e-03		8.510
4		0.00		0.40		3.404e-02		-50.785		6.448e-03		10.575
4		0.00		0.00		3.366e-02		-50.240		6.183e-03		9.968
4		0.00		-0.40		3.262e-02		-48.804		6.928e-03		11.189
4		0.00		-0.80		3.152e-02		-49.636		7.573e-03		16.028
4		0.00		-1.20		3.111e-02		-50.338		7.798e-03		13.761
4		0.00		-1.60		2.988e-02		-49.442		7.153e-03		9.628
4		0.00		-2.00		2.841e-02		-50.090		5.815e-03		8.522
4		0.00		-2.40		2.590e-02		-50.030		4.419e-03		9.690
4		0.00		-2.80		2.147e-02		-50.645		3.756e-03		10.752
4		0.00		-3.20		1.769e-02		-47.529		3.025e-03		11.393
4		0.00		-3.60		1.332e-02		-47.548		3.096e-03		13.153
4		0.00		-4.00		1.046e-02		-48.764		2.726e-03		13.709
4		0.00		-4.40		7.389e-03		-48.241		2.598e-03		17.515
4		0.00		-4.80		3.976e-03		-34.574		2.024e-03		37.972
4		0.00		-5.20		2.812e-03		35.749		1.150e-03		59.426
4		0.00		-5.60		4.605e-03		98.763		1.966e-03		47.774
4		0.00		-6.00		6.813e-03		109.572		2.417e-03		33.725
4		0.00		-6.40		8.978e-03		118.964		2.819e-03		22.574
4		0.00		-6.80		1.127e-02		121.993		3.301e-03		12.966
4		0.00		-7.20		1.225e-02		122.417		3.213e-03		10.999
4		0.00		-7.60		1.400e-02		123.996		3.527e-03		12.770
4		0.00		-8.00		1.513e-02		124.025		4.178e-03		18.054
4		0.00		-8.40		1.659e-02		126.262		4.570e-03		16.829
4		0.00		-8.80		1.855e-02		123.590		5.044e-03		11.237
4		0.00		-9.20		1.858e-02		124.784		4.617e-03		10.965
4		0.00		-9.60		2.049e-02		125.579		4.206e-03		8.613
4		0.00		-10.00		2.067e-02		124.900		3.904e-03		8.298
4		0.00		-9.60		2.001e-02		125.687		3.876e-03		9.735
4		0.00		-9.20		2.071e-02		126.028		4.051e-03		10.252
4		0.00		-8.80		1.980e-02		126.137		4.391e-03		9.574
4		0.00		-8.40		1.922e-02		125.156		4.736e-03		11.419
4		0.00		-8.00		1.908e-02		124.265		5.209e-03		15.394
4		0.00		-7.60		1.760e-02		122.868		4.989e-03		18.560
4		0.00		-7.20		1.686e-02		122.590		4.986e-03		18.543
4		0.00		-6.80		1.695e-02		123.220		4.986e-03		11.842
4		0.00		-6.40		1.550e-02		123.765		4.481e-03		11.971
4		0.00		-6.00		1.592e-02		124.839		4.088e-03		8.993
4		0.00		-5.60		1.488e-02		121.785		3.551e-03		9.901
4		0.00		-5.20		1.440e-02		124.800		3.323e-03		9.682
4		0.00		-4.80		1.388e-02		124.790		2.908e-03		10.374
4		0.00		-4.40		1.276e-02		125.340		2.675e-03		12.036
4		0.00		-4.00		1.246e-02		124.095		3.033e-03		11.971
4		0.00		-3.60		1.181e-02		121.652		2.743e-03		14.461
4		0.00		-3.20		1.162e-02		123.649		3.141e-03		19.796
4		0.00		-2.80		1.062e-02		122.363		3.035e-03		21.319
4		0.00		-2.40		1.010e-02		125.295		3.038e-03		18.619
4		0.00		-2.00		9.811e-03		120.513		2.950e-03		17.492
4		0.00		-1.60		9.342e-03		125.624		2.602e-03		12.630
4		0.00		-1.20		9.008e-03		120.338		2.572e-03		16.926
4		0.00		-0.80		8.344e-03		121.495		2.299e-03		14.925
4		0.00		-0.40		7.873e-03		121.059		1.983e-03		15.945
5		0.00		0.00		7.548e-03		123.678		1.991e-03		15.829
5		0.00		0.40		6.767e-03		121.160		1.902e-03		18.570
5		0.00		0.80		6.044e-03		118.756		1.846e-03		16.475
5		0.00		1.20		5.767e-03		113.401		1.941e-03		20.999
5		0.00		1.60		5.194e-03		108.032		1.692e-03		32.509
5		0.00		2.00		4.721e-03		104.763		1.605e-03		36.189
5		0.00		2.40		3.823e-03		91.676		1.507e-03		44.762
5		0.00		2.80		3.195e-03		91.274		1.222e-03		52.895
5		0.00		3.20		2.542e-03		64.714		1.116e-03		66.062
5		0.00		3.60		2.159e-03		40.047		8.701e-04		62.416
5		0.00		4.00		2.096e-03		5.756		8.473e-04		58.397
5		0.00		4.40		2.283e-03		-21.073		9.600e-04		49.664
5		0.00		4.80		3.338e-03		-43.582		1.182e-03		30.223
5		0.00		5.20		4.533e-03		-43.753		1.278e-03		24.291
5		0.00		5.60		6.485e-03		-44.010		1.633e-03		17.961
5		0.00		6.00		8.061e-03		-47.706		1.798e-03		17.482
5		0.00		6.40		1.097e-02		-45.799		2.177e-03		15.195
5		0.00		6.80		1.253e-02		-48.401		2.873e-03		13.330
5		0.00		7.20		1.505e-02		-48.080		3.719e-03		15.328
5		0.00		7.60		1.761e-02		-43.359		4.887e-03		16.546
5		0.00		8.00		2.032e-02		-50.548		5.459e-03		15.899
5		0.00		8.40		2.335e-02		-47.873		6.427e-03		9.900
5		0.00		8.80		2.626e-02		-51.564		6.445e-03		9.481
5		0.00		9.20		2.977e-02		-50.910		6.712e-03		9.832
5		0.00		9.60		3.303e-02		-50.571		7.224e-03		9.315
5		0.00		10.00		3.753e-02		-51.284		8.125e-03		9.203
5		0.00		9.60		3.922e-02		-52.583		8.121e-03		9.457
5		0.00		9.20		3.883e-02		-51.992		8.613e-03		11.870
5		0.00		8.80		3.942e-02		-50.557		8.224e-03		11.212
5		0.00		8.40		3.917e-02		-49.091		8.235e-03		10.786
5		0.00		8.00		3.749e-02		-48.903		8.568e-03		12.008
5		0.00		7.60		3.745e-02		-49.646		8.561e-03		12.796
5		0.00		7.20		3.624e-02		-48.912		8.828e-03		15.722
5		0.00		6.80		3.587e-02		-47.660		8.823e-03		12.618
5		0.00		6.40		3.537e-02		-49.092		9.069e-03		10.745
5		0.00		6.00		3.522e-02		-49.955		8.809e-03		9.849
5		0.00		5.60		3.507e-02		-50.999		8.344e-03		9.725
5		0.00		5.20		3.495e-02		-50.834		7.582e-03		9.105
5		0.00		4.80		3.510e-02		-50.862		7.155e-03		8.170
5		0.00		4.40		3.436e-02		-50.689		6.561e-03		9.153
5		0.00		4.00		3.455e-02		-50.473		6.547e-03		10.197
5		0.00		3.60		3.391e-02		-49.940		6.204e-03		9.684
5		0.00		3.20		3.412e-02		-50.348		6.381e-03		10.344
5		0.00		2.80		3.388e-02		-50.288		6.277e-03		10.408
5		0.00		2.40		3.196e-02		-49.354		6.817e-03		10.779
5		0.00		2.00		3.215e-02		-49.931		7.278e-03		11.049
5		0.00		1.60		3.236e-02		-49.637		7.720e-03		13.677
5		0.00		1.20		3.191e-02		-49.473		8.033e-03		15.256
5		0.00		0.80		3.181e-02		-47.757		7.990e-03		14.219
5		0.00		0.40		3.156e-02		-50.111		8.007e-03		10.850
5		0.00		0.00		3.161e-02		-49.544		7.441e-03		10.021
5		0.00		-0.40		3.197e-02		-48.023		6.994e-03		8.771
5		0.00		-0.80		3.207e-02		-49.136		6.147e-03		8.423
5		0.00		-1.20		3.144e-02		-51.292		5.796e-03		10.136
5		0.00		-1.60		3.003e-02		-50.342		4.976e-03		9.070
5		0.00		-2.00		2.822e-02		-50.368		4.431e-03		9.032
5		0.00		-2.40		2.406e-02		-49.611		4.432e-03		11.136
5		0.00		-2.80		2.072e-02		-48.498		3.999e-03		9.540
5		0.00		-3.20		1.715e-02		-49.773		3.525e-03		12.477
5		0.00		-3.60		1.374e-02		-47.598		3.270e-03		15.051
5		0.00		-4.00		1.090e-02		-47.799		2.771e-03		17.389
5		0.00		-4.40		7.553e-03		-40.417		2.346e-03		16.686
5		0.00		-4.80		4.369e-03		-41.804		1.957e-03		30.993
5		0.00		-5.20		2.647e-03		33.295		1.253e-03		58.892
5		0.00		-5.60		3.948e-03		82.988		1.597e-03		46.414
5		0.00		-6.00		5.367e-03		99.591		1.911e-03		42.644
5		0.00		-6.40		7.472e-03		111.055		2.480e-03		37.473
5		0.00		-6.80		9.511e-03		111.597		3.185e-03		28.797
5		0.00		-7.20		1.177e-02		123.031		3.271e-03		13.230
5		0.00		-7.60		1.334e-02		122.865		3.778e-03		11.224
5		0.00		-8.00		1.616e-02		125.205		3.903e-03		11.585
5		0.00		-8.40		1.662e-02		123.915		4.273e-03		13.033
5		0.00		-8.80		1.767e-02		124.792		4.752e-03		13.745
5		0.00		-9.20		1.956e-02		125.101		5.247e-03		17.136
5		0.00		-9.60		2.011e-02		125.621		5.475e-03		14.671
5		0.00		-10.00		2.105e-02		126.644		5.624e-03		10.061
5		0.00		-9.60		2.134e-02		127.391		4.962e-03		9.313
5		0.00		-9.20		2.147e-02		127.081		4.473e-03		9.615
5		0.00		-8.80		2.142e-02		123.939		4.231e-03		11.364
5		0.00		-8.40		2.064e-02		126.186		3.786e-03		9.106
5		0.00		-8.00		2.000e-02		125.564		4.245e-03		9.959
5		0.00		-7.60		2.031e-02		127.727		4.228e-03		9.827
5		0.00		-7.20		1.803e-02		124.774		4.458e-03		12.520
5		0.00		-6.80		1.788e-02		125.215		4.443e-03		16.205
5		0.00		-6.40		1.765e-02		125.606		4.747e-03		14.986
5		0.00		-6.00		1.657e-02		125.230		4.348e-03		9.913
5		0.00		-5.60		1.626e-02		126.150		4.000e-03		9.921
5		0.00		-5.20		1.532e-02		124.702		3.451e-03		8.729
5		0.00		-4.80		1.486e-02		124.704		3.186e-03		8.718
5		0.00		-4.40		1.414e-02		125.958		3.135e-03		10.385
5		0.00		-4.00		1.362e-02		127.056		2.753e-03		11.196
5		0.00		-3.60		1.277e-02		124.295		3.029e-03		11.485
5		0.00		-3.20		1.196e-02		123.682		2.794e-03		16.845
5		0.00		-2.80		1.144e-02		121.860		3.030e-03		20.708
5		0.00		-2.40		1.056e-02		121.895		2.887e-03		20.592
5		0.00		-2.00		1.018e-02		123.159		2.789e-03		13.283
5		0.00		-1.60		9.811e-03		117.824		2.599e-03		11.114
5		0.00		-1.20		9.791e-03		119.918		2.542e-03		19.945
5		0.00		-0.80		9.469e-03		125.490		2.145e-03		12.513
5		0.00		-0.40		9.097e-03		125.282		2.206e-03		9.718
6		0.00		0.00		8.262e-03		120.404		2.267e-03		12.766
6		0.00		0.40		7.877e-03		122.832		2.060e-03		13.170
6		0.00		0.80		6.976e-03		117.277		2.132e-03		24.736
6		0.00		1.20		6.443e-03		116.092		1.978e-03		26.209
6		0.00		1.60		5.692e-03		109.165		1.856e-03		34.219
6		0.00		2.00		4.825e-03		115.794		1.805e-03		33.696
6		0.00		2.40		4.545e-03		112.334		1.545e-03		35.633
6		0.00		2.80		3.733e-03		95.675		1.488e-03		37.822
6		0.00		3.20		3.066e-03		89.791		1.284e-03		52.295
6		0.00		3.60		2.399e-03		63.858		1.004e-03		70.425
6		0.00		4.00		2.277e-03		23.853		9.911e-04		66.867
6		0.00		4.40		2.053e-03		-6.383		8.499e-04		60.121
6		0.00		4.80		2.747e-03		-34.395		9.762e-04		36.594
6		0.00		5.20		4.115e-03		-37.777		1.325e-03		24.070
6		0.00		5.60		5.494e-03		-47.375		1.714e-03		17.309
6		0.00		6.00		7.371e-03		-45.332		2.003e-03		15.808
6		0.00		6.40		9.606e-03		-49.443		2.341e-03		12.857
6		0.00		6.80		1.189e-02		-51.103		2.442e-03		12.665
6		0.00		7.20		1.414e-02		-50.438		2.440e-03		11.870
6		0.00		7.60		1.702e-02		-47.017		3.298e-03		11.811
6		0.00		8.00		1.943e-02		-49.238		3.732e-03		11.157
6		0.00		8.40		2.211e-02		-49.617		5.026e-03		12.081
6		0.00		8.80		2.462e-02		-50.843		6.131e-03		13.006
6		0.00		9.20		2.782e-02		-48.757		7.660e-03		14.477
6		0.00		9.60		3.122e-02		-49.788		8.477e-03		10.390
6		0.00		10.00		3.503e-02		-49.988		8.345e-03		7.980
6		0.00		9.60		3.696e-02		-50.891		8.062e-03		8.365
6		0.00		9.20		3.799e-02		-51.318		7.317e-03		9.036
6		0.00		8.80		3.739e-02		-51.501		7.883e-03		10.993
6		0.00		8.40		3.791e-02		-49.213		8.039e-03		10.169
6		0.00		8.00		3.666e-02		-48.143		8.038e-03		11.502
6		0.00		7.60		3.636e-02		-48.218		8.584e-03		14.297
6		0.00		7.20		3.541e-02		-48.267		8.962e-03		12.421
6		0.00		6.80		3.543e-02		-48.565		8.421e-03		8.766
6		0.00		6.40		3.573e-02		-48.869		7.350e-03		8.701
6		0.00		6.00		3.610e-02		-50.118		6.288e-03		8.619
6		0.00		5.60		3.518e-02		-50.421		6.057e-03		9.640
6		0.00		5.20		3.390e-02		-49.777		6.503e-03		10.277
6		0.00		4.80		3.360e-02		-47.999		7.314e-03		11.122
6		0.00		4.40		3.253e-02		-48.470		7.789e-03		13.469
6		0.00		4.00		3.217e-02		-48.319		8.784e-03		11.101
6		0.00		3.60		3.255e-02		-49.701		8.449e-03		9.099
6		0.00		3.20		3.310e-02		-49.878		7.071e-03		8.125
6		0.00		2.80		3.280e-02		-49.995		6.324e-03		8.988
6		0.00		2.40		3.259e-02		-50.134		6.468e-03		10.790
6		0.00		2.00		3.213e-02		-49.096		7.184e-03		10.154
6		0.00		1.60		3.105e-02		-50.121		7.975e-03		13.585
6		0.00		1.20		3.104e-02		-49.288		8.499e-03		14.684
6		0.00		0.80		3.073e-02		-48.860		8.701e-03		9.264
6		0.00		0.40		3.136e-02		-50.170		7.956e-03		7.704
6		0.00		0.00		3.187e-02		-50.390		6.449e-03		8.315
6		0.00		-0.40		3.231e-02		-48.876		5.662e-03		8.630
6		0.00		-0.80		3.232e-02		-49.152		5.203e-03		8.511
6		0.00		-1.20		3.131e-02		-49.770		5.050e-03		9.298
6		0.00		-1.60		3.017e-02		-48.798		5.356e-03		9.838
6		0.00		-2.00		2.777e-02		-49.034		5.729e-03		11.369
6		0.00		-2.40		2.405e-02		-48.628		5.658e-03		15.967
6		0.00		-2.80		2.218e-02		-48.667		5.385e-03		10.659
6		0.00		-3.20		1.827e-02		-49.180		3.881e-03		10.625
6		0.00		-3.60		1.577e-02		-49.252		3.143e-03		10.616
6		0.00		-4.00		1.064e-02		-47.186		2.260e-03		11.722
6		0.00		-4.40		7.672e-03		-50.302		1.955e-03		19.264
6		0.00		-4.80		4.269e-03		-28.443		1.791e-03		36.201
6		0.00		-5.20		2.499e-03		21.293		1.219e-03		66.874
6		0.00		-5.60		3.441e-03		78.185		1.438e-03		50.931
6		0.00		-6.00		5.347e-03		101.691		2.326e-03		37.936
6		0.00		-6.40		7.457e-03		116.697		2.611e-03		28.769
6		0.00		-6.80		1.040e-02		122.447		3.077e-03		11.048
6		0.00		-7.20		1.266e-02		124.654		3.188e-03		10.351
6		0.00		-7.60		1.471e-02		123.406		3.556e-03		10.503
6		0.00		-8.00		1.571e-02		126.431		3.704e-03		11.000
6		0.00		-8.40		1.742e-02		124.686		3.904e-03		9.475
6		0.00		-8.80		1.795e-02		125.305		4.239e-03		15.945
6		0.00		-9.20		1.855e-02		125.408		4.683e-03		15.959
6		0.00		-9.60		2.074e-02		126.112		5.333e-03		11.593
6		0.00		-10.00		2.187e-02		123.616		5.418e-03		8.841
6		0.00		-9.60		2.238e-02		124.867		5.093e-03		7.379
6		0.00		-9.20		2.186e-02		127.952		4.472e-03		7.773
6		0.00		-8.80		2.123e-02		125.617		3.945e-03		9.626
6		0.00		-8.40		2.073e-02		126.906		4.231e-03		9.796
6		0.00		-8.00		2.050e-02		127.156		4.307e-03		9.928
6		0.00		-7.60		1.980e-02		124.082		4.979e-03		13.967
6		0.00		-7.20		1.867e-02		122.895		5.037e-03		20.651
6		0.00		-6.80		1.790e-02		123.178		5.244e-03		16.641
6		0.00		-6.40		1.739e-02		127.700		5.091e-03		10.608
6		0.00		-6.00		1.660e-02		124.916		4.134e-03		9.148
6		0.00		-5.60		1.650e-02		126.081		3.868e-03		8.577
6		0.00		-5.20		1.552e-02		125.196		3.344e-03		9.468
6		0.00		-4.80		1.437e-02		123.585		3.532e-03		11.283
6		0.00		-4.40		1.379e-02		126.173		3.545e-03		10.602
6		0.00		-4.00		1.316e-02		123.817		3.420e-03		14.580
6		0.00		-3.60		1.261e-02		124.470		3.571e-03		22.473
6		0.00		-3.20		1.174e-02		122.956		3.047e-03		18.501
6		0.00		-2.80		1.134e-02		126.375		3.019e-03		12.706
6		0.00		-2.40		1.149e-02		123.138		2.759e-03		10.493
6		0.00		-2.00		1.063e-02		125.205		2.682e-03		11.190
6		0.00		-1.60		1.039e-02		125.277		2.411e-03		10.206
6		0.00		-1.20		9.902e-03		126.621		2.334e-03		11.241
6		0.00		-0.80		9.045e-03		121.755		2.241e-03		17.394
6		0.00		-0.40		8.441e-03		124.891		1.930e-03		13.755
7		0.00		0.00		7.769e-03		122.255		2.069e-03		15.711
7		0.00		0.40		7.578e-03		118.567		2.073e-03		21.144
7		0.00		0.80		7.018e-03		117.316		2.228e-03		30.195
7		0.00		1.20		6.755e-03		116.049		2.044e-03		25.996
7		0.00		1.60		5.685e-03		122.030		1.859e-03		17.549
7		0.00		2.00		5.092e-03		115.833		1.656e-03		25.732
7		0.00		2.40		4.487e-03		108.566		1.477e-03		32.427
7		0.00		2.80		4.142e-03		113.389		1.413e-03		44.039
7		0.00		3.20		3.082e-03		101.398		1.145e-03		46.559
7		0.00		3.60		2.703e-03		79.102		1.082e-03		73.100
7		0.00		4.00		2.202e-03		49.629		8.759e-04		64.145
7		0.00		4.40		1.999e-03		7.864		6.886e-04		68.852
7		0.00		4.80		2.411e-03		-17.730		1.102e-03		51.770
7		0.00		5.20		2.961e-03		-36.307		1.108e-03		40.610
7		0.00		5.60		4.613e-03		-51.864		1.466e-03		24.947
7		0.00		6.00		6.337e-03		-44.683		1.680e-03		16.714
7		0.00		6.40		8.362e-03		-43.102		2.028e-03		14.541
7		0.00		6.80		1.032e-02		-50.728		2.290e-03		11.972
7		0.00		7.20		1.354e-02		-48.823		2.395e-03		11.515
7		0.00		7.60		1.652e-02		-48.321		3.055e-03		12.070
7		0.00		8.00		1.864e-02		-48.004		3.678e-03		12.478
7		0.00		8.40		2.138e-02		-48.714		4.292e-03		10.299
7		0.00		8.80		2.369e-02		-47.761		5.188e-03		11.741
7		0.00		9.20		2.638e-02		-49.293		6.771e-03		13.253
7		0.00		9.60		2.961e-02		-51.403		8.155e-03		15.847
7		0.00		10.00		3.182e-02		-49.481		9.371e-03		13.954
7		0.00		9.60		3.318e-02		-50.154		9.901e-03		10.412
7		0.00		9.20		3.388e-02		-48.686		9.822e-03		9.035
7		0.00		8.80		3.437e-02		-49.411		9.114e-03		8.789
7		0.00		8.40		3.465e-02		-50.696		8.364e-03		8.560
7		0.00		8.00		3.445e-02		-51.148		7.834e-03		9.399
7		0.00		7.60		3.409e-02		-50.484		7.537e-03		9.695
7		0.00		7.20		3.317e-02		-49.837		7.422e-03		11.596
7		0.00		6.80		3.254e-02		-49.770		7.202e-03		11.251
7		0.00		6.40		3.211e-02		-48.228		7.054e-03		11.070
7		0.00		6.00		3.198e-02		-49.057		7.425e-03		10.665
7		0.00		5.60		3.153e-02		-47.294		7.426e-03		13.684
7		0.00		5.20		3.091e-02		-48.998		7.744e-03		14.403
7		0.00		4.80		3.067e-02		-49.208		7.755e-03		12.930
7		0.00		4.40		3.071e-02		-48.608		7.727e-03		8.917
7		0.00		4.00		3.108e-02		-50.288		7.432e-03		7.585
7		0.00		3.60		3.087e-02		-49.074		6.528e-03		8.783
7		0.00		3.20		3.096e-02		-49.531		6.035e-03		8.870
7		0.00		2.80		3.133e-02		-49.764		5.578e-03		8.860
7		0.00		2.40		2.990e-02		-48.868		5.779e-03		10.239
7		0.00		2.00		3.009e-02		-47.880		5.648e-03		9.949
7		0.00		1.60		3.004e-02		-48.077		6.239e-03		10.519
7		0.00		1.20		2.948e-02		-48.181		6.473e-03		10.263
7		0.00		0.80		2.916e-02		-48.208		7.134e-03		12.695
7		0.00		0.40		2.873e-02		-48.759		7.624e-03		15.701
7		0.00		0.00		2.832e-02		-48.988		7.677e-03		15.447
7		0.00		-0.40		2.810e-02		-49.142		7.724e-03		11.564
7		0.00		-0.80		2.805e-02		-48.578		7.208e-03		9.508
7		0.00		-1.20		2.777e-02		-48.760		6.277e-03		9.256
7		0.00		-1.60		2.739e-02		-49.853		5.420e-03		8.412
7		0.00		-2.00		2.610e-02		-48.083		4.748e-03		8.743
7		0.00		-2.40		2.393e-02		-49.590		4.290e-03		9.188
7		0.00		-2.80		2.104e-02		-49.918		3.676e-03		10.846
7		0.00		-3.20		1.741e-02		-48.623		3.213e-03		11.652
7		0.00		-3.60		1.320e-02		-50.866		2.745e-03		12.883
7		0.00		-4.00		9.212e-03		-45.894		2.543e-03		13.114
7		0.00		-4.40		5.399e-03		-40.914		2.056e-03		21.663
7		0.00		-4.80		3.044e-03		-14.236		1.434e-03		53.018
7		0.00		-5.20		3.412e-03		80.949		1.501e-03		52.681
7		0.00		-5.60		4.343e-03		99.126		1.798e-03		36.894
7		0.00		-6.00		5.766e-03		104.812		2.209e-03		37.693
7		0.00		-6.40		8.062e-03		119.051		2.724e-03		25.065
7		0.00		-6.80		1.084e-02		124.422		3.383e-03		14.326
7		0.00		-7.20		1.276e-02		124.868		3.381e-03		10.864
7		0.00		-7.60		1.338e-02		122.462		3.722e-03		11.439
7		0.00		-8.00		1.519e-02		123.069		4.386e-03		16.517
7		0.00		-8.40		1.590e-02		121.501		4.913e-03		21.433
7		0.00		-8.80		1.719e-02		122.535		5.377e-03		26.457
7		0.00		-9.20		1.940e-02		125.055		5.620e-03		13.207
7		0.00		-9.60		2.020e-02		127.173		5.554e-03		8.099
7		0.00		-10.00		2.174e-02		125.417		4.823e-03		7.867
7		0.00		-9.60		2.168e-02		124.819		4.634e-03		9.225
7		0.00		-9.20		2.221e-02		125.263		4.794e-03		10.382
7		0.00		-8.80		2.128e-02		128.769		4.798e-03		9.506
7		0.00		-8.40		2.052e-02		127.014		4.946e-03		10.580
7		0.00		-8.00		1.980e-02		125.586		5.114e-03		16.187
7		0.00		-7.60		1.888e-02		122.695		5.045e-03		17.871
7		0.00		-7.20		1.876e-02		124.723		5.219e-03		14.278
7		0.00		-6.80		1.809e-02		126.341		5.094e-03		9.817
7		0.00		-6.40		1.742e-02		125.925		4.234e-03		8.444
7		0.00		-6.00		1.691e-02		128.258		4.056e-03		8.440
7		0.00		-5.60		1.674e-02		127.453		3.679e-03		9.177
7		0.00		-5.20		1.521e-02		126.676		3.540e-03		10.382
7		0.00		-4.80		1.467e-02		125.598		3.575e-03		10.815
7		0.00		-4.40		1.417e-02		120.696		3.762e-03		16.215
7		0.00		-4.00		1.269e-02		122.425		3.666e-03		20.477
7		0.00		-3.60		1.242e-02		125.762		3.894e-03		18.043
7		0.00		-3.20		1.227e-02		121.253		3.379e-03		14.990
7		0.00		-2.80		1.147e-02		123.039		2.980e-03		13.748
7		0.00		-2.40		1.134e-02		124.208		2.517e-03		9.385
7		0.00		-2.00		1.090e-02		125.495		2.826e-03		11.363
7		0.00		-1.60		1.012e-02		126.514		2.263e-03		12.989
7		0.00		-1.20		9.756e-03		121.467		2.359e-03		12.346
7		0.00		-0.80		9.195e-03		121.415		2.445e-03		17.818
7		0.00		-0.40		8.271e-03		117.474		2.513e-03		24.401
8		0.00		0.00		7.893e-03		121.200		2.317e-03		25.170
8		0.00		0.40		7.405e-03		116.194		2.274e-03		22.676
8		0.00		0.80		7.426e-03		117.792		2.216e-03		21.434
8		0.00		1.20		6.276e-03		117.680		1.848e-03		24.038
8		0.00		1.60		6.067e-03		116.530		1.921e-03		20.390
8		0.00		2.00		4.970e-03		115.766		1.829e-03		27.239
8		0.00		2.40		4.255e-03		116.790		1.546e-03		28.962
8		0.00		2.80		3.969e-03		110.263		1.549e-03		38.490
8		0.00		3.20		3.140e-03		85.485		1.186e-03		44.675
8		0.00		3.60		2.672e-03		76.357		1.269e-03		54.034
8		0.00		4.00		2.130e-03		40.533		8.631e-04		68.530
8		0.00		4.40		1.997e-03		34.504		7.456e-04		68.616
8		0.00		4.80		1.990e-03		-7.486		8.064e-04		62.727
8		0.00		5.20		2.718e-03		-31.669		1.136e-03		43.131
8		0.00		5.60		3.963e-03		-45.797		1.386e-03		27.717
8		0.00		6.00		5.613e-03		-44.032		1.670e-03		23.790
8		0.00		6.40		7.722e-03		-46.301		2.038e-03		17.569
8		0.00		6.80		9.450e-03		-43.991		2.550e-03		13.986
8		0.00		7.20		1.164e-02		-48.443		3.050e-03		13.274
8		0.00		7.60		1.436e-02		-48.978		3.741e-03		12.602
8		0.00		8.00		1.709e-02		-50.506		3.883e-03		9.444
8		0.00		8.40		2.003e-02		-48.273		4.240e-03		11.941
8		0.00		8.80		2.284e-02		-48.041		4.314e-03		11.751
8		0.00		9.20		2.528e-02		-48.041		5.450e-03		11.341
8		0.00		9.60		2.849e-02		-47.868		6.456e-03		11.708
8		0.00		10.00		3.086e-02		-50.706		8.253e-03		16.442
8		0.00		9.60		3.234e-02		-50.657		9.196e-03		17.034
8		0.00		9.20		3.292e-02		-50.233		9.112e-03		10.242
8		0.00		8.80		3.429e-02		-50.541		8.216e-03		8.538
8		0.00		8.40		3.398e-02		-52.320		7.447e-03		9.590
8		0.00		8.00		3.404e-02		-50.069		7.152e-03		10.876
8		0.00		7.60		3.310e-02		-49.476		7.371e-03		11.378
8		0.00		7.20		3.204e-02		-50.163		8.091e-03		12.698
8		0.00		6.80		3.183e-02		-50.057		8.520e-03		14.939
8		0.00		6.40		3.123e-02		-48.712		8.966e-03		15.481
8		0.00		6.00		3.102e-02		-48.764		8.544e-03		10.416
8		0.00		5.60		3.174e-02		-49.493		6.994e-03		8.831
8		0.00		5.20		3.239e-02		-50.628		6.365e-03		8.853
8		0.00		4.80		3.205e-02		-50.246		5.729e-03		9.939
8		0.00		4.40		3.154e-02		-50.003		6.074e-03		11.252
8		0.00		4.00		3.062e-02		-47.169		6.456e-03		10.599
8		0.00		3.60		2.985e-02		-47.550		7.206e-03		10.008
8		0.00		3.20		3.013e-02		-49.503		7.385e-03		12.894
8		0.00		2.80		2.980e-02		-47.748		7.710e-03		9.378
8		0.00		2.40		3.028e-02		-50.389		7.314e-03		7.900
8		0.00		2.00		3.033e-02		-49.739		6.339e-03		8.589
8		0.00		1.60		3.047e-02		-49.566		5.907e-03		9.219
8		0.00		1.20		3.067e-02		-49.983		6.284e-03		9.148
8		0.00		0.80		3.039e-02		-49.721		6.445e-03		10.384
8		0.00		0.40		2.962e-02		-49.570		7.257e-03		11.340
8		0.00		0.00		2.918e-02		-51.163		7.842e-03		14.504
8		0.00		-0.40		2.902e-02		-50.350		8.128e-03		16.168
8		0.00		-0.80		2.909e-02		-48.813		8.024e-03		9.420
8		0.00		-1.20		2.870e-02		-50.551		7.186e-03		8.003
8		0.00		-1.60		2.803e-02		-48.734		5.824e-03		8.221
8		0.00		-2.00		2.685e-02		-49.838		4.895e-03		9.236
8		0.00		-2.40		2.433e-02		-50.213		4.351e-03		9.722
8		0.00		-2.80		2.160e-02		-48.745		4.052e-03		10.356
8		0.00		-3.20		1.777e-02		-46.371		3.711e-03		12.141
8		0.00		-3.60		1.543e-02		-44.656		3.550e-03		13.602
8		0.00		-4.00		1.231e-02		-48.621		3.262e-03		19.110
8		0.00		-4.40		9.938e-03		-44.488		2.740e-03		14.083
8		0.00		-4.80		5.994e-03		-36.964		2.260e-03		24.137
8		0.00		-5.20		2.783e-03		-15.418		1.462e-03		54.469
8		0.00		-5.60		3.477e-03		79.177		1.537e-03		51.227
8		0.00		-6.00		5.333e-03		106.690		2.200e-03		39.787
8		0.00		-6.40		7.198e-03		110.333		2.462e-03		24.414
8		0.00		-6.80		1.009e-02		122.585		3.022e-03		16.788
8		0.00		-7.20		1.190e-02		121.953		3.575e-03		13.717
8		0.00		-7.60		1.425e-02		125.098		4.328e-03		14.761
8		0.00		-8.00		1.512e-02		122.222		4.448e-03		18.194
8		0.00		-8.40		1.658e-02		121.435		4.924e-03		20.466
8		0.00		-8.80		1.814e-02		125.031		5.233e-03		12.857
8		0.00		-9.20		1.949e-02		123.217		5.159e-03		10.989
8		0.00		-9.60		2.168e-02		125.570		5.145e-03		8.443
8		0.00		-10.00		2.359e-02		124.998		5.160e-03		8.235
8		0.00		-9.60		2.304e-02		126.136		4.656e-03		8.798
8		0.00		-9.20		2.340e-02		126.750		4.263e-03		8.628
8		0.00		-8.80		2.326e-02		126.850		4.167e-03		8.337
8		0.00		-8.40		2.332e-02		126.406		4.156e-03		8.335
8		0.00		-8.00		2.230e-02		126.927		4.332e-03		8.858
8		0.00		-7.60		2.112e-02		127.452		4.640e-03		10.915
8		0.00		-7.20		1.957e-02		126.983		4.621e-03		14.253
8		0.00		-6.80		1.910e-02		125.729		4.839e-03		16.866
8		0.00		-6.40		1.787e-02		123.416		4.630e-03		14.964
8		0.00		-6.00		1.777e-02		126.402		4.334e-03		10.622
8		0.00		-5.60		1.695e-02		125.855		4.336e-03		9.269
8		0.00		-5.20		1.620e-02		124.825		3.575e-03		8.600
8		0.00		-4.80		1.543e-02		126.031		3.540e-03		9.743
8		0.00		-4.40		1.528e-02		125.442		3.378e-03		11.297
8		0.00		-4.00		1.466e-02		124.075		3.256e-03		9.747
8		0.00		-3.60		1.428e-02		125.811		3.067e-03		10.408
8		0.00		-3.20		1.357e-02		127.560		2.837e-03		8.843
8		0.00		-2.80		1.236e-02		126.582		2.881e-03		9.858
8		0.00		-2.40		1.202e-02		124.881		2.805e-03		11.045
8		0.00		-2.00		1.092e-02		122.607		2.789e-03		15.032
8		0.00		-1.60		1.012e-02		119.231		2.924e-03		16.816
8		0.00		-1.20		1.013e-02		122.218		2.859e-03		19.381
8		0.00		-0.80		9.563e-03		125.777		2.723e-03		17.597
8		0.00		-0.40		9.378e-03		122.682		2.410e-03		13.667
