# Date of analysis: 2024-03-08 10;59
# Segment other properties: height: -76.89918066341062, diff height: 519.1791115205599, deflection: 33.444186116035375, deflection error: 2.3547148535815263, adhesion: 36.24952880327592, phase offset: 0
# 
# Loop index	Read Volt (V)	Write Volt (V)	Amplitude (a.u)	Phase (deg)	Sigma Amp (a.u)	Sigma Pha (deg)	
1		0.00		0.00		1.105e-02		-44.759		2.360e-03		12.586
1		0.00		0.40		1.176e-02		-45.322		2.330e-03		11.909
1		0.00		0.80		1.161e-02		-43.417		1.810e-03		10.523
1		0.00		1.20		1.130e-02		-46.787		2.181e-03		10.280
1		0.00		1.60		1.108e-02		-44.863		2.261e-03		11.960
1		0.00		2.00		1.118e-02		-44.283		2.366e-03		11.626
1		0.00		2.40		1.153e-02		-48.217		1.772e-03		11.060
1		0.00		2.80		1.138e-02		-39.381		2.121e-03		13.238
1		0.00		3.20		1.202e-02		-43.712		2.282e-03		12.040
1		0.00		3.60		1.221e-02		-43.181		2.046e-03		14.031
1		0.00		4.00		1.311e-02		-44.955		2.121e-03		11.911
1		0.00		4.40		1.342e-02		-46.734		2.299e-03		11.142
1		0.00		4.80		1.434e-02		-46.192		2.843e-03		12.785
1		0.00		5.20		1.546e-02		-47.987		2.817e-03		9.907
1		0.00		5.60		1.661e-02		-47.014		2.322e-03		8.580
1		0.00		6.00		1.685e-02		-47.302		2.706e-03		9.484
1		0.00		6.40		1.739e-02		-48.049		3.132e-03		10.383
1		0.00		6.80		1.832e-02		-46.776		3.345e-03		9.548
1		0.00		7.20		1.951e-02		-47.972		2.903e-03		7.739
1		0.00		7.60		2.036e-02		-48.519		3.220e-03		6.926
1		0.00		8.00		2.065e-02		-49.740		4.538e-03		10.002
1		0.00		8.40		2.185e-02		-49.433		4.677e-03		9.128
1		0.00		8.80		2.323e-02		-51.248		3.753e-03		7.538
1		0.00		9.20		2.464e-02		-49.263		3.862e-03		8.553
1		0.00		9.60		2.567e-02		-49.895		5.295e-03		8.534
1		0.00		10.00		2.698e-02		-49.297		6.041e-03		8.374
1		0.00		9.60		2.850e-02		-51.067		4.887e-03		8.326
1		0.00		9.20		2.943e-02		-50.418		4.408e-03		7.312
1		0.00		8.80		2.996e-02		-49.548		5.586e-03		6.393
1		0.00		8.40		2.962e-02		-50.888		6.007e-03		7.243
1		0.00		8.00		3.009e-02		-50.061		4.888e-03		8.547
1		0.00		7.60		3.027e-02		-50.120		4.320e-03		6.529
1		0.00		7.20		3.026e-02		-49.725		5.136e-03		8.383
1		0.00		6.80		2.899e-02		-50.435		5.797e-03		7.927
1		0.00		6.40		2.859e-02		-51.740		4.584e-03		8.183
1		0.00		6.00		2.957e-02		-49.239		3.898e-03		6.045
1		0.00		5.60		2.875e-02		-50.364		5.012e-03		7.155
1		0.00		5.20		2.860e-02		-48.930		5.696e-03		7.288
1		0.00		4.80		2.805e-02		-51.922		4.827e-03		7.959
1		0.00		4.40		2.856e-02		-50.334		3.858e-03		7.417
1		0.00		4.00		2.822e-02		-50.477		4.723e-03		7.031
1		0.00		3.60		2.755e-02		-51.464		5.484e-03		9.093
1		0.00		3.20		2.736e-02		-50.633		5.224e-03		9.760
1		0.00		2.80		2.734e-02		-51.331		4.055e-03		7.749
1		0.00		2.40		2.749e-02		-49.829		4.244e-03		7.876
1		0.00		2.00		2.646e-02		-49.714		5.735e-03		8.119
1		0.00		1.60		2.594e-02		-50.804		5.370e-03		9.812
1		0.00		1.20		2.682e-02		-52.334		4.277e-03		8.338
1		0.00		0.80		2.652e-02		-49.631		4.324e-03		7.569
1		0.00		0.40		2.617e-02		-48.431		5.153e-03		7.911
1		0.00		0.00		2.601e-02		-48.447		5.461e-03		8.905
1		0.00		-0.40		2.662e-02		-51.887		4.033e-03		8.032
1		0.00		-0.80		2.606e-02		-49.846		4.168e-03		7.427
1		0.00		-1.20		2.556e-02		-48.739		4.905e-03		8.030
1		0.00		-1.60		2.487e-02		-48.827		5.077e-03		7.752
1		0.00		-2.00		2.516e-02		-50.901		4.125e-03		7.461
1		0.00		-2.40		2.481e-02		-49.863		3.975e-03		8.868
1		0.00		-2.80		2.385e-02		-49.200		4.710e-03		8.625
1		0.00		-3.20		2.273e-02		-49.788		4.710e-03		9.101
1		0.00		-3.60		2.305e-02		-51.975		3.534e-03		7.971
1		0.00		-4.00		2.236e-02		-50.841		3.418e-03		7.750
1		0.00		-4.40		2.226e-02		-50.217		3.851e-03		7.305
1		0.00		-4.80		2.073e-02		-48.168		4.389e-03		9.192
1		0.00		-5.20		1.993e-02		-48.361		3.505e-03		8.381
1		0.00		-5.60		1.871e-02		-49.059		2.965e-03		10.209
1		0.00		-6.00		1.739e-02		-46.187		3.543e-03		9.088
1		0.00		-6.40		1.566e-02		-49.454		3.688e-03		10.476
1		0.00		-6.80		1.467e-02		-46.096		2.791e-03		9.497
1		0.00		-7.20		1.296e-02		-45.221		2.219e-03		9.484
1		0.00		-7.60		1.051e-02		-46.841		2.185e-03		10.024
1		0.00		-8.00		8.131e-03		-41.315		2.197e-03		15.628
1		0.00		-8.40		6.638e-03		-42.878		1.742e-03		17.757
1		0.00		-8.80		3.537e-03		-28.759		1.197e-03		26.167
1		0.00		-9.20		2.195e-03		-14.495		9.410e-04		45.345
1		0.00		-9.60		2.380e-03		67.297		1.064e-03		59.983
1		0.00		-10.00		3.492e-03		90.046		1.233e-03		42.474
1		0.00		-9.60		4.663e-03		106.877		1.435e-03		20.291
1		0.00		-9.20		5.612e-03		117.329		1.502e-03		16.649
1		0.00		-8.80		5.730e-03		110.365		1.715e-03		23.672
1		0.00		-8.40		5.945e-03		116.329		1.747e-03		16.572
1		0.00		-8.00		5.988e-03		117.967		1.567e-03		18.499
1		0.00		-7.60		5.859e-03		116.662		1.367e-03		18.213
1		0.00		-7.20		5.612e-03		115.997		1.704e-03		19.646
1		0.00		-6.80		5.055e-03		110.207		1.567e-03		16.869
1		0.00		-6.40		4.833e-03		110.698		1.392e-03		18.635
1		0.00		-6.00		5.196e-03		110.990		1.412e-03		17.987
1		0.00		-5.60		4.464e-03		107.162		1.530e-03		24.163
1		0.00		-5.20		4.328e-03		115.869		1.495e-03		32.862
1		0.00		-4.80		4.354e-03		100.049		1.618e-03		24.709
1		0.00		-4.40		3.995e-03		110.274		1.501e-03		27.604
1		0.00		-4.00		3.900e-03		106.525		1.283e-03		33.629
1		0.00		-3.60		4.075e-03		101.680		1.306e-03		36.027
1		0.00		-3.20		3.708e-03		106.841		1.255e-03		32.850
1		0.00		-2.80		3.886e-03		104.451		1.220e-03		28.075
1		0.00		-2.40		3.651e-03		102.440		1.251e-03		29.069
1		0.00		-2.00		3.934e-03		106.357		1.247e-03		27.839
1		0.00		-1.60		3.591e-03		108.179		1.277e-03		22.551
1		0.00		-1.20		3.300e-03		91.354		1.188e-03		31.477
1		0.00		-0.80		3.321e-03		99.236		1.232e-03		29.518
1		0.00		-0.40		3.151e-03		87.508		1.301e-03		41.370
2		0.00		0.00		3.692e-03		94.759		1.111e-03		26.824
2		0.00		0.40		3.367e-03		94.098		1.334e-03		32.099
2		0.00		0.80		3.441e-03		93.333		1.229e-03		37.370
2		0.00		1.20		3.294e-03		78.366		1.150e-03		42.384
2		0.00		1.60		2.770e-03		91.301		1.057e-03		36.513
2		0.00		2.00		2.415e-03		69.492		1.049e-03		55.416
2		0.00		2.40		2.237e-03		59.203		8.500e-04		52.215
2		0.00		2.80		2.091e-03		34.910		9.137e-04		47.285
2		0.00		3.20		2.117e-03		8.916		8.672e-04		56.901
2		0.00		3.60		1.931e-03		-11.442		8.330e-04		56.246
2		0.00		4.00		2.703e-03		-10.311		1.012e-03		37.290
2		0.00		4.40		3.668e-03		-43.078		1.255e-03		24.237
2		0.00		4.80		3.872e-03		-30.870		1.402e-03		26.943
2		0.00		5.20		5.351e-03		-35.818		1.527e-03		20.731
2		0.00		5.60		6.520e-03		-40.215		1.615e-03		18.401
2		0.00		6.00		6.952e-03		-48.928		1.630e-03		17.505
2		0.00		6.40		7.868e-03		-50.139		1.625e-03		14.515
2		0.00		6.80		8.617e-03		-49.744		1.729e-03		15.158
2		0.00		7.20		9.484e-03		-41.098		2.299e-03		14.612
2		0.00		7.60		1.062e-02		-46.358		1.931e-03		10.734
2		0.00		8.00		1.229e-02		-47.347		1.849e-03		10.460
2		0.00		8.40		1.303e-02		-47.997		2.132e-03		10.004
2		0.00		8.80		1.435e-02		-47.930		2.713e-03		9.154
2		0.00		9.20		1.611e-02		-47.662		3.328e-03		10.280
2		0.00		9.60		1.787e-02		-46.519		3.454e-03		8.586
2		0.00		10.00		2.035e-02		-52.065		2.996e-03		8.445
2		0.00		9.60		2.156e-02		-48.806		3.376e-03		8.451
2		0.00		9.20		2.213e-02		-49.280		3.801e-03		7.435
2		0.00		8.80		2.278e-02		-49.284		4.581e-03		9.519
2		0.00		8.40		2.303e-02		-49.908		4.700e-03		8.339
2		0.00		8.00		2.344e-02		-50.869		3.480e-03		7.905
2		0.00		7.60		2.337e-02		-50.372		3.440e-03		8.465
2		0.00		7.20		2.344e-02		-51.537		3.869e-03		7.913
2		0.00		6.80		2.279e-02		-50.511		4.843e-03		8.501
2		0.00		6.40		2.260e-02		-50.979		4.753e-03		8.217
2		0.00		6.00		2.271e-02		-48.611		3.752e-03		7.279
2		0.00		5.60		2.283e-02		-50.521		3.444e-03		7.541
2		0.00		5.20		2.247e-02		-46.959		3.680e-03		8.058
2		0.00		4.80		2.191e-02		-49.778		4.407e-03		8.967
2		0.00		4.40		2.136e-02		-49.224		4.660e-03		8.146
2		0.00		4.00		2.163e-02		-52.037		3.771e-03		8.477
2		0.00		3.60		2.124e-02		-49.507		3.547e-03		7.121
2		0.00		3.20		2.156e-02		-49.132		3.700e-03		7.732
2		0.00		2.80		2.131e-02		-47.344		4.312e-03		8.351
2		0.00		2.40		2.052e-02		-50.789		4.353e-03		8.655
2		0.00		2.00		2.089e-02		-47.597		3.968e-03		8.640
2		0.00		1.60		2.086e-02		-47.445		3.024e-03		8.607
2		0.00		1.20		2.103e-02		-47.962		3.087e-03		8.033
2		0.00		0.80		2.076e-02		-49.613		4.183e-03		8.001
2		0.00		0.40		2.075e-02		-49.687		4.492e-03		8.367
2		0.00		0.00		2.041e-02		-47.189		4.016e-03		9.914
2		0.00		-0.40		2.048e-02		-47.273		3.173e-03		9.352
2		0.00		-0.80		1.999e-02		-47.290		3.214e-03		9.413
2		0.00		-1.20		1.930e-02		-47.803		4.010e-03		9.530
2		0.00		-1.60		1.852e-02		-48.522		4.454e-03		8.478
2		0.00		-2.00		1.864e-02		-49.919		4.053e-03		8.831
2		0.00		-2.40		1.837e-02		-48.613		3.245e-03		9.797
2		0.00		-2.80		1.796e-02		-47.920		3.041e-03		12.192
2		0.00		-3.20		1.720e-02		-47.510		3.416e-03		8.808
2		0.00		-3.60		1.635e-02		-49.347		3.740e-03		9.199
2		0.00		-4.00		1.536e-02		-50.307		3.436e-03		10.639
2		0.00		-4.40		1.561e-02		-51.188		2.697e-03		10.632
2		0.00		-4.80		1.539e-02		-45.571		2.386e-03		11.135
2		0.00		-5.20		1.415e-02		-46.818		2.564e-03		9.558
2		0.00		-5.60		1.328e-02		-43.352		2.925e-03		9.459
2		0.00		-6.00		1.270e-02		-45.760		2.500e-03		10.606
2		0.00		-6.40		1.185e-02		-46.408		2.110e-03		11.641
2		0.00		-6.80		1.036e-02		-47.089		1.729e-03		14.494
2		0.00		-7.20		8.833e-03		-49.652		1.725e-03		13.384
2		0.00		-7.60		6.912e-03		-43.036		1.737e-03		14.557
2		0.00		-8.00		5.792e-03		-38.403		1.343e-03		20.255
2		0.00		-8.40		3.838e-03		-33.521		1.151e-03		27.284
2		0.00		-8.80		2.213e-03		-16.003		1.089e-03		44.657
2		0.00		-9.20		1.974e-03		12.963		7.480e-04		65.044
2		0.00		-9.60		2.615e-03		73.560		1.091e-03		55.772
2		0.00		-10.00		4.458e-03		110.631		1.454e-03		19.098
2		0.00		-9.60		6.070e-03		113.180		1.830e-03		16.156
2		0.00		-9.20		6.766e-03		120.884		1.648e-03		14.942
2		0.00		-8.80		6.870e-03		120.380		1.802e-03		16.214
2		0.00		-8.40		7.103e-03		118.394		1.985e-03		18.152
2		0.00		-8.00		6.928e-03		111.795		1.850e-03		14.362
2		0.00		-7.60		6.780e-03		116.407		1.754e-03		16.191
2		0.00		-7.20		6.643e-03		113.595		1.698e-03		18.210
2		0.00		-6.80		6.419e-03		120.900		1.695e-03		16.278
2		0.00		-6.40		6.385e-03		112.541		1.709e-03		17.823
2		0.00		-6.00		6.315e-03		118.301		1.719e-03		17.530
2		0.00		-5.60		5.697e-03		111.821		1.792e-03		21.670
2		0.00		-5.20		6.074e-03		114.116		1.551e-03		15.489
2		0.00		-4.80		5.593e-03		114.472		1.369e-03		17.395
2		0.00		-4.40		5.484e-03		107.638		1.551e-03		18.154
2		0.00		-4.00		5.197e-03		114.249		1.570e-03		23.003
2		0.00		-3.60		5.205e-03		111.383		1.426e-03		23.096
2		0.00		-3.20		4.826e-03		105.241		1.343e-03		19.092
2		0.00		-2.80		4.965e-03		116.451		1.306e-03		17.197
2		0.00		-2.40		4.914e-03		112.980		1.341e-03		16.173
2		0.00		-2.00		4.758e-03		102.498		1.427e-03		24.671
2		0.00		-1.60		4.881e-03		110.539		1.664e-03		22.676
2		0.00		-1.20		5.148e-03		114.662		1.547e-03		18.433
2		0.00		-0.80		4.758e-03		108.728		1.297e-03		22.316
2		0.00		-0.40		4.803e-03		111.130		1.399e-03		18.234
3		0.00		0.00		4.482e-03		109.361		1.444e-03		27.404
3		0.00		0.40		4.437e-03		116.005		1.482e-03		20.636
3		0.00		0.80		4.504e-03		107.749		1.494e-03		20.953
3		0.00		1.20		4.372e-03		111.919		1.453e-03		30.621
3		0.00		1.60		3.822e-03		100.888		1.543e-03		38.061
3		0.00		2.00		3.471e-03		97.475		1.344e-03		31.903
3		0.00		2.40		3.569e-03		104.923		1.233e-03		37.441
3		0.00		2.80		2.561e-03		75.265		1.048e-03		43.936
3		0.00		3.20		2.141e-03		55.909		9.717e-04		73.703
3		0.00		3.60		2.032e-03		32.839		8.894e-04		59.064
3		0.00		4.00		1.932e-03		-15.819		8.093e-04		52.638
3		0.00		4.40		2.503e-03		-28.633		1.082e-03		48.341
3		0.00		4.80		2.999e-03		-32.994		1.105e-03		33.785
3		0.00		5.20		3.863e-03		-42.411		1.154e-03		29.624
3		0.00		5.60		4.920e-03		-39.221		1.390e-03		18.332
3		0.00		6.00		6.267e-03		-46.216		1.555e-03		16.223
3		0.00		6.40		6.842e-03		-46.665		1.714e-03		16.396
3		0.00		6.80		7.550e-03		-42.583		1.764e-03		14.430
3		0.00		7.20		8.384e-03		-47.761		1.606e-03		12.941
3		0.00		7.60		9.501e-03		-47.204		1.704e-03		15.140
3		0.00		8.00		1.084e-02		-47.377		1.871e-03		9.885
3		0.00		8.40		1.169e-02		-52.031		2.337e-03		9.128
3		0.00		8.80		1.274e-02		-48.048		3.077e-03		10.365
3		0.00		9.20		1.492e-02		-48.067		2.987e-03		9.767
3		0.00		9.60		1.670e-02		-48.697		2.610e-03		9.513
3		0.00		10.00		1.872e-02		-50.176		3.093e-03		9.320
3		0.00		9.60		1.955e-02		-50.056		3.369e-03		9.323
3		0.00		9.20		2.034e-02		-51.853		4.189e-03		8.199
3		0.00		8.80		2.079e-02		-48.294		4.239e-03		8.724
3		0.00		8.40		2.157e-02		-50.889		3.806e-03		7.928
3		0.00		8.00		2.124e-02		-49.491		2.954e-03		7.566
3		0.00		7.60		2.162e-02		-48.557		2.972e-03		8.165
3		0.00		7.20		2.145e-02		-47.867		3.592e-03		8.181
3		0.00		6.80		2.086e-02		-50.846		4.209e-03		9.992
3		0.00		6.40		2.049e-02		-48.432		4.263e-03		9.979
3		0.00		6.00		2.082e-02		-50.464		3.595e-03		7.873
3		0.00		5.60		2.118e-02		-47.413		3.030e-03		8.497
3		0.00		5.20		2.134e-02		-50.263		3.182e-03		6.804
3		0.00		4.80		2.061e-02		-49.742		3.578e-03		8.948
3		0.00		4.40		1.996e-02		-49.762		4.060e-03		8.071
3		0.00		4.00		1.974e-02		-49.326		4.565e-03		9.683
3		0.00		3.60		1.951e-02		-48.787		4.410e-03		9.214
3		0.00		3.20		1.970e-02		-51.867		3.749e-03		11.157
3		0.00		2.80		1.982e-02		-51.646		3.281e-03		8.220
3		0.00		2.40		2.013e-02		-48.856		3.418e-03		8.538
3		0.00		2.00		1.964e-02		-47.736		3.524e-03		6.878
3		0.00		1.60		1.895e-02		-49.804		4.306e-03		10.967
3		0.00		1.20		1.909e-02		-49.529		4.551e-03		9.854
3		0.00		0.80		1.939e-02		-50.495		4.127e-03		8.845
3		0.00		0.40		1.950e-02		-47.890		3.670e-03		9.030
3		0.00		0.00		1.992e-02		-50.657		3.013e-03		7.892
3		0.00		-0.40		2.022e-02		-45.947		2.836e-03		8.122
3		0.00		-0.80		1.938e-02		-46.881		2.865e-03		11.050
3		0.00		-1.20		1.956e-02		-47.580		2.985e-03		7.470
3		0.00		-1.60		1.914e-02		-47.410		3.696e-03		9.868
3		0.00		-2.00		1.819e-02		-48.830		3.502e-03		9.434
3		0.00		-2.40		1.726e-02		-46.560		3.576e-03		8.702
3		0.00		-2.80		1.706e-02		-47.916		3.496e-03		9.143
3		0.00		-3.20		1.653e-02		-48.516		3.126e-03		10.848
3		0.00		-3.60		1.644e-02		-47.060		2.328e-03		8.877
3		0.00		-4.00		1.593e-02		-47.567		2.142e-03		9.157
3		0.00		-4.40		1.539e-02		-47.838		2.377e-03		8.398
3		0.00		-4.80		1.462e-02		-45.812		2.459e-03		8.815
3		0.00		-5.20		1.343e-02		-49.390		2.687e-03		10.545
3		0.00		-5.60		1.287e-02		-44.734		2.800e-03		10.994
3		0.00		-6.00		1.165e-02		-46.410		2.691e-03		12.685
3		0.00		-6.40		1.016e-02		-45.405		2.138e-03		11.148
3		0.00		-6.80		9.995e-03		-45.940		2.004e-03		10.140
3		0.00		-7.20		8.621e-03		-41.370		1.577e-03		12.804
3		0.00		-7.60		6.988e-03		-42.435		1.600e-03		13.871
3		0.00		-8.00		5.776e-03		-44.975		1.405e-03		18.459
3		0.00		-8.40		4.078e-03		-41.031		1.331e-03		25.453
3		0.00		-8.80		3.014e-03		-36.677		1.060e-03		32.124
3		0.00		-9.20		1.955e-03		24.431		8.373e-04		59.592
3		0.00		-9.60		2.439e-03		76.178		9.915e-04		47.190
3		0.00		-10.00		4.043e-03		103.678		1.386e-03		38.104
3		0.00		-9.60		5.831e-03		114.068		1.598e-03		17.586
3		0.00		-9.20		6.314e-03		115.326		1.704e-03		17.342
3		0.00		-8.80		6.512e-03		117.494		1.629e-03		14.986
3		0.00		-8.40		6.787e-03		114.250		1.674e-03		15.162
3		0.00		-8.00		6.520e-03		116.206		1.792e-03		15.527
3		0.00		-7.60		6.455e-03		119.048		1.836e-03		23.676
3		0.00		-7.20		6.298e-03		117.100		1.975e-03		18.307
3		0.00		-6.80		5.939e-03		113.810		1.688e-03		18.447
3		0.00		-6.40		5.640e-03		113.544		1.691e-03		16.926
3		0.00		-6.00		5.861e-03		112.545		1.702e-03		19.360
3		0.00		-5.60		5.743e-03		116.996		1.479e-03		20.022
3		0.00		-5.20		5.441e-03		115.580		1.438e-03		19.763
3		0.00		-4.80		5.189e-03		117.759		1.530e-03		20.254
3		0.00		-4.40		5.015e-03		106.466		1.493e-03		23.980
3		0.00		-4.00		5.107e-03		116.997		1.656e-03		21.178
3		0.00		-3.60		5.112e-03		110.886		1.525e-03		19.975
3		0.00		-3.20		4.950e-03		115.380		1.271e-03		23.073
3		0.00		-2.80		4.798e-03		112.221		1.360e-03		24.415
3		0.00		-2.40		5.274e-03		113.956		1.332e-03		20.149
3		0.00		-2.00		4.614e-03		113.232		1.361e-03		18.780
3		0.00		-1.60		4.843e-03		115.916		1.259e-03		19.384
3		0.00		-1.20		4.690e-03		111.694		1.387e-03		29.586
3		0.00		-0.80		4.739e-03		111.458		1.511e-03		22.104
3		0.00		-0.40		4.598e-03		110.803		1.369e-03		23.974
4		0.00		0.00		4.883e-03		106.996		1.475e-03		25.258
4		0.00		0.40		4.425e-03		107.711		1.296e-03		21.416
4		0.00		0.80		4.488e-03		107.354		1.337e-03		22.767
4		0.00		1.20		4.485e-03		107.354		1.257e-03		17.465
4		0.00		1.60		4.445e-03		103.546		1.332e-03		21.316
4		0.00		2.00		4.023e-03		115.171		1.376e-03		24.776
4		0.00		2.40		3.350e-03		103.673		1.067e-03		27.396
4		0.00		2.80		2.701e-03		78.768		1.132e-03		39.449
4		0.00		3.20		2.158e-03		55.525		8.127e-04		47.254
4		0.00		3.60		2.032e-03		25.226		8.542e-04		57.888
4		0.00		4.00		1.978e-03		1.052		9.415e-04		56.492
4		0.00		4.40		2.064e-03		-25.739		8.828e-04		57.627
4		0.00		4.80		2.854e-03		-30.866		1.033e-03		32.540
4		0.00		5.20		3.729e-03		-43.770		1.113e-03		22.702
4		0.00		5.60		4.382e-03		-30.144		1.375e-03		24.396
4		0.00		6.00		5.092e-03		-43.663		1.492e-03		20.772
4		0.00		6.40		6.170e-03		-42.518		1.665e-03		20.579
4		0.00		6.80		7.159e-03		-45.821		1.866e-03		17.278
4		0.00		7.20		7.918e-03		-45.014		1.746e-03		11.457
4		0.00		7.60		9.168e-03		-51.956		1.618e-03		10.196
4		0.00		8.00		1.066e-02		-43.505		1.825e-03		12.234
4		0.00		8.40		1.115e-02		-44.367		2.050e-03		10.122
4		0.00		8.80		1.248e-02		-46.663		2.076e-03		9.030
4		0.00		9.20		1.347e-02		-47.576		2.780e-03		10.822
4		0.00		9.60		1.510e-02		-50.105		3.162e-03		8.781
4		0.00		10.00		1.706e-02		-50.235		3.788e-03		10.393
4		0.00		9.60		1.787e-02		-51.497		4.028e-03		9.964
4		0.00		9.20		1.829e-02		-49.203		4.323e-03		10.156
4		0.00		8.80		1.911e-02		-50.311		4.230e-03		7.921
4		0.00		8.40		1.901e-02		-51.517		3.814e-03		10.179
4		0.00		8.00		1.952e-02		-48.343		3.461e-03		8.173
4		0.00		7.60		1.972e-02		-49.135		2.873e-03		7.143
4		0.00		7.20		1.987e-02		-51.891		2.850e-03		8.173
4		0.00		6.80		1.927e-02		-48.642		2.869e-03		8.871
4		0.00		6.40		1.951e-02		-49.583		3.110e-03		9.213
4		0.00		6.00		1.886e-02		-51.227		3.158e-03		7.676
4		0.00		5.60		1.888e-02		-48.969		3.764e-03		8.381
4		0.00		5.20		1.873e-02		-49.777		3.796e-03		10.006
4		0.00		4.80		1.863e-02		-49.899		3.871e-03		8.866
4		0.00		4.40		1.823e-02		-48.352		3.862e-03		8.674
4		0.00		4.00		1.856e-02		-48.544		3.497e-03		9.668
4		0.00		3.60		1.846e-02		-49.078		2.761e-03		8.910
4		0.00		3.20		1.874e-02		-49.813		2.785e-03		8.951
4		0.00		2.80		1.864e-02		-47.106		2.598e-03		8.719
4		0.00		2.40		1.840e-02		-48.527		3.314e-03		10.080
4		0.00		2.00		1.787e-02		-48.389		3.183e-03		10.283
4		0.00		1.60		1.768e-02		-49.404		3.753e-03		8.375
4		0.00		1.20		1.755e-02		-49.736		3.913e-03		10.002
4		0.00		0.80		1.754e-02		-48.433		3.759e-03		8.557
4		0.00		0.40		1.768e-02		-48.145		3.668e-03		9.212
4		0.00		0.00		1.766e-02		-47.952		3.003e-03		9.282
4		0.00		-0.40		1.787e-02		-48.730		2.838e-03		8.207
4		0.00		-0.80		1.796e-02		-48.353		2.554e-03		9.010
4		0.00		-1.20		1.775e-02		-49.262		2.852e-03		7.475
4		0.00		-1.60		1.735e-02		-47.651		3.053e-03		10.523
4		0.00		-2.00		1.639e-02		-46.353		3.242e-03		9.705
4		0.00		-2.40		1.637e-02		-47.719		3.345e-03		9.485
4		0.00		-2.80		1.569e-02		-47.593		3.297e-03		13.324
4		0.00		-3.20		1.531e-02		-50.630		2.917e-03		8.916
4		0.00		-3.60		1.498e-02		-47.253		2.674e-03		9.672
4		0.00		-4.00		1.455e-02		-47.974		2.315e-03		9.197
4		0.00		-4.40		1.407e-02		-46.057		2.208e-03		9.972
4		0.00		-4.80		1.382e-02		-42.763		2.210e-03		9.492
4		0.00		-5.20		1.248e-02		-44.408		2.381e-03		10.410
4		0.00		-5.60		1.174e-02		-45.808		2.752e-03		15.127
4		0.00		-6.00		1.060e-02		-42.118		2.550e-03		13.114
4		0.00		-6.40		1.020e-02		-39.101		2.618e-03		12.427
4		0.00		-6.80		8.999e-03		-41.184		1.931e-03		14.990
4		0.00		-7.20		7.898e-03		-45.570		1.507e-03		10.770
4		0.00		-7.60		6.277e-03		-40.778		1.452e-03		18.560
4		0.00		-8.00		4.860e-03		-33.180		1.586e-03		26.073
4		0.00		-8.40		3.514e-03		-39.547		1.093e-03		31.870
4		0.00		-8.80		2.313e-03		-30.645		1.031e-03		40.874
4		0.00		-9.20		1.730e-03		6.771		6.669e-04		62.773
4		0.00		-9.60		2.533e-03		73.437		9.827e-04		50.170
4		0.00		-10.00		3.948e-03		95.697		1.463e-03		33.816
4		0.00		-9.60		5.457e-03		120.425		1.271e-03		18.435
4		0.00		-9.20		6.334e-03		113.541		1.477e-03		15.755
4		0.00		-8.80		6.812e-03		117.987		1.547e-03		13.111
4		0.00		-8.40		6.926e-03		122.200		1.756e-03		13.199
4		0.00		-8.00		6.531e-03		114.594		1.808e-03		19.084
4		0.00		-7.60		6.421e-03		120.382		1.807e-03		18.636
4		0.00		-7.20		6.326e-03		113.743		1.852e-03		17.833
4		0.00		-6.80		6.541e-03		118.208		1.531e-03		12.665
4		0.00		-6.40		6.205e-03		116.422		1.609e-03		18.438
4		0.00		-6.00		6.076e-03		119.517		1.363e-03		15.924
4		0.00		-5.60		5.859e-03		120.816		1.406e-03		16.545
4		0.00		-5.20		5.813e-03		119.463		1.610e-03		16.479
4		0.00		-4.80		5.532e-03		108.454		1.763e-03		27.985
4		0.00		-4.40		5.242e-03		108.369		1.536e-03		21.727
4		0.00		-4.00		5.526e-03		116.725		1.580e-03		16.538
4		0.00		-3.60		5.054e-03		107.977		1.756e-03		24.681
4		0.00		-3.20		5.420e-03		116.922		1.476e-03		21.454
4		0.00		-2.80		5.396e-03		114.683		1.293e-03		17.725
4		0.00		-2.40		5.290e-03		116.375		1.348e-03		16.270
4		0.00		-2.00		5.355e-03		112.147		1.437e-03		23.614
4		0.00		-1.60		4.953e-03		106.273		1.603e-03		18.631
4		0.00		-1.20		4.897e-03		115.573		1.402e-03		21.230
4		0.00		-0.80		5.086e-03		115.219		1.413e-03		15.366
4		0.00		-0.40		5.074e-03		109.685		1.473e-03		18.160
5		0.00		0.00		4.980e-03		114.631		1.471e-03		18.053
5		0.00		0.40		4.707e-03		110.351		1.209e-03		13.903
5		0.00		0.80		4.807e-03		108.667		1.422e-03		19.022
5		0.00		1.20		4.784e-03		107.488		1.283e-03		25.682
5		0.00		1.60		4.408e-03		107.097		1.388e-03		24.723
5		0.00		2.00		4.365e-03		107.627		1.411e-03		24.788
5		0.00		2.40		3.594e-03		101.957		1.320e-03		27.372
5		0.00		2.80		3.370e-03		92.819		1.242e-03		31.326
5		0.00		3.20		2.654e-03		80.527		9.844e-04		50.662
5		0.00		3.60		2.034e-03		58.013		7.783e-04		68.440
5		0.00		4.00		1.923e-03		22.922		7.327e-04		61.196
5		0.00		4.40		1.960e-03		-16.972		8.862e-04		56.520
5		0.00		4.80		2.360e-03		-22.811		9.345e-04		44.803
5		0.00		5.20		3.376e-03		-13.965		1.241e-03		32.255
5		0.00		5.60		3.876e-03		-47.831		1.068e-03		23.689
5		0.00		6.00		4.678e-03		-45.719		1.350e-03		20.185
5		0.00		6.40		5.971e-03		-44.996		1.572e-03		16.470
5		0.00		6.80		6.604e-03		-44.945		1.694e-03		18.290
5		0.00		7.20		7.553e-03		-44.890		1.735e-03		15.123
5		0.00		7.60		8.221e-03		-47.307		1.600e-03		12.784
5		0.00		8.00		1.010e-02		-46.804		1.711e-03		12.963
5		0.00		8.40		1.066e-02		-45.419		2.012e-03		10.827
5		0.00		8.80		1.169e-02		-44.516		2.282e-03		11.868
5		0.00		9.20		1.291e-02		-45.196		2.796e-03		10.840
5		0.00		9.60		1.475e-02		-43.781		3.076e-03		9.564
5		0.00		10.00		1.656e-02		-49.807		2.759e-03		9.339
5		0.00		9.60		1.796e-02		-48.387		2.720e-03		8.408
5		0.00		9.20		1.889e-02		-49.130		3.055e-03		7.206
5		0.00		8.80		1.891e-02		-48.166		3.546e-03		9.121
5		0.00		8.40		1.880e-02		-49.930		4.165e-03		11.055
5		0.00		8.00		1.928e-02		-51.367		3.759e-03		7.210
5		0.00		7.60		1.947e-02		-49.637		2.821e-03		7.497
5		0.00		7.20		1.934e-02		-48.255		2.815e-03		7.433
5		0.00		6.80		1.939e-02		-49.057		3.329e-03		8.767
5		0.00		6.40		1.893e-02		-50.343		4.003e-03		9.817
5		0.00		6.00		1.839e-02		-48.574		4.107e-03		9.489
5		0.00		5.60		1.908e-02		-50.635		3.033e-03		6.479
5		0.00		5.20		1.876e-02		-50.636		2.584e-03		8.235
5		0.00		4.80		1.870e-02		-48.557		2.875e-03		8.560
5		0.00		4.40		1.796e-02		-50.290		3.543e-03		8.946
5		0.00		4.00		1.829e-02		-48.594		3.757e-03		9.032
5		0.00		3.60		1.848e-02		-48.147		3.054e-03		7.720
5		0.00		3.20		1.853e-02		-47.214		2.685e-03		8.946
5		0.00		2.80		1.834e-02		-47.863		3.184e-03		8.157
5		0.00		2.40		1.752e-02		-48.801		3.458e-03		11.230
5		0.00		2.00		1.735e-02		-47.769		3.295e-03		9.155
5		0.00		1.60		1.765e-02		-48.062		2.910e-03		7.943
5		0.00		1.20		1.787e-02		-48.741		2.551e-03		9.843
5		0.00		0.80		1.741e-02		-47.899		3.011e-03		8.651
5		0.00		0.40		1.664e-02		-49.627		3.904e-03		9.385
5		0.00		0.00		1.667e-02		-49.887		3.608e-03		10.429
5		0.00		-0.40		1.717e-02		-47.356		3.029e-03		9.872
5		0.00		-0.80		1.679e-02		-47.814		2.608e-03		8.622
5		0.00		-1.20		1.614e-02		-47.288		3.287e-03		9.453
5		0.00		-1.60		1.613e-02		-47.998		3.817e-03		9.151
5		0.00		-2.00		1.593e-02		-49.401		3.305e-03		9.372
5		0.00		-2.40		1.568e-02		-45.929		2.376e-03		9.401
5		0.00		-2.80		1.514e-02		-45.259		2.724e-03		9.143
5		0.00		-3.20		1.509e-02		-46.361		2.932e-03		10.232
5		0.00		-3.60		1.425e-02		-48.680		2.656e-03		8.951
5		0.00		-4.00		1.388e-02		-44.365		2.159e-03		9.056
5		0.00		-4.40		1.374e-02		-44.724		1.828e-03		9.970
5		0.00		-4.80		1.258e-02		-46.599		2.258e-03		12.434
5		0.00		-5.20		1.226e-02		-48.253		2.670e-03		8.816
5		0.00		-5.60		1.178e-02		-50.140		2.214e-03		11.001
5		0.00		-6.00		1.052e-02		-46.116		1.652e-03		10.435
5		0.00		-6.40		9.722e-03		-40.714		1.720e-03		12.332
5		0.00		-6.80		8.545e-03		-37.550		1.835e-03		14.166
5		0.00		-7.20		7.228e-03		-41.050		1.742e-03		13.165
5		0.00		-7.60		6.249e-03		-34.042		1.550e-03		21.559
5		0.00		-8.00		5.084e-03		-40.596		1.296e-03		20.848
5		0.00		-8.40		3.647e-03		-40.237		1.429e-03		36.186
5		0.00		-8.80		2.703e-03		-31.377		9.896e-04		36.933
5		0.00		-9.20		1.836e-03		-23.132		7.468e-04		57.186
5		0.00		-9.60		2.056e-03		48.710		8.426e-04		66.403
5		0.00		-10.00		3.311e-03		99.145		1.086e-03		45.754
5		0.00		-9.60		4.845e-03		111.469		1.347e-03		20.563
5		0.00		-9.20		5.207e-03		114.527		1.530e-03		22.118
5		0.00		-8.80		5.581e-03		112.627		1.583e-03		14.052
5		0.00		-8.40		6.207e-03		115.572		1.738e-03		17.744
5		0.00		-8.00		6.012e-03		115.939		1.300e-03		14.936
5		0.00		-7.60		6.345e-03		118.845		1.687e-03		17.927
5		0.00		-7.20		6.037e-03		122.685		1.557e-03		22.524
5		0.00		-6.80		5.631e-03		112.914		1.608e-03		18.710
5		0.00		-6.40		5.502e-03		111.947		1.616e-03		18.184
5		0.00		-6.00		5.717e-03		120.560		1.459e-03		18.027
5		0.00		-5.60		5.700e-03		121.189		1.305e-03		24.015
5		0.00		-5.20		5.152e-03		115.433		1.424e-03		26.681
5		0.00		-4.80		5.130e-03		107.162		1.502e-03		18.906
5		0.00		-4.40		5.349e-03		113.896		1.400e-03		15.181
5		0.00		-4.00		4.945e-03		109.298		1.358e-03		16.893
5		0.00		-3.60		5.275e-03		116.833		1.423e-03		21.703
5		0.00		-3.20		4.751e-03		106.893		1.511e-03		26.138
5		0.00		-2.80		4.411e-03		105.945		1.432e-03		20.466
5		0.00		-2.40		4.839e-03		114.542		1.370e-03		21.155
5		0.00		-2.00		4.796e-03		112.660		1.388e-03		16.211
5		0.00		-1.60		4.501e-03		120.154		1.271e-03		17.411
5		0.00		-1.20		4.401e-03		108.615		1.672e-03		29.084
5		0.00		-0.80		4.738e-03		116.122		1.567e-03		19.176
5		0.00		-0.40		4.708e-03		109.148		1.485e-03		21.382
6		0.00		0.00		4.293e-03		108.800		1.374e-03		22.087
6		0.00		0.40		4.107e-03		108.993		1.298e-03		25.717
6		0.00		0.80		4.593e-03		109.291		1.635e-03		28.108
6		0.00		1.20		4.587e-03		109.322		1.490e-03		21.793
6		0.00		1.60		4.164e-03		97.943		1.390e-03		24.513
6		0.00		2.00		3.655e-03		100.173		1.250e-03		25.948
6		0.00		2.40		3.530e-03		103.864		1.369e-03		32.700
6		0.00		2.80		2.675e-03		86.623		1.007e-03		46.582
6		0.00		3.20		2.431e-03		70.249		9.755e-04		45.198
6		0.00		3.60		2.295e-03		62.772		1.089e-03		49.448
6		0.00		4.00		1.846e-03		28.764		7.889e-04		57.396
6		0.00		4.40		1.778e-03		-11.313		6.933e-04		62.378
6		0.00		4.80		2.058e-03		-40.054		8.937e-04		46.335
6		0.00		5.20		3.126e-03		-44.385		1.106e-03		32.887
6		0.00		5.60		3.606e-03		-43.613		1.046e-03		27.453
6		0.00		6.00		4.841e-03		-42.742		1.242e-03		24.792
6		0.00		6.40		5.563e-03		-35.338		1.466e-03		19.330
6		0.00		6.80		6.168e-03		-41.823		1.661e-03		18.825
6		0.00		7.20		7.055e-03		-47.369		1.904e-03		13.325
6		0.00		7.60		7.875e-03		-51.698		1.842e-03		15.094
6		0.00		8.00		9.088e-03		-46.677		1.946e-03		12.640
6		0.00		8.40		1.021e-02		-46.090		1.857e-03		9.987
6		0.00		8.80		1.101e-02		-43.389		2.344e-03		12.910
6		0.00		9.20		1.242e-02		-47.770		2.659e-03		10.233
6		0.00		9.60		1.414e-02		-49.793		2.603e-03		10.112
6		0.00		10.00		1.584e-02		-50.287		2.424e-03		8.933
6		0.00		9.60		1.743e-02		-48.099		2.761e-03		9.193
6		0.00		9.20		1.750e-02		-47.246		2.995e-03		9.051
6		0.00		8.80		1.831e-02		-49.763		3.788e-03		9.221
6		0.00		8.40		1.839e-02		-49.315		4.012e-03		9.340
6		0.00		8.00		1.920e-02		-47.787		3.223e-03		8.630
6		0.00		7.60		1.894e-02		-50.077		2.841e-03		8.820
6		0.00		7.20		1.870e-02		-49.284		2.966e-03		7.621
6		0.00		6.80		1.826e-02		-48.474		3.576e-03		10.488
6		0.00		6.40		1.800e-02		-50.079		3.955e-03		9.383
6		0.00		6.00		1.789e-02		-52.466		3.312e-03		9.881
6		0.00		5.60		1.807e-02		-48.317		2.797e-03		7.201
6		0.00		5.20		1.755e-02		-48.274		3.109e-03		8.767
6		0.00		4.80		1.725e-02		-48.363		3.686e-03		8.075
6		0.00		4.40		1.700e-02		-49.595		3.960e-03		10.863
6		0.00		4.00		1.707e-02		-48.802		3.969e-03		8.801
6		0.00		3.60		1.694e-02		-50.253		3.277e-03		9.869
6		0.00		3.20		1.652e-02		-45.188		2.989e-03		7.933
6		0.00		2.80		1.649e-02		-50.012		3.520e-03		9.602
6		0.00		2.40		1.607e-02		-48.471		3.946e-03		10.706
6		0.00		2.00		1.608e-02		-50.426		4.087e-03		10.061
6		0.00		1.60		1.632e-02		-48.060		2.959e-03		8.522
6		0.00		1.20		1.658e-02		-49.326		2.635e-03		9.501
6		0.00		0.80		1.716e-02		-47.933		2.767e-03		8.609
6		0.00		0.40		1.662e-02		-47.211		2.924e-03		7.808
6		0.00		0.00		1.639e-02		-46.717		3.549e-03		8.994
6		0.00		-0.40		1.650e-02		-49.243		3.429e-03		9.373
6		0.00		-0.80		1.666e-02		-49.153		2.733e-03		8.895
6		0.00		-1.20		1.659e-02		-45.977		2.152e-03		8.508
6		0.00		-1.60		1.595e-02		-48.633		2.370e-03		8.844
6		0.00		-2.00		1.581e-02		-47.007		2.810e-03		10.152
6		0.00		-2.40		1.509e-02		-47.254		2.973e-03		11.115
6		0.00		-2.80		1.464e-02		-45.265		3.228e-03		11.192
6		0.00		-3.20		1.440e-02		-50.247		2.961e-03		9.089
6		0.00		-3.60		1.415e-02		-47.713		2.303e-03		10.549
6		0.00		-4.00		1.361e-02		-47.336		2.285e-03		9.227
6		0.00		-4.40		1.348e-02		-46.519		2.474e-03		8.808
6		0.00		-4.80		1.228e-02		-44.444		2.840e-03		11.044
6		0.00		-5.20		1.186e-02		-47.874		2.626e-03		11.405
6		0.00		-5.60		1.122e-02		-46.244		2.449e-03		10.899
6		0.00		-6.00		1.051e-02		-44.219		1.736e-03		9.065
6		0.00		-6.40		9.433e-03		-44.761		1.903e-03		11.299
6		0.00		-6.80		7.931e-03		-48.506		1.752e-03		14.136
6		0.00		-7.20		7.329e-03		-40.431		1.785e-03		14.469
6		0.00		-7.60		6.241e-03		-36.201		1.552e-03		17.379
6		0.00		-8.00		4.751e-03		-43.978		1.392e-03		24.614
6		0.00		-8.40		3.665e-03		-21.701		1.257e-03		25.384
6		0.00		-8.80		2.905e-03		-36.597		1.058e-03		34.121
6		0.00		-9.20		1.717e-03		9.721		6.726e-04		61.633
6		0.00		-9.60		1.895e-03		33.519		7.657e-04		59.992
6		0.00		-10.00		2.913e-03		79.537		1.067e-03		36.126
6		0.00		-9.60		4.037e-03		99.310		1.238e-03		21.423
6		0.00		-9.20		5.043e-03		113.220		1.685e-03		20.253
6		0.00		-8.80		5.515e-03		113.189		1.564e-03		22.619
6		0.00		-8.40		5.578e-03		118.338		1.651e-03		18.650
6		0.00		-8.00		5.699e-03		113.336		1.623e-03		17.008
6		0.00		-7.60		5.574e-03		117.740		1.796e-03		22.412
6		0.00		-7.20		5.452e-03		116.019		1.608e-03		23.573
6		0.00		-6.80		5.114e-03		110.795		1.633e-03		16.255
6		0.00		-6.40		5.296e-03		117.305		1.572e-03		19.319
6		0.00		-6.00		5.208e-03		114.153		1.512e-03		20.260
6		0.00		-5.60		5.419e-03		113.542		1.694e-03		20.982
6		0.00		-5.20		4.835e-03		114.336		1.386e-03		23.644
6		0.00		-4.80		4.842e-03		110.292		1.642e-03		21.574
6		0.00		-4.40		4.757e-03		108.974		1.352e-03		23.167
6		0.00		-4.00		4.676e-03		117.857		1.446e-03		24.971
6		0.00		-3.60		4.881e-03		110.742		1.469e-03		18.226
6		0.00		-3.20		4.988e-03		123.340		1.093e-03		18.885
6		0.00		-2.80		4.759e-03		118.948		1.340e-03		24.084
6		0.00		-2.40		4.527e-03		108.353		1.590e-03		25.779
6		0.00		-2.00		4.777e-03		111.973		1.342e-03		24.299
6		0.00		-1.60		4.771e-03		118.008		1.257e-03		18.216
6		0.00		-1.20		4.641e-03		114.167		1.317e-03		26.508
6		0.00		-0.80		4.589e-03		110.490		1.395e-03		20.140
6		0.00		-0.40		4.527e-03		107.568		1.444e-03		40.617
7		0.00		0.00		4.414e-03		113.286		1.263e-03		19.836
7		0.00		0.40		4.092e-03		101.046		1.351e-03		22.403
7		0.00		0.80		4.507e-03		107.674		1.511e-03		21.510
7		0.00		1.20		4.013e-03		106.944		1.324e-03		36.924
7		0.00		1.60		4.164e-03		109.694		1.244e-03		22.242
7		0.00		2.00		3.593e-03		94.613		1.223e-03		34.463
7		0.00		2.40		3.388e-03		94.970		1.255e-03		37.827
7		0.00		2.80		2.807e-03		86.969		1.213e-03		42.315
7		0.00		3.20		2.478e-03		62.978		1.069e-03		50.746
7		0.00		3.60		2.192e-03		63.689		8.583e-04		51.071
7		0.00		4.00		1.927e-03		33.422		8.683e-04		63.798
7		0.00		4.40		1.954e-03		-11.504		7.928e-04		63.611
7		0.00		4.80		2.482e-03		-34.828		1.030e-03		42.560
7		0.00		5.20		3.262e-03		-54.983		1.069e-03		27.663
7		0.00		5.60		3.954e-03		-44.743		1.338e-03		22.603
7		0.00		6.00		4.673e-03		-29.649		1.188e-03		20.825
7		0.00		6.40		5.257e-03		-33.080		1.422e-03		18.880
7		0.00		6.80		5.678e-03		-44.563		1.653e-03		19.461
7		0.00		7.20		6.945e-03		-36.034		1.585e-03		16.963
7		0.00		7.60		7.756e-03		-42.498		1.679e-03		14.779
7		0.00		8.00		8.441e-03		-47.272		1.629e-03		9.995
7		0.00		8.40		1.014e-02		-45.550		1.867e-03		12.552
7		0.00		8.80		1.098e-02		-50.514		2.380e-03		11.346
7		0.00		9.20		1.174e-02		-50.482		2.910e-03		11.152
7		0.00		9.60		1.332e-02		-47.176		2.792e-03		9.669
7		0.00		10.00		1.578e-02		-46.696		2.498e-03		9.349
7		0.00		9.60		1.684e-02		-50.554		2.767e-03		9.110
7		0.00		9.20		1.671e-02		-49.643		3.324e-03		9.375
7		0.00		8.80		1.728e-02		-49.661		4.101e-03		8.930
7		0.00		8.40		1.745e-02		-49.112		3.839e-03		9.726
7		0.00		8.00		1.800e-02		-48.951		3.361e-03		8.087
7		0.00		7.60		1.813e-02		-49.487		2.744e-03		9.574
7		0.00		7.20		1.795e-02		-48.148		2.855e-03		8.659
7		0.00		6.80		1.764e-02		-49.865		3.285e-03		8.356
7		0.00		6.40		1.713e-02		-49.470		3.342e-03		8.961
7		0.00		6.00		1.717e-02		-46.770		3.187e-03		9.237
7		0.00		5.60		1.714e-02		-49.840		2.632e-03		10.044
7		0.00		5.20		1.772e-02		-49.184		2.372e-03		8.022
7		0.00		4.80		1.735e-02		-49.461		2.686e-03		7.801
7		0.00		4.40		1.672e-02		-46.724		3.115e-03		10.318
7		0.00		4.00		1.681e-02		-48.936		3.465e-03		9.115
7		0.00		3.60		1.609e-02		-50.462		3.337e-03		9.185
7		0.00		3.20		1.639e-02		-47.148		2.738e-03		8.795
7		0.00		2.80		1.645e-02		-47.115		2.317e-03		9.365
7		0.00		2.40		1.634e-02		-45.941		2.714e-03		7.350
7		0.00		2.00		1.617e-02		-50.590		3.094e-03		9.297
7		0.00		1.60		1.581e-02		-48.495		3.599e-03		11.225
7		0.00		1.20		1.596e-02		-50.525		3.467e-03		9.218
7		0.00		0.80		1.616e-02		-49.515		2.856e-03		9.043
7		0.00		0.40		1.624e-02		-47.809		2.458e-03		8.932
7		0.00		0.00		1.637e-02		-45.146		2.575e-03		10.560
7		0.00		-0.40		1.610e-02		-45.091		2.931e-03		10.810
7		0.00		-0.80		1.527e-02		-48.889		3.405e-03		11.043
7		0.00		-1.20		1.540e-02		-46.059		3.279e-03		10.310
7		0.00		-1.60		1.547e-02		-46.692		2.508e-03		9.986
7		0.00		-2.00		1.558e-02		-47.283		2.209e-03		8.178
7		0.00		-2.40		1.517e-02		-46.193		2.746e-03		9.345
7		0.00		-2.80		1.443e-02		-47.462		2.707e-03		10.560
7		0.00		-3.20		1.342e-02		-42.991		3.187e-03		12.633
7		0.00		-3.60		1.322e-02		-45.177		2.651e-03		9.380
7		0.00		-4.00		1.303e-02		-47.989		2.339e-03		8.866
7		0.00		-4.40		1.260e-02		-47.639		2.043e-03		9.158
7		0.00		-4.80		1.227e-02		-47.812		2.251e-03		10.210
7		0.00		-5.20		1.153e-02		-42.314		2.306e-03		11.049
7		0.00		-5.60		1.068e-02		-46.215		2.359e-03		12.004
7		0.00		-6.00		1.009e-02		-47.523		2.169e-03		8.548
7		0.00		-6.40		9.702e-03		-49.748		1.864e-03		13.144
7		0.00		-6.80		8.192e-03		-52.658		1.592e-03		13.778
7		0.00		-7.20		7.627e-03		-45.319		1.975e-03		15.163
7		0.00		-7.60		6.292e-03		-46.092		1.761e-03		21.023
7		0.00		-8.00		5.151e-03		-33.053		1.508e-03		18.762
7		0.00		-8.40		4.145e-03		-37.853		1.246e-03		23.107
7		0.00		-8.80		2.833e-03		-29.086		1.127e-03		38.344
7		0.00		-9.20		2.334e-03		18.240		9.990e-04		51.325
7		0.00		-9.60		1.900e-03		26.695		7.850e-04		68.340
7		0.00		-10.00		2.860e-03		83.816		1.129e-03		53.568
7		0.00		-9.60		3.552e-03		100.769		1.172e-03		29.357
7		0.00		-9.20		4.519e-03		105.625		1.575e-03		22.478
7		0.00		-8.80		4.927e-03		118.445		1.184e-03		17.166
7		0.00		-8.40		4.962e-03		113.041		1.344e-03		17.863
7		0.00		-8.00		5.011e-03		109.497		1.261e-03		21.026
7		0.00		-7.60		5.251e-03		113.092		1.620e-03		21.768
7		0.00		-7.20		4.597e-03		117.585		1.198e-03		18.991
7		0.00		-6.80		4.785e-03		108.996		1.449e-03		21.227
7		0.00		-6.40		4.738e-03		121.087		1.452e-03		20.445
7		0.00		-6.00		4.826e-03		108.930		1.396e-03		20.060
7		0.00		-5.60		4.689e-03		116.408		1.430e-03		18.956
7		0.00		-5.20		4.449e-03		108.093		1.501e-03		19.783
7		0.00		-4.80		4.511e-03		109.951		1.427e-03		34.512
7		0.00		-4.40		4.532e-03		111.611		1.328e-03		29.679
7		0.00		-4.00		4.061e-03		106.712		1.257e-03		22.119
7		0.00		-3.60		4.008e-03		103.374		1.428e-03		21.398
7		0.00		-3.20		4.188e-03		107.103		1.252e-03		26.201
7		0.00		-2.80		3.791e-03		105.167		1.325e-03		26.972
7		0.00		-2.40		3.979e-03		103.415		1.272e-03		23.092
7		0.00		-2.00		4.172e-03		102.414		1.412e-03		25.625
7		0.00		-1.60		4.192e-03		108.577		1.280e-03		22.942
7		0.00		-1.20		4.462e-03		106.014		1.506e-03		21.203
7		0.00		-0.80		4.286e-03		106.413		1.368e-03		26.777
7		0.00		-0.40		4.370e-03		107.367		1.417e-03		21.580
8		0.00		0.00		4.428e-03		101.810		1.340e-03		20.051
8		0.00		0.40		4.456e-03		109.705		1.312e-03		18.227
8		0.00		0.80		4.205e-03		108.000		1.392e-03		21.355
8		0.00		1.20		4.373e-03		107.654		1.215e-03		23.842
8		0.00		1.60		3.970e-03		106.195		1.268e-03		30.431
8		0.00		2.00		3.509e-03		102.992		1.286e-03		36.723
8		0.00		2.40		3.354e-03		98.076		1.194e-03		33.582
8		0.00		2.80		2.825e-03		94.185		1.144e-03		47.902
8		0.00		3.20		2.385e-03		67.544		1.089e-03		61.303
8		0.00		3.60		2.005e-03		24.816		9.284e-04		71.009
8		0.00		4.00		1.771e-03		11.268		7.405e-04		62.245
8		0.00		4.40		1.947e-03		-13.767		7.830e-04		43.757
8		0.00		4.80		2.999e-03		-38.013		1.262e-03		28.149
8		0.00		5.20		3.101e-03		-34.037		1.180e-03		30.445
8		0.00		5.60		3.881e-03		-40.607		1.221e-03		23.194
8		0.00		6.00		4.611e-03		-49.470		1.249e-03		26.705
8		0.00		6.40		5.370e-03		-37.921		1.536e-03		20.658
8		0.00		6.80		6.173e-03		-51.699		1.409e-03		16.597
8		0.00		7.20		6.765e-03		-35.649		1.365e-03		16.251
8		0.00		7.60		7.494e-03		-50.231		1.780e-03		15.218
8		0.00		8.00		8.626e-03		-50.247		1.859e-03		12.141
8		0.00		8.40		9.336e-03		-47.894		1.908e-03		10.562
8		0.00		8.80		1.068e-02		-49.651		1.959e-03		10.457
8		0.00		9.20		1.225e-02		-49.905		1.797e-03		10.269
8		0.00		9.60		1.373e-02		-47.177		2.417e-03		11.429
8		0.00		10.00		1.488e-02		-50.832		2.646e-03		7.987
8		0.00		9.60		1.555e-02		-51.672		3.178e-03		9.410
8		0.00		9.20		1.589e-02		-48.024		3.498e-03		10.671
8		0.00		8.80		1.671e-02		-48.750		3.272e-03		8.931
8		0.00		8.40		1.709e-02		-48.029		3.097e-03		8.828
8		0.00		8.00		1.697e-02		-49.117		2.639e-03		7.824
8		0.00		7.60		1.718e-02		-47.397		2.871e-03		7.715
8		0.00		7.20		1.700e-02		-48.332		3.210e-03		9.838
8		0.00		6.80		1.629e-02		-48.490		3.244e-03		10.417
8		0.00		6.40		1.639e-02		-49.281		3.659e-03		9.307
8		0.00		6.00		1.662e-02		-47.738		3.318e-03		9.712
8		0.00		5.60		1.677e-02		-48.812		2.711e-03		8.226
8		0.00		5.20		1.696e-02		-50.837		2.572e-03		8.524
8		0.00		4.80		1.670e-02		-48.089		2.768e-03		7.976
8		0.00		4.40		1.669e-02		-51.016		3.372e-03		7.968
8		0.00		4.00		1.589e-02		-48.533		3.582e-03		10.286
8		0.00		3.60		1.577e-02		-48.567		3.092e-03		8.808
8		0.00		3.20		1.624e-02		-46.912		2.685e-03		9.307
8		0.00		2.80		1.610e-02		-46.734		2.441e-03		8.644
8		0.00		2.40		1.623e-02		-47.121		2.343e-03		8.764
8		0.00		2.00		1.597e-02		-47.199		2.868e-03		9.461
8		0.00		1.60		1.572e-02		-48.426		3.181e-03		9.670
8		0.00		1.20		1.584e-02		-47.065		3.311e-03		9.384
8		0.00		0.80		1.575e-02		-47.460		3.013e-03		9.598
8		0.00		0.40		1.589e-02		-51.056		2.571e-03		7.800
8		0.00		0.00		1.582e-02		-43.771		2.446e-03		9.707
8		0.00		-0.40		1.587e-02		-43.427		2.902e-03		8.675
8		0.00		-0.80		1.501e-02		-44.556		3.078e-03		10.198
8		0.00		-1.20		1.443e-02		-46.686		3.303e-03		12.479
8		0.00		-1.60		1.483e-02		-49.888		3.306e-03		9.733
8		0.00		-2.00		1.463e-02		-44.808		2.858e-03		10.306
8		0.00		-2.40		1.418e-02		-48.748		2.507e-03		10.144
8		0.00		-2.80		1.334e-02		-47.612		2.521e-03		8.543
8		0.00		-3.20		1.261e-02		-46.853		2.850e-03		10.491
8		0.00		-3.60		1.281e-02		-46.737		3.022e-03		9.744
8		0.00		-4.00		1.235e-02		-47.444		2.808e-03		14.091
8		0.00		-4.40		1.241e-02		-46.953		2.125e-03		10.393
8		0.00		-4.80		1.160e-02		-45.386		1.734e-03		11.164
8		0.00		-5.20		1.088e-02		-48.134		1.851e-03		10.807
8		0.00		-5.60		1.095e-02		-46.940		2.028e-03		11.935
8		0.00		-6.00		9.518e-03		-41.105		1.814e-03		14.635
8		0.00		-6.40		8.357e-03		-50.533		1.880e-03		11.105
8		0.00		-6.80		7.622e-03		-45.222		1.634e-03		13.601
8		0.00		-7.20		6.941e-03		-46.361		1.658e-03		19.912
8		0.00		-7.60		5.142e-03		-53.085		1.526e-03		27.304
8		0.00		-8.00		4.574e-03		-45.471		1.335e-03		18.657
8		0.00		-8.40		3.317e-03		-24.501		1.237e-03		32.486
8		0.00		-8.80		2.569e-03		-25.393		9.582e-04		43.462
8		0.00		-9.20		1.979e-03		6.884		8.262e-04		57.511
8		0.00		-9.60		1.907e-03		38.694		8.355e-04		59.916
8		0.00		-10.00		2.919e-03		93.912		1.126e-03		33.589
8		0.00		-9.60		3.222e-03		95.268		1.213e-03		46.246
8		0.00		-9.20		4.145e-03		110.824		1.296e-03		26.382
8		0.00		-8.80		4.012e-03		105.543		1.480e-03		41.077
8		0.00		-8.40		4.424e-03		114.186		1.247e-03		23.899
8		0.00		-8.00		4.526e-03		116.589		1.403e-03		25.647
8		0.00		-7.60		4.999e-03		116.498		1.416e-03		18.391
8		0.00		-7.20		4.697e-03		108.792		1.567e-03		22.664
8		0.00		-6.80		4.629e-03		110.597		1.497e-03		21.772
8		0.00		-6.40		4.371e-03		108.576		1.615e-03		30.735
8		0.00		-6.00		4.830e-03		110.873		1.493e-03		24.401
8		0.00		-5.60		4.471e-03		108.232		1.471e-03		20.448
8		0.00		-5.20		4.212e-03		111.725		1.504e-03		22.780
8		0.00		-4.80		4.534e-03		113.923		1.366e-03		17.132
8		0.00		-4.40		4.306e-03		107.205		1.316e-03		22.506
8		0.00		-4.00		4.221e-03		103.707		1.308e-03		24.664
8		0.00		-3.60		4.216e-03		115.349		1.189e-03		34.615
8		0.00		-3.20		4.571e-03		104.166		1.321e-03		23.519
8		0.00		-2.80		4.440e-03		111.763		1.140e-03		25.322
8		0.00		-2.40		3.998e-03		113.547		1.334e-03		23.962
8		0.00		-2.00		4.086e-03		107.391		1.365e-03		24.564
8		0.00		-1.60		4.085e-03		107.589		1.381e-03		22.154
8		0.00		-1.20		4.087e-03		111.410		1.295e-03		20.164
8		0.00		-0.80		4.496e-03		114.882		1.309e-03		19.375
8		0.00		-0.40		4.065e-03		107.740		1.456e-03		26.001
