# Date of analysis: 2024-03-08 10;59
# Segment other properties: height: -59.86592889529291, diff height: 528.1427780998819, deflection: 33.15002935582313, deflection error: 2.9750405494559535, adhesion: 43.92502709762198, phase offset: 0
# 
# Loop index	Read Volt (V)	Write Volt (V)	Amplitude (a.u)	Phase (deg)	Sigma Amp (a.u)	Sigma Pha (deg)	
1		0.00		0.00		1.071e-02		-50.890		2.508e-03		11.574
1		0.00		0.40		1.049e-02		-46.886		2.541e-03		14.018
1		0.00		0.80		1.042e-02		-49.315		2.485e-03		14.468
1		0.00		1.20		1.027e-02		-48.403		2.565e-03		15.436
1		0.00		1.60		1.021e-02		-43.230		2.696e-03		15.896
1		0.00		2.00		1.051e-02		-46.717		2.771e-03		14.346
1		0.00		2.40		1.038e-02		-52.019		2.635e-03		12.625
1		0.00		2.80		1.087e-02		-46.615		2.546e-03		12.153
1		0.00		3.20		1.119e-02		-43.797		2.061e-03		11.367
1		0.00		3.60		1.151e-02		-47.598		2.316e-03		11.923
1		0.00		4.00		1.229e-02		-50.333		2.837e-03		11.504
1		0.00		4.40		1.293e-02		-49.485		2.522e-03		10.393
1		0.00		4.80		1.312e-02		-44.889		3.219e-03		12.089
1		0.00		5.20		1.414e-02		-50.295		3.353e-03		14.252
1		0.00		5.60		1.478e-02		-47.772		3.717e-03		10.563
1		0.00		6.00		1.500e-02		-48.136		4.038e-03		8.476
1		0.00		6.40		1.598e-02		-49.125		4.017e-03		9.925
1		0.00		6.80		1.702e-02		-50.226		4.075e-03		10.110
1		0.00		7.20		1.760e-02		-51.628		3.839e-03		9.285
1		0.00		7.60		1.853e-02		-52.284		4.176e-03		9.826
1		0.00		8.00		1.981e-02		-50.403		4.242e-03		10.179
1		0.00		8.40		2.078e-02		-49.383		5.308e-03		10.781
1		0.00		8.80		2.261e-02		-50.270		6.126e-03		12.772
1		0.00		9.20		2.419e-02		-51.105		6.709e-03		12.361
1		0.00		9.60		2.617e-02		-51.729		7.651e-03		13.915
1		0.00		10.00		2.787e-02		-52.547		7.065e-03		8.960
1		0.00		9.60		2.969e-02		-51.932		6.577e-03		8.548
1		0.00		9.20		3.101e-02		-51.773		6.250e-03		8.423
1		0.00		8.80		3.150e-02		-51.581		5.940e-03		7.748
1		0.00		8.40		3.132e-02		-51.460		6.222e-03		9.334
1		0.00		8.00		3.045e-02		-49.749		6.684e-03		9.588
1		0.00		7.60		2.996e-02		-49.205		6.706e-03		10.316
1		0.00		7.20		2.993e-02		-51.468		7.451e-03		12.822
1		0.00		6.80		2.958e-02		-51.714		7.539e-03		13.285
1		0.00		6.40		2.909e-02		-49.521		7.525e-03		8.002
1		0.00		6.00		2.971e-02		-50.590		7.276e-03		8.133
1		0.00		5.60		2.973e-02		-51.931		6.462e-03		7.951
1		0.00		5.20		2.938e-02		-54.139		6.484e-03		8.551
1		0.00		4.80		2.907e-02		-50.854		6.526e-03		8.751
1		0.00		4.40		2.849e-02		-52.008		7.131e-03		11.052
1		0.00		4.00		2.782e-02		-50.901		7.191e-03		9.071
1		0.00		3.60		2.733e-02		-51.279		7.610e-03		12.066
1		0.00		3.20		2.713e-02		-50.872		8.025e-03		12.968
1		0.00		2.80		2.711e-02		-51.206		8.120e-03		10.315
1		0.00		2.40		2.736e-02		-53.017		7.936e-03		9.420
1		0.00		2.00		2.750e-02		-50.514		6.582e-03		9.569
1		0.00		1.60		2.824e-02		-54.017		5.790e-03		8.934
1		0.00		1.20		2.786e-02		-52.599		5.639e-03		8.749
1		0.00		0.80		2.807e-02		-49.567		5.697e-03		9.016
1		0.00		0.40		2.751e-02		-50.891		6.130e-03		8.457
1		0.00		0.00		2.745e-02		-50.976		6.432e-03		11.019
1		0.00		-0.40		2.757e-02		-50.582		6.675e-03		11.326
1		0.00		-0.80		2.679e-02		-49.949		6.806e-03		10.857
1		0.00		-1.20		2.653e-02		-51.024		6.606e-03		8.522
1		0.00		-1.60		2.589e-02		-50.536		6.146e-03		8.760
1		0.00		-2.00		2.714e-02		-51.061		5.446e-03		6.975
1		0.00		-2.40		2.731e-02		-51.077		5.498e-03		8.616
1		0.00		-2.80		2.606e-02		-51.142		5.303e-03		9.136
1		0.00		-3.20		2.482e-02		-50.250		5.453e-03		9.648
1		0.00		-3.60		2.403e-02		-50.714		5.503e-03		10.929
1		0.00		-4.00		2.255e-02		-49.878		5.889e-03		12.623
1		0.00		-4.40		2.209e-02		-51.110		5.965e-03		12.690
1		0.00		-4.80		2.077e-02		-49.975		5.688e-03		11.721
1		0.00		-5.20		1.922e-02		-49.636		5.326e-03		10.155
1		0.00		-5.60		1.785e-02		-48.202		4.405e-03		9.660
1		0.00		-6.00		1.623e-02		-51.399		3.476e-03		8.568
1		0.00		-6.40		1.417e-02		-47.990		3.031e-03		12.025
1		0.00		-6.80		1.038e-02		-44.292		2.241e-03		13.846
1		0.00		-7.20		5.827e-03		-38.091		1.695e-03		17.053
1		0.00		-7.60		3.748e-03		-39.056		1.247e-03		25.815
1		0.00		-8.00		1.692e-03		25.051		6.888e-04		58.675
1		0.00		-8.40		3.571e-03		96.302		1.237e-03		37.014
1		0.00		-8.80		5.741e-03		110.507		1.822e-03		42.798
1		0.00		-9.20		8.357e-03		114.670		2.468e-03		22.377
1		0.00		-9.60		1.011e-02		118.001		2.568e-03		10.435
1		0.00		-10.00		1.208e-02		124.093		2.812e-03		11.144
1		0.00		-9.60		1.261e-02		122.811		2.947e-03		9.700
1		0.00		-9.20		1.347e-02		123.279		3.330e-03		11.388
1		0.00		-8.80		1.330e-02		124.902		3.491e-03		9.032
1		0.00		-8.40		1.328e-02		125.619		3.653e-03		13.820
1		0.00		-8.00		1.264e-02		120.696		3.720e-03		14.312
1		0.00		-7.60		1.292e-02		118.526		3.943e-03		18.859
1		0.00		-7.20		1.202e-02		119.519		4.137e-03		16.605
1		0.00		-6.80		1.201e-02		121.585		3.689e-03		12.887
1		0.00		-6.40		1.204e-02		122.812		3.381e-03		8.894
1		0.00		-6.00		1.142e-02		121.418		3.337e-03		11.613
1		0.00		-5.60		1.130e-02		122.132		2.798e-03		11.928
1		0.00		-5.20		1.106e-02		122.731		2.840e-03		10.572
1		0.00		-4.80		1.063e-02		123.363		2.579e-03		11.705
1		0.00		-4.40		1.017e-02		123.652		2.439e-03		12.819
1		0.00		-4.00		9.750e-03		122.025		2.414e-03		16.645
1		0.00		-3.60		9.632e-03		121.156		2.789e-03		21.588
1		0.00		-3.20		9.108e-03		122.657		2.626e-03		17.138
1		0.00		-2.80		8.902e-03		125.475		2.651e-03		16.358
1		0.00		-2.40		8.679e-03		117.293		2.501e-03		13.449
1		0.00		-2.00		8.520e-03		121.191		2.423e-03		15.150
1		0.00		-1.60		8.480e-03		121.317		2.310e-03		20.980
1		0.00		-1.20		8.129e-03		120.358		2.217e-03		14.402
1		0.00		-0.80		8.359e-03		120.758		2.192e-03		13.811
1		0.00		-0.40		7.963e-03		121.833		1.974e-03		12.841
2		0.00		0.00		7.933e-03		122.540		2.222e-03		14.619
2		0.00		0.40		7.653e-03		121.081		2.247e-03		14.463
2		0.00		0.80		6.991e-03		124.063		2.072e-03		17.668
2		0.00		1.20		7.031e-03		121.580		2.135e-03		22.081
2		0.00		1.60		6.883e-03		119.956		2.269e-03		18.331
2		0.00		2.00		6.162e-03		114.928		2.203e-03		24.397
2		0.00		2.40		5.411e-03		118.376		1.730e-03		19.086
2		0.00		2.80		4.346e-03		112.945		1.437e-03		21.272
2		0.00		3.20		3.553e-03		100.866		1.440e-03		48.014
2		0.00		3.60		2.968e-03		105.900		1.195e-03		40.740
2		0.00		4.00		2.415e-03		72.736		9.391e-04		69.355
2		0.00		4.40		1.768e-03		28.990		6.683e-04		73.041
2		0.00		4.80		1.775e-03		3.647		7.866e-04		78.242
2		0.00		5.20		2.136e-03		-39.541		7.856e-04		54.000
2		0.00		5.60		2.679e-03		-47.071		1.073e-03		42.307
2		0.00		6.00		3.298e-03		-39.192		1.270e-03		28.549
2		0.00		6.40		5.249e-03		-48.217		1.843e-03		19.446
2		0.00		6.80		5.805e-03		-49.166		1.673e-03		17.074
2		0.00		7.20		7.060e-03		-47.581		1.734e-03		15.302
2		0.00		7.60		7.715e-03		-49.625		1.859e-03		15.401
2		0.00		8.00		9.441e-03		-45.352		2.402e-03		12.789
2		0.00		8.40		9.770e-03		-52.409		2.412e-03		11.470
2		0.00		8.80		1.171e-02		-46.336		2.969e-03		13.737
2		0.00		9.20		1.349e-02		-47.811		3.677e-03		12.641
2		0.00		9.60		1.580e-02		-53.520		4.464e-03		14.067
2		0.00		10.00		1.848e-02		-52.331		5.376e-03		15.352
2		0.00		9.60		2.058e-02		-51.099		6.070e-03		10.736
2		0.00		9.20		2.188e-02		-52.780		5.808e-03		8.024
2		0.00		8.80		2.244e-02		-52.072		5.380e-03		8.626
2		0.00		8.40		2.270e-02		-51.469		4.870e-03		7.912
2		0.00		8.00		2.261e-02		-50.616		4.552e-03		8.756
2		0.00		7.60		2.265e-02		-50.456		4.626e-03		8.242
2		0.00		7.20		2.238e-02		-52.368		4.800e-03		10.822
2		0.00		6.80		2.226e-02		-49.015		5.167e-03		10.086
2		0.00		6.40		2.200e-02		-51.244		5.536e-03		8.429
2		0.00		6.00		2.136e-02		-52.104		5.838e-03		12.018
2		0.00		5.60		2.141e-02		-50.119		5.632e-03		10.784
2		0.00		5.20		2.186e-02		-51.316		5.770e-03		9.977
2		0.00		4.80		2.131e-02		-50.660		5.364e-03		8.663
2		0.00		4.40		2.132e-02		-51.849		5.171e-03		8.468
2		0.00		4.00		2.096e-02		-51.106		4.516e-03		7.432
2		0.00		3.60		2.113e-02		-50.149		4.417e-03		8.896
2		0.00		3.20		2.082e-02		-51.544		4.687e-03		7.732
2		0.00		2.80		2.039e-02		-50.527		4.631e-03		10.336
2		0.00		2.40		2.053e-02		-50.129		5.037e-03		9.606
2		0.00		2.00		1.977e-02		-50.808		5.339e-03		10.714
2		0.00		1.60		1.996e-02		-50.172		5.507e-03		13.645
2		0.00		1.20		1.951e-02		-50.725		5.361e-03		8.686
2		0.00		0.80		1.986e-02		-51.335		4.978e-03		9.109
2		0.00		0.40		2.062e-02		-51.304		4.769e-03		8.882
2		0.00		0.00		2.021e-02		-51.178		4.341e-03		9.912
2		0.00		-0.40		2.023e-02		-53.395		4.104e-03		8.952
2		0.00		-0.80		1.989e-02		-49.553		4.148e-03		9.323
2		0.00		-1.20		1.924e-02		-51.892		4.390e-03		9.821
2		0.00		-1.60		1.869e-02		-50.987		4.267e-03		11.219
2		0.00		-2.00		1.874e-02		-49.669		4.596e-03		13.140
2		0.00		-2.40		1.807e-02		-50.860		4.864e-03		11.441
2		0.00		-2.80		1.800e-02		-50.299		4.423e-03		8.306
2		0.00		-3.20		1.725e-02		-51.092		4.171e-03		9.558
2		0.00		-3.60		1.682e-02		-50.526		3.852e-03		8.943
2		0.00		-4.00		1.628e-02		-48.246		3.586e-03		9.464
2		0.00		-4.40		1.506e-02		-50.451		3.528e-03		11.268
2		0.00		-4.80		1.444e-02		-47.794		3.686e-03		12.052
2		0.00		-5.20		1.308e-02		-48.283		3.701e-03		12.386
2		0.00		-5.60		1.188e-02		-48.402		3.313e-03		13.733
2		0.00		-6.00		1.057e-02		-48.672		3.005e-03		15.983
2		0.00		-6.40		9.151e-03		-50.069		2.891e-03		12.128
2		0.00		-6.80		7.512e-03		-40.104		2.151e-03		13.969
2		0.00		-7.20		5.744e-03		-35.529		1.509e-03		16.705
2		0.00		-7.60		3.815e-03		-48.022		1.367e-03		22.579
2		0.00		-8.00		2.184e-03		0.999		7.908e-04		45.704
2		0.00		-8.40		3.297e-03		94.628		1.329e-03		33.364
2		0.00		-8.80		5.393e-03		112.608		1.568e-03		20.649
2		0.00		-9.20		7.149e-03		122.448		1.982e-03		14.470
2		0.00		-9.60		8.532e-03		124.063		2.337e-03		15.945
2		0.00		-10.00		1.185e-02		121.566		3.188e-03		17.088
2		0.00		-9.60		1.229e-02		123.051		3.392e-03		16.498
2		0.00		-9.20		1.212e-02		122.775		3.413e-03		14.655
2		0.00		-8.80		1.255e-02		123.913		3.534e-03		10.726
2		0.00		-8.40		1.217e-02		123.627		2.993e-03		9.508
2		0.00		-8.00		1.223e-02		121.468		2.824e-03		8.662
2		0.00		-7.60		1.222e-02		123.377		2.805e-03		10.314
2		0.00		-7.20		1.183e-02		123.213		2.696e-03		11.234
2		0.00		-6.80		1.118e-02		121.896		2.902e-03		12.167
2		0.00		-6.40		1.121e-02		125.771		2.869e-03		14.602
2		0.00		-6.00		1.068e-02		122.823		3.089e-03		15.613
2		0.00		-5.60		1.043e-02		120.832		3.414e-03		19.845
2		0.00		-5.20		1.006e-02		120.501		3.086e-03		16.569
2		0.00		-4.80		1.026e-02		124.745		3.012e-03		11.077
2		0.00		-4.40		9.889e-03		122.251		2.555e-03		11.184
2		0.00		-4.00		9.948e-03		121.780		2.378e-03		11.741
2		0.00		-3.60		9.570e-03		121.608		2.447e-03		11.256
2		0.00		-3.20		9.258e-03		124.168		2.353e-03		10.870
2		0.00		-2.80		9.173e-03		118.965		2.246e-03		14.772
2		0.00		-2.40		9.415e-03		124.672		2.278e-03		10.205
2		0.00		-2.00		8.860e-03		123.627		2.285e-03		13.112
2		0.00		-1.60		8.352e-03		121.290		2.307e-03		16.185
2		0.00		-1.20		8.528e-03		119.849		2.488e-03		18.672
2		0.00		-0.80		8.385e-03		117.411		2.332e-03		23.696
2		0.00		-0.40		8.384e-03		122.043		2.487e-03		12.904
3		0.00		0.00		7.961e-03		124.648		2.405e-03		14.038
3		0.00		0.40		7.695e-03		122.030		2.148e-03		13.498
3		0.00		0.80		7.156e-03		120.123		2.183e-03		14.306
3		0.00		1.20		6.927e-03		124.384		2.009e-03		13.706
3		0.00		1.60		6.350e-03		121.322		2.024e-03		13.820
3		0.00		2.00		6.040e-03		119.407		1.674e-03		22.337
3		0.00		2.40		5.462e-03		115.802		1.863e-03		23.189
3		0.00		2.80		4.632e-03		112.434		1.374e-03		32.502
3		0.00		3.20		4.214e-03		111.962		1.586e-03		28.994
3		0.00		3.60		3.202e-03		99.258		1.173e-03		47.502
3		0.00		4.00		2.348e-03		74.874		9.929e-04		67.600
3		0.00		4.40		1.802e-03		38.813		8.081e-04		73.006
3		0.00		4.80		1.823e-03		16.820		6.504e-04		80.981
3		0.00		5.20		2.060e-03		-31.847		7.936e-04		53.787
3		0.00		5.60		2.407e-03		-49.244		1.008e-03		36.765
3		0.00		6.00		3.714e-03		-51.929		1.373e-03		30.907
3		0.00		6.40		4.412e-03		-53.136		1.168e-03		24.530
3		0.00		6.80		5.532e-03		-52.021		1.287e-03		16.621
3		0.00		7.20		6.331e-03		-42.994		1.637e-03		16.994
3		0.00		7.60		7.806e-03		-48.538		2.174e-03		13.483
3		0.00		8.00		8.867e-03		-51.883		2.325e-03		13.176
3		0.00		8.40		9.554e-03		-48.000		2.351e-03		16.334
3		0.00		8.80		1.138e-02		-48.621		2.956e-03		12.814
3		0.00		9.20		1.272e-02		-44.933		3.501e-03		15.028
3		0.00		9.60		1.478e-02		-49.433		3.929e-03		12.777
3		0.00		10.00		1.719e-02		-50.151		4.486e-03		11.214
3		0.00		9.60		1.818e-02		-50.633		4.751e-03		8.467
3		0.00		9.20		1.946e-02		-50.547		4.714e-03		9.180
3		0.00		8.80		2.018e-02		-50.664		4.250e-03		6.732
3		0.00		8.40		2.057e-02		-51.901		4.302e-03		8.122
3		0.00		8.00		2.090e-02		-54.672		4.128e-03		7.386
3		0.00		7.60		2.100e-02		-50.158		4.573e-03		10.522
3		0.00		7.20		2.041e-02		-50.746		4.230e-03		8.946
3		0.00		6.80		2.059e-02		-51.555		4.444e-03		8.154
3		0.00		6.40		2.000e-02		-47.557		4.549e-03		9.260
3		0.00		6.00		1.999e-02		-50.390		4.433e-03		10.617
3		0.00		5.60		1.949e-02		-48.844		4.754e-03		12.439
3		0.00		5.20		1.925e-02		-50.123		4.850e-03		13.860
3		0.00		4.80		1.916e-02		-50.063		4.944e-03		11.017
3		0.00		4.40		1.910e-02		-49.032		4.707e-03		8.937
3		0.00		4.00		1.876e-02		-51.659		4.649e-03		9.753
3		0.00		3.60		1.845e-02		-53.340		4.466e-03		9.419
3		0.00		3.20		1.826e-02		-49.406		4.100e-03		8.144
3		0.00		2.80		1.805e-02		-49.582		4.056e-03		8.984
3		0.00		2.40		1.826e-02		-49.182		4.020e-03		10.023
3		0.00		2.00		1.766e-02		-51.912		4.166e-03		10.182
3		0.00		1.60		1.798e-02		-51.101		4.198e-03		10.347
3		0.00		1.20		1.754e-02		-51.024		4.464e-03		10.921
3		0.00		0.80		1.745e-02		-52.452		4.743e-03		12.028
3		0.00		0.40		1.728e-02		-47.210		4.652e-03		13.462
3		0.00		0.00		1.723e-02		-49.187		4.658e-03		11.322
3		0.00		-0.40		1.759e-02		-49.520		4.706e-03		10.079
3		0.00		-0.80		1.736e-02		-52.154		4.110e-03		10.243
3		0.00		-1.20		1.675e-02		-51.376		3.789e-03		9.560
3		0.00		-1.60		1.698e-02		-48.446		3.504e-03		9.807
3		0.00		-2.00		1.674e-02		-51.453		3.271e-03		9.211
3		0.00		-2.40		1.644e-02		-48.020		3.322e-03		10.173
3		0.00		-2.80		1.609e-02		-48.217		3.092e-03		8.925
3		0.00		-3.20		1.545e-02		-49.769		3.336e-03		10.177
3		0.00		-3.60		1.512e-02		-47.746		3.558e-03		10.471
3		0.00		-4.00		1.428e-02		-49.533		3.008e-03		12.732
3		0.00		-4.40		1.393e-02		-48.065		3.132e-03		12.073
3		0.00		-4.80		1.291e-02		-49.047		3.217e-03		12.997
3		0.00		-5.20		1.173e-02		-47.662		3.043e-03		12.425
3		0.00		-5.60		1.065e-02		-46.128		2.796e-03		15.138
3		0.00		-6.00		9.446e-03		-45.387		2.684e-03		14.033
3		0.00		-6.40		8.534e-03		-45.206		2.191e-03		13.600
3		0.00		-6.80		6.877e-03		-43.367		1.934e-03		17.816
3		0.00		-7.20		5.693e-03		-41.040		1.603e-03		14.319
3		0.00		-7.60		4.232e-03		-31.133		1.318e-03		23.209
3		0.00		-8.00		2.141e-03		-35.593		9.315e-04		53.256
3		0.00		-8.40		1.988e-03		49.965		8.401e-04		59.642
3		0.00		-8.80		4.653e-03		111.943		1.555e-03		33.387
3		0.00		-9.20		7.453e-03		121.177		1.716e-03		13.184
3		0.00		-9.60		1.037e-02		120.981		2.165e-03		14.316
3		0.00		-10.00		1.231e-02		123.252		2.506e-03		9.152
3		0.00		-9.60		1.309e-02		125.834		2.778e-03		11.337
3		0.00		-9.20		1.352e-02		123.289		3.254e-03		12.634
3		0.00		-8.80		1.395e-02		124.400		3.186e-03		12.615
3		0.00		-8.40		1.326e-02		125.472		3.393e-03		15.938
3		0.00		-8.00		1.300e-02		123.801		3.485e-03		17.273
3		0.00		-7.60		1.259e-02		120.055		3.489e-03		12.998
3		0.00		-7.20		1.217e-02		122.123		3.461e-03		12.544
3		0.00		-6.80		1.194e-02		126.824		3.152e-03		12.250
3		0.00		-6.40		1.235e-02		123.699		3.044e-03		8.855
3		0.00		-6.00		1.169e-02		123.179		2.929e-03		9.567
3		0.00		-5.60		1.162e-02		123.025		2.766e-03		11.647
3		0.00		-5.20		1.169e-02		125.314		2.818e-03		10.315
3		0.00		-4.80		1.101e-02		125.216		2.375e-03		11.034
3		0.00		-4.40		1.056e-02		119.372		2.330e-03		11.527
3		0.00		-4.00		1.078e-02		123.522		2.337e-03		11.165
3		0.00		-3.60		1.034e-02		120.771		2.154e-03		12.850
3		0.00		-3.20		1.020e-02		128.256		2.141e-03		12.709
3		0.00		-2.80		1.002e-02		126.996		2.478e-03		13.143
3		0.00		-2.40		9.704e-03		126.225		2.485e-03		15.348
3		0.00		-2.00		9.428e-03		123.468		2.419e-03		14.162
3		0.00		-1.60		8.995e-03		125.072		2.314e-03		16.511
3		0.00		-1.20		9.228e-03		122.530		2.498e-03		25.110
3		0.00		-0.80		8.756e-03		121.373		2.480e-03		21.884
3		0.00		-0.40		8.836e-03		125.340		2.397e-03		17.878
4		0.00		0.00		8.750e-03		122.132		2.517e-03		21.073
4		0.00		0.40		8.535e-03		118.086		2.588e-03		16.633
4		0.00		0.80		8.350e-03		120.813		2.241e-03		13.167
4		0.00		1.20		8.522e-03		122.588		2.203e-03		15.048
4		0.00		1.60		7.403e-03		124.918		1.988e-03		16.808
4		0.00		2.00		7.023e-03		122.201		1.915e-03		14.647
4		0.00		2.40		6.358e-03		126.548		1.685e-03		15.845
4		0.00		2.80		5.683e-03		129.853		1.378e-03		14.304
4		0.00		3.20		4.799e-03		120.444		1.242e-03		18.052
4		0.00		3.60		4.460e-03		119.104		1.433e-03		23.108
4		0.00		4.00		3.072e-03		101.591		1.265e-03		46.276
4		0.00		4.40		2.421e-03		84.563		1.007e-03		60.448
4		0.00		4.80		1.858e-03		52.016		7.440e-04		73.772
4		0.00		5.20		1.991e-03		5.323		8.282e-04		76.811
4		0.00		5.60		2.043e-03		-43.748		8.640e-04		54.524
4		0.00		6.00		2.652e-03		-48.935		9.709e-04		32.744
4		0.00		6.40		3.605e-03		-54.143		1.416e-03		27.738
4		0.00		6.80		4.571e-03		-60.317		1.489e-03		24.413
4		0.00		7.20		5.466e-03		-53.652		1.384e-03		15.691
4		0.00		7.60		7.091e-03		-49.927		1.851e-03		13.871
4		0.00		8.00		8.146e-03		-44.653		2.012e-03		17.581
4		0.00		8.40		9.144e-03		-43.913		2.371e-03		12.162
4		0.00		8.80		1.041e-02		-52.787		2.714e-03		11.239
4		0.00		9.20		1.173e-02		-46.692		3.276e-03		14.666
4		0.00		9.60		1.352e-02		-47.492		3.594e-03		12.601
4		0.00		10.00		1.585e-02		-52.614		4.380e-03		13.371
4		0.00		9.60		1.663e-02		-49.577		4.842e-03		13.305
4		0.00		9.20		1.718e-02		-51.183		4.911e-03		11.773
4		0.00		8.80		1.798e-02		-48.764		4.895e-03		12.071
4		0.00		8.40		1.802e-02		-49.552		4.581e-03		11.362
4		0.00		8.00		1.822e-02		-51.666		4.640e-03		11.706
4		0.00		7.60		1.822e-02		-48.896		4.650e-03		9.562
4		0.00		7.20		1.820e-02		-47.769		4.605e-03		8.764
4		0.00		6.80		1.797e-02		-45.522		4.544e-03		11.344
4		0.00		6.40		1.781e-02		-50.026		4.448e-03		9.758
4		0.00		6.00		1.785e-02		-51.179		4.697e-03		9.899
4		0.00		5.60		1.780e-02		-48.603		4.330e-03		8.767
4		0.00		5.20		1.758e-02		-48.577		4.236e-03		10.310
4		0.00		4.80		1.746e-02		-47.913		4.204e-03		9.280
4		0.00		4.40		1.714e-02		-49.500		3.883e-03		9.102
4		0.00		4.00		1.708e-02		-50.998		4.261e-03		9.163
4		0.00		3.60		1.667e-02		-52.344		3.885e-03		8.428
4		0.00		3.20		1.628e-02		-50.526		3.796e-03		8.988
4		0.00		2.80		1.650e-02		-49.329		3.565e-03		11.597
4		0.00		2.40		1.643e-02		-49.901		3.610e-03		9.603
4		0.00		2.00		1.643e-02		-49.904		3.617e-03		8.972
4		0.00		1.60		1.599e-02		-49.445		3.525e-03		10.340
4		0.00		1.20		1.639e-02		-50.176		3.618e-03		9.030
4		0.00		0.80		1.632e-02		-49.854		3.361e-03		9.627
4		0.00		0.40		1.611e-02		-49.453		3.276e-03		9.248
4		0.00		0.00		1.627e-02		-50.203		3.421e-03		11.139
4		0.00		-0.40		1.658e-02		-48.915		3.296e-03		9.793
4		0.00		-0.80		1.559e-02		-48.476		3.507e-03		9.938
4		0.00		-1.20		1.562e-02		-46.962		3.344e-03		9.335
4		0.00		-1.60		1.539e-02		-47.612		3.294e-03		10.830
4		0.00		-2.00		1.521e-02		-49.482		3.087e-03		10.746
4		0.00		-2.40		1.475e-02		-49.240		3.314e-03		11.377
4		0.00		-2.80		1.458e-02		-45.823		3.120e-03		11.209
4		0.00		-3.20		1.378e-02		-47.102		3.234e-03		11.186
4		0.00		-3.60		1.312e-02		-50.190		3.630e-03		13.083
4		0.00		-4.00		1.313e-02		-49.069		3.503e-03		11.653
4		0.00		-4.40		1.253e-02		-46.111		3.598e-03		13.612
4		0.00		-4.80		1.171e-02		-48.924		3.450e-03		16.570
4		0.00		-5.20		1.020e-02		-49.470		2.902e-03		13.961
4		0.00		-5.60		9.334e-03		-45.803		2.883e-03		13.591
4		0.00		-6.00		8.533e-03		-48.261		2.321e-03		11.915
4		0.00		-6.40		7.652e-03		-44.312		2.209e-03		18.133
4		0.00		-6.80		6.749e-03		-38.180		2.005e-03		19.331
4		0.00		-7.20		5.425e-03		-40.973		1.739e-03		19.136
4		0.00		-7.60		3.428e-03		-61.237		1.307e-03		40.335
4		0.00		-8.00		2.165e-03		-7.728		9.111e-04		42.396
4		0.00		-8.40		1.831e-03		23.495		8.140e-04		78.054
4		0.00		-8.80		4.167e-03		107.696		1.350e-03		22.703
4		0.00		-9.20		6.454e-03		119.917		1.811e-03		14.947
4		0.00		-9.60		9.152e-03		121.465		2.103e-03		12.445
4		0.00		-10.00		1.011e-02		122.303		2.321e-03		11.528
4		0.00		-9.60		1.173e-02		127.142		2.523e-03		9.947
4		0.00		-9.20		1.211e-02		124.699		2.719e-03		9.193
4		0.00		-8.80		1.216e-02		124.600		2.520e-03		9.979
4		0.00		-8.40		1.223e-02		125.589		2.379e-03		9.107
4		0.00		-8.00		1.193e-02		126.571		2.755e-03		11.360
4		0.00		-7.60		1.126e-02		123.571		2.589e-03		10.645
4		0.00		-7.20		1.142e-02		125.297		2.803e-03		12.674
4		0.00		-6.80		1.106e-02		125.834		2.646e-03		12.331
4		0.00		-6.40		1.098e-02		121.153		2.791e-03		14.612
4		0.00		-6.00		1.040e-02		122.053		2.824e-03		13.409
4		0.00		-5.60		1.061e-02		122.491		3.048e-03		16.211
4		0.00		-5.20		1.010e-02		123.012		2.703e-03		17.082
4		0.00		-4.80		9.818e-03		124.173		2.660e-03		17.967
4		0.00		-4.40		9.664e-03		126.311		2.770e-03		17.840
4		0.00		-4.00		9.669e-03		122.773		2.635e-03		18.077
4		0.00		-3.60		9.735e-03		122.893		2.592e-03		18.789
4		0.00		-3.20		9.631e-03		124.917		2.524e-03		11.856
4		0.00		-2.80		9.459e-03		122.005		2.074e-03		9.622
4		0.00		-2.40		9.298e-03		120.879		2.248e-03		11.530
4		0.00		-2.00		9.227e-03		122.057		2.412e-03		11.128
4		0.00		-1.60		9.282e-03		120.980		2.128e-03		11.282
4		0.00		-1.20		8.791e-03		122.700		2.242e-03		14.872
4		0.00		-0.80		8.816e-03		117.680		2.103e-03		12.946
4		0.00		-0.40		8.760e-03		123.202		1.905e-03		12.826
5		0.00		0.00		8.701e-03		124.050		2.295e-03		12.324
5		0.00		0.40		8.236e-03		122.366		2.212e-03		12.508
5		0.00		0.80		8.123e-03		120.010		2.188e-03		14.604
5		0.00		1.20		8.145e-03		121.714		2.169e-03		13.204
5		0.00		1.60		7.922e-03		119.662		2.127e-03		15.845
5		0.00		2.00		6.926e-03		123.198		2.002e-03		17.487
5		0.00		2.40		6.082e-03		122.915		1.810e-03		21.563
5		0.00		2.80		5.197e-03		110.565		1.823e-03		25.645
5		0.00		3.20		4.565e-03		116.385		1.447e-03		33.186
5		0.00		3.60		3.602e-03		105.559		1.312e-03		41.826
5		0.00		4.00		3.209e-03		89.467		1.177e-03		49.950
5		0.00		4.40		2.325e-03		68.191		9.202e-04		63.985
5		0.00		4.80		1.977e-03		34.719		8.134e-04		77.148
5		0.00		5.20		1.738e-03		-10.223		7.318e-04		71.333
5		0.00		5.60		1.907e-03		-42.823		8.674e-04		65.770
5		0.00		6.00		2.842e-03		-54.628		1.134e-03		39.209
5		0.00		6.40		3.282e-03		-63.519		1.137e-03		28.037
5		0.00		6.80		4.322e-03		-51.770		1.422e-03		23.461
5		0.00		7.20		5.596e-03		-47.901		1.533e-03		16.914
5		0.00		7.60		6.523e-03		-46.934		1.591e-03		14.693
5		0.00		8.00		8.007e-03		-52.469		1.800e-03		14.170
5		0.00		8.40		9.456e-03		-51.985		2.071e-03		12.544
5		0.00		8.80		9.921e-03		-50.515		2.035e-03		13.290
5		0.00		9.20		1.154e-02		-48.487		2.704e-03		12.180
5		0.00		9.60		1.286e-02		-49.797		3.016e-03		11.307
5		0.00		10.00		1.511e-02		-50.776		3.582e-03		11.365
5		0.00		9.60		1.592e-02		-50.011		4.236e-03		12.463
5		0.00		9.20		1.707e-02		-48.760		4.350e-03		13.904
5		0.00		8.80		1.740e-02		-51.844		4.491e-03		14.413
5		0.00		8.40		1.752e-02		-47.246		4.470e-03		11.892
5		0.00		8.00		1.734e-02		-52.298		4.429e-03		9.921
5		0.00		7.60		1.721e-02		-50.007		4.189e-03		8.282
5		0.00		7.20		1.761e-02		-50.497		4.098e-03		7.430
5		0.00		6.80		1.756e-02		-49.456		3.748e-03		9.523
5		0.00		6.40		1.726e-02		-49.695		3.484e-03		8.603
5		0.00		6.00		1.756e-02		-47.238		3.385e-03		8.299
5		0.00		5.60		1.728e-02		-50.317		3.369e-03		8.278
5		0.00		5.20		1.718e-02		-50.387		3.417e-03		9.866
5		0.00		4.80		1.654e-02		-47.081		3.590e-03		10.431
5		0.00		4.40		1.629e-02		-50.008		3.976e-03		9.644
5		0.00		4.00		1.616e-02		-51.623		3.834e-03		9.974
5		0.00		3.60		1.628e-02		-49.749		4.064e-03		12.302
5		0.00		3.20		1.559e-02		-50.636		4.368e-03		12.270
5		0.00		2.80		1.532e-02		-51.556		4.149e-03		11.280
5		0.00		2.40		1.568e-02		-51.999		4.517e-03		14.686
5		0.00		2.00		1.531e-02		-50.242		4.325e-03		13.008
5		0.00		1.60		1.550e-02		-50.419		4.295e-03		12.806
5		0.00		1.20		1.496e-02		-49.036		4.038e-03		12.156
5		0.00		0.80		1.564e-02		-49.060		3.692e-03		8.775
5		0.00		0.40		1.552e-02		-50.811		3.613e-03		9.173
5		0.00		0.00		1.579e-02		-47.941		3.438e-03		9.589
5		0.00		-0.40		1.538e-02		-47.971		3.175e-03		9.725
5		0.00		-0.80		1.570e-02		-48.002		3.192e-03		7.867
5		0.00		-1.20		1.566e-02		-49.886		3.043e-03		10.431
5		0.00		-1.60		1.508e-02		-51.060		3.386e-03		9.347
5		0.00		-2.00		1.481e-02		-44.271		2.941e-03		11.003
5		0.00		-2.40		1.487e-02		-47.355		3.279e-03		10.110
5		0.00		-2.80		1.418e-02		-46.047		3.243e-03		9.886
5		0.00		-3.20		1.348e-02		-45.583		3.403e-03		10.596
5		0.00		-3.60		1.307e-02		-48.073		3.161e-03		11.980
5		0.00		-4.00		1.261e-02		-51.184		3.122e-03		11.263
5		0.00		-4.40		1.221e-02		-48.308		3.346e-03		10.223
5		0.00		-4.80		1.120e-02		-45.678		3.199e-03		14.353
5		0.00		-5.20		1.083e-02		-44.906		2.950e-03		15.173
5		0.00		-5.60		9.960e-03		-43.183		2.440e-03		10.712
5		0.00		-6.00		9.146e-03		-49.161		2.239e-03		12.216
5		0.00		-6.40		8.030e-03		-45.392		1.944e-03		15.598
5		0.00		-6.80		6.495e-03		-49.995		1.703e-03		14.901
5		0.00		-7.20		5.195e-03		-41.792		1.523e-03		17.705
5		0.00		-7.60		3.941e-03		-41.204		1.311e-03		23.120
5		0.00		-8.00		2.590e-03		-23.775		1.136e-03		51.447
5		0.00		-8.40		2.032e-03		23.669		7.965e-04		64.266
5		0.00		-8.80		3.571e-03		101.358		1.396e-03		28.564
5		0.00		-9.20		5.015e-03		115.222		1.448e-03		22.394
5		0.00		-9.60		6.697e-03		116.041		1.837e-03		19.024
5		0.00		-10.00		8.978e-03		126.400		2.287e-03		17.463
5		0.00		-9.60		1.046e-02		125.038		2.742e-03		16.124
5		0.00		-9.20		1.033e-02		121.274		2.844e-03		17.561
5		0.00		-8.80		1.090e-02		123.184		3.248e-03		16.224
5		0.00		-8.40		1.117e-02		124.253		3.334e-03		11.288
5		0.00		-8.00		1.098e-02		123.776		3.256e-03		10.547
5		0.00		-7.60		1.071e-02		122.689		2.859e-03		11.683
5		0.00		-7.20		1.043e-02		120.842		2.658e-03		10.578
5		0.00		-6.80		1.061e-02		121.698		2.449e-03		10.902
5		0.00		-6.40		1.002e-02		123.130		2.405e-03		11.425
5		0.00		-6.00		9.916e-03		123.244		2.675e-03		10.655
5		0.00		-5.60		9.844e-03		124.345		2.282e-03		13.457
5		0.00		-5.20		9.611e-03		122.385		2.523e-03		11.020
5		0.00		-4.80		9.489e-03		124.187		2.104e-03		13.271
5		0.00		-4.40		9.405e-03		123.807		2.382e-03		15.178
5		0.00		-4.00		9.034e-03		124.147		2.190e-03		13.468
5		0.00		-3.60		9.017e-03		122.059		2.198e-03		15.739
5		0.00		-3.20		9.025e-03		121.668		2.320e-03		15.838
5		0.00		-2.80		9.083e-03		119.829		2.789e-03		18.785
5		0.00		-2.40		8.727e-03		120.446		2.265e-03		15.970
5		0.00		-2.00		8.382e-03		120.759		2.514e-03		12.215
5		0.00		-1.60		8.486e-03		123.836		2.281e-03		11.298
5		0.00		-1.20		8.568e-03		123.579		2.221e-03		11.625
5		0.00		-0.80		8.495e-03		123.846		2.105e-03		12.902
5		0.00		-0.40		8.074e-03		125.134		2.096e-03		11.820
6		0.00		0.00		8.382e-03		127.128		2.088e-03		13.446
6		0.00		0.40		8.414e-03		127.192		1.900e-03		11.257
6		0.00		0.80		8.153e-03		126.444		1.775e-03		13.653
6		0.00		1.20		7.445e-03		126.202		1.900e-03		11.405
6		0.00		1.60		7.096e-03		121.783		1.911e-03		14.895
6		0.00		2.00		6.822e-03		123.306		1.858e-03		16.765
6		0.00		2.40		6.251e-03		117.772		1.882e-03		19.000
6		0.00		2.80		5.542e-03		118.622		1.724e-03		24.313
6		0.00		3.20		4.961e-03		117.594		1.398e-03		25.232
6		0.00		3.60		4.057e-03		114.871		1.392e-03		27.336
6		0.00		4.00		3.358e-03		105.365		1.131e-03		34.888
6		0.00		4.40		2.727e-03		93.259		1.028e-03		53.864
6		0.00		4.80		2.017e-03		59.090		9.977e-04		70.932
6		0.00		5.20		1.877e-03		15.123		8.714e-04		78.492
6		0.00		5.60		1.652e-03		-12.160		7.530e-04		71.876
6		0.00		6.00		2.469e-03		-45.455		1.056e-03		45.454
6		0.00		6.40		3.251e-03		-53.711		1.235e-03		27.091
6		0.00		6.80		4.106e-03		-46.053		1.382e-03		22.090
6		0.00		7.20		5.539e-03		-38.181		1.577e-03		18.853
6		0.00		7.60		5.971e-03		-53.343		1.597e-03		17.822
6		0.00		8.00		7.043e-03		-51.555		1.914e-03		16.611
6		0.00		8.40		8.296e-03		-49.728		2.251e-03		14.815
6		0.00		8.80		9.129e-03		-46.440		2.559e-03		14.191
6		0.00		9.20		1.046e-02		-51.371		2.946e-03		14.660
6		0.00		9.60		1.177e-02		-46.822		3.287e-03		13.911
6		0.00		10.00		1.414e-02		-50.668		3.928e-03		12.593
6		0.00		9.60		1.475e-02		-50.845		3.876e-03		10.841
6		0.00		9.20		1.566e-02		-48.264		3.905e-03		9.170
6		0.00		8.80		1.639e-02		-52.934		3.931e-03		11.279
6		0.00		8.40		1.670e-02		-52.782		3.863e-03		10.710
6		0.00		8.00		1.673e-02		-50.183		3.829e-03		9.220
6		0.00		7.60		1.678e-02		-50.268		3.421e-03		8.779
6		0.00		7.20		1.670e-02		-53.064		3.280e-03		8.383
6		0.00		6.80		1.715e-02		-49.414		3.160e-03		7.371
6		0.00		6.40		1.696e-02		-48.886		3.260e-03		8.161
6		0.00		6.00		1.639e-02		-50.203		3.261e-03		10.709
6		0.00		5.60		1.641e-02		-52.040		3.334e-03		8.525
6		0.00		5.20		1.663e-02		-50.563		3.225e-03		8.633
6		0.00		4.80		1.597e-02		-49.028		3.555e-03		9.445
6		0.00		4.40		1.596e-02		-46.925		3.233e-03		9.405
6		0.00		4.00		1.572e-02		-47.992		3.331e-03		10.856
6		0.00		3.60		1.532e-02		-49.358		3.394e-03		9.475
6		0.00		3.20		1.537e-02		-45.674		3.600e-03		9.384
6		0.00		2.80		1.535e-02		-49.640		3.550e-03		10.498
6		0.00		2.40		1.503e-02		-48.828		3.600e-03		11.317
6		0.00		2.00		1.502e-02		-47.181		3.843e-03		10.659
6		0.00		1.60		1.511e-02		-49.567		4.025e-03		12.834
6		0.00		1.20		1.482e-02		-45.621		3.721e-03		11.921
6		0.00		0.80		1.480e-02		-48.617		3.929e-03		11.518
6		0.00		0.40		1.487e-02		-47.191		3.534e-03		10.540
6		0.00		0.00		1.455e-02		-48.394		3.644e-03		12.520
6		0.00		-0.40		1.467e-02		-48.339		3.726e-03		8.307
6		0.00		-0.80		1.439e-02		-48.784		3.519e-03		9.549
6		0.00		-1.20		1.445e-02		-47.692		3.480e-03		10.150
6		0.00		-1.60		1.397e-02		-50.891		3.193e-03		9.019
6		0.00		-2.00		1.377e-02		-49.152		3.181e-03		10.052
6		0.00		-2.40		1.378e-02		-49.185		3.044e-03		10.279
6		0.00		-2.80		1.348e-02		-48.174		3.184e-03		9.481
6		0.00		-3.20		1.278e-02		-44.268		2.811e-03		9.909
6		0.00		-3.60		1.248e-02		-44.719		2.747e-03		9.444
6		0.00		-4.00		1.221e-02		-52.722		2.885e-03		11.396
6		0.00		-4.40		1.157e-02		-52.274		2.612e-03		10.764
6		0.00		-4.80		1.113e-02		-51.731		2.404e-03		11.658
6		0.00		-5.20		1.036e-02		-46.685		2.022e-03		11.831
6		0.00		-5.60		9.562e-03		-44.444		2.136e-03		12.660
6		0.00		-6.00		8.728e-03		-48.695		1.878e-03		14.463
6		0.00		-6.40		7.334e-03		-46.587		1.580e-03		14.773
6		0.00		-6.80		6.173e-03		-50.478		1.537e-03		16.602
6		0.00		-7.20		4.805e-03		-39.334		1.477e-03		18.903
6		0.00		-7.60		3.118e-03		-41.964		1.147e-03		31.767
6		0.00		-8.00		2.610e-03		-29.417		1.103e-03		40.914
6		0.00		-8.40		1.588e-03		6.547		6.149e-04		73.877
6		0.00		-8.80		3.850e-03		109.417		1.159e-03		22.723
6		0.00		-9.20		5.490e-03		120.411		1.574e-03		17.609
6		0.00		-9.60		7.309e-03		123.434		1.828e-03		19.203
6		0.00		-10.00		9.420e-03		120.227		2.481e-03		16.535
6		0.00		-9.60		1.053e-02		125.174		2.753e-03		17.164
6		0.00		-9.20		1.103e-02		124.802		2.989e-03		18.935
6		0.00		-8.80		1.091e-02		120.362		3.251e-03		19.729
6		0.00		-8.40		1.084e-02		122.022		3.243e-03		16.056
6		0.00		-8.00		1.064e-02		120.465		3.171e-03		14.900
6		0.00		-7.60		1.101e-02		122.855		3.272e-03		12.644
6		0.00		-7.20		1.098e-02		121.069		3.201e-03		10.053
6		0.00		-6.80		1.040e-02		126.253		2.869e-03		11.585
6		0.00		-6.40		1.042e-02		123.128		2.495e-03		9.736
6		0.00		-6.00		1.014e-02		123.942		2.532e-03		11.777
6		0.00		-5.60		1.030e-02		125.095		2.619e-03		10.509
6		0.00		-5.20		1.034e-02		124.632		2.119e-03		9.829
6		0.00		-4.80		1.007e-02		127.227		2.270e-03		11.698
6		0.00		-4.40		9.722e-03		126.573		2.153e-03		12.004
6		0.00		-4.00		9.519e-03		124.226		2.168e-03		13.967
6		0.00		-3.60		9.220e-03		126.656		2.173e-03		11.224
6		0.00		-3.20		8.868e-03		121.950		2.345e-03		15.837
6		0.00		-2.80		8.628e-03		119.253		2.500e-03		18.991
6		0.00		-2.40		8.685e-03		116.188		2.315e-03		19.103
6		0.00		-2.00		8.691e-03		121.610		2.248e-03		18.463
6		0.00		-1.60		8.479e-03		118.591		2.403e-03		19.324
6		0.00		-1.20		8.600e-03		123.423		2.466e-03		13.540
6		0.00		-0.80		8.020e-03		123.078		2.167e-03		11.792
6		0.00		-0.40		8.034e-03		121.724		2.170e-03		18.034
7		0.00		0.00		8.132e-03		123.749		2.184e-03		14.702
7		0.00		0.40		7.886e-03		125.782		2.155e-03		12.157
7		0.00		0.80		7.911e-03		124.387		2.014e-03		12.993
7		0.00		1.20		7.535e-03		120.047		1.970e-03		12.401
7		0.00		1.60		7.133e-03		124.277		1.926e-03		13.911
7		0.00		2.00		6.623e-03		116.925		1.822e-03		15.884
7		0.00		2.40		6.006e-03		121.806		1.638e-03		18.923
7		0.00		2.80		5.235e-03		122.903		1.496e-03		18.427
7		0.00		3.20		4.755e-03		120.523		1.513e-03		25.239
7		0.00		3.60		3.614e-03		111.691		1.213e-03		44.904
7		0.00		4.00		3.565e-03		104.831		1.444e-03		47.014
7		0.00		4.40		2.706e-03		79.531		1.174e-03		57.179
7		0.00		4.80		1.932e-03		38.455		9.105e-04		79.675
7		0.00		5.20		1.911e-03		-1.624		8.244e-04		82.242
7		0.00		5.60		1.702e-03		-17.463		7.004e-04		64.302
7		0.00		6.00		2.170e-03		-37.512		8.868e-04		52.746
7		0.00		6.40		2.982e-03		-59.398		1.202e-03		33.511
7		0.00		6.80		3.315e-03		-57.321		1.355e-03		33.505
7		0.00		7.20		4.189e-03		-45.745		1.374e-03		20.403
7		0.00		7.60		5.400e-03		-48.840		1.492e-03		20.939
7		0.00		8.00		6.363e-03		-42.951		1.605e-03		19.506
7		0.00		8.40		7.359e-03		-45.477		1.834e-03		15.406
7		0.00		8.80		8.936e-03		-49.149		2.125e-03		12.100
7		0.00		9.20		1.026e-02		-52.610		2.289e-03		11.281
7		0.00		9.60		1.145e-02		-48.717		2.726e-03		11.839
7		0.00		10.00		1.283e-02		-51.048		3.422e-03		12.795
7		0.00		9.60		1.479e-02		-52.175		3.498e-03		11.126
7		0.00		9.20		1.531e-02		-48.522		3.408e-03		13.337
7		0.00		8.80		1.538e-02		-49.208		3.926e-03		12.559
7		0.00		8.40		1.564e-02		-49.411		4.049e-03		12.475
7		0.00		8.00		1.545e-02		-49.371		3.750e-03		10.857
7		0.00		7.60		1.581e-02		-51.305		3.787e-03		8.899
7		0.00		7.20		1.553e-02		-48.292		3.554e-03		9.164
7		0.00		6.80		1.570e-02		-49.039		3.519e-03		7.836
7		0.00		6.40		1.551e-02		-50.404		3.344e-03		9.614
7		0.00		6.00		1.537e-02		-49.307		2.919e-03		9.933
7		0.00		5.60		1.534e-02		-49.284		3.144e-03		10.356
7		0.00		5.20		1.507e-02		-50.015		3.276e-03		10.296
7		0.00		4.80		1.490e-02		-47.386		3.335e-03		11.227
7		0.00		4.40		1.433e-02		-48.785		3.630e-03		12.718
7		0.00		4.00		1.464e-02		-47.312		3.319e-03		9.406
7		0.00		3.60		1.423e-02		-48.073		3.956e-03		13.328
7		0.00		3.20		1.407e-02		-47.976		3.895e-03		13.469
7		0.00		2.80		1.393e-02		-47.887		4.120e-03		12.674
7		0.00		2.40		1.385e-02		-48.364		4.002e-03		11.520
7		0.00		2.00		1.372e-02		-47.352		3.847e-03		10.805
7		0.00		1.60		1.427e-02		-49.240		3.793e-03		11.653
7		0.00		1.20		1.421e-02		-47.166		3.272e-03		11.423
7		0.00		0.80		1.431e-02		-49.594		2.978e-03		7.977
7		0.00		0.40		1.437e-02		-50.043		3.007e-03		10.313
7		0.00		0.00		1.393e-02		-48.948		2.708e-03		11.129
7		0.00		-0.40		1.386e-02		-49.247		2.668e-03		9.252
7		0.00		-0.80		1.382e-02		-47.521		2.765e-03		9.269
7		0.00		-1.20		1.381e-02		-46.657		2.612e-03		11.009
7		0.00		-1.60		1.364e-02		-46.254		2.842e-03		10.655
7		0.00		-2.00		1.336e-02		-48.519		3.052e-03		11.321
7		0.00		-2.40		1.311e-02		-45.944		2.875e-03		10.474
7		0.00		-2.80		1.228e-02		-46.660		3.195e-03		12.741
7		0.00		-3.20		1.164e-02		-47.960		3.180e-03		13.606
7		0.00		-3.60		1.117e-02		-48.259		3.090e-03		11.979
7		0.00		-4.00		1.131e-02		-49.305		3.126e-03		12.140
7		0.00		-4.40		1.041e-02		-45.898		2.674e-03		10.361
7		0.00		-4.80		1.028e-02		-50.421		2.436e-03		12.505
7		0.00		-5.20		9.403e-03		-48.173		2.048e-03		11.611
7		0.00		-5.60		9.171e-03		-42.880		2.001e-03		12.716
7		0.00		-6.00		8.280e-03		-48.896		1.862e-03		13.648
7		0.00		-6.40		7.117e-03		-40.368		1.724e-03		13.721
7		0.00		-6.80		6.125e-03		-41.665		1.515e-03		18.116
7		0.00		-7.20		5.074e-03		-41.444		1.452e-03		16.567
7		0.00		-7.60		3.802e-03		-40.463		1.315e-03		29.446
7		0.00		-8.00		2.290e-03		-30.737		9.855e-04		42.909
7		0.00		-8.40		1.928e-03		38.194		7.331e-04		62.040
7		0.00		-8.80		3.235e-03		91.885		1.235e-03		45.470
7		0.00		-9.20		4.588e-03		118.690		1.365e-03		30.052
7		0.00		-9.60		6.529e-03		117.986		1.780e-03		13.640
7		0.00		-10.00		8.290e-03		121.221		2.053e-03		11.442
7		0.00		-9.60		9.187e-03		122.732		2.343e-03		10.748
7		0.00		-9.20		9.825e-03		122.080		2.495e-03		9.926
7		0.00		-8.80		9.714e-03		123.636		2.395e-03		10.451
7		0.00		-8.40		9.581e-03		123.941		2.222e-03		9.450
7		0.00		-8.00		9.884e-03		123.184		2.252e-03		13.149
7		0.00		-7.60		9.482e-03		123.844		2.402e-03		11.923
7		0.00		-7.20		9.806e-03		124.353		2.550e-03		13.770
7		0.00		-6.80		9.559e-03		123.627		2.836e-03		13.138
7		0.00		-6.40		9.584e-03		122.986		2.590e-03		15.480
7		0.00		-6.00		9.315e-03		125.904		2.683e-03		20.638
7		0.00		-5.60		9.026e-03		118.880		2.466e-03		19.214
7		0.00		-5.20		8.719e-03		124.409		2.334e-03		20.043
7		0.00		-4.80		8.640e-03		126.177		2.170e-03		12.463
7		0.00		-4.40		8.636e-03		120.878		2.119e-03		12.029
7		0.00		-4.00		8.883e-03		125.422		2.060e-03		11.315
7		0.00		-3.60		8.481e-03		127.306		1.921e-03		13.566
7		0.00		-3.20		8.564e-03		123.768		1.895e-03		11.783
7		0.00		-2.80		8.200e-03		123.630		1.838e-03		12.067
7		0.00		-2.40		8.280e-03		119.339		1.995e-03		14.267
7		0.00		-2.00		8.067e-03		121.708		2.066e-03		15.178
7		0.00		-1.60		8.170e-03		123.568		1.877e-03		16.123
7		0.00		-1.20		7.666e-03		120.292		1.988e-03		13.897
7		0.00		-0.80		7.578e-03		123.144		2.092e-03		15.951
7		0.00		-0.40		7.593e-03		121.223		2.010e-03		17.918
8		0.00		0.00		7.679e-03		119.529		2.137e-03		19.800
8		0.00		0.40		7.262e-03		122.719		2.063e-03		17.971
8		0.00		0.80		7.264e-03		123.932		2.140e-03		16.032
8		0.00		1.20		6.698e-03		121.252		1.917e-03		15.242
8		0.00		1.60		6.432e-03		123.125		1.893e-03		17.313
8		0.00		2.00		5.921e-03		121.601		1.784e-03		15.737
8		0.00		2.40		5.624e-03		117.804		1.634e-03		15.400
8		0.00		2.80		4.813e-03		121.603		1.506e-03		28.094
8		0.00		3.20		4.318e-03		119.075		1.457e-03		20.710
8		0.00		3.60		3.521e-03		114.622		1.168e-03		24.868
8		0.00		4.00		2.949e-03		112.663		1.087e-03		33.530
8		0.00		4.40		2.186e-03		78.185		8.790e-04		65.229
8		0.00		4.80		1.764e-03		27.121		6.764e-04		80.529
8		0.00		5.20		1.647e-03		4.466		6.920e-04		74.082
8		0.00		5.60		1.947e-03		-27.114		8.422e-04		50.821
8		0.00		6.00		2.521e-03		-39.917		8.960e-04		39.987
8		0.00		6.40		3.588e-03		-48.438		1.185e-03		31.319
8		0.00		6.80		3.534e-03		-26.631		1.239e-03		29.589
8		0.00		7.20		4.899e-03		-44.766		1.405e-03		19.281
8		0.00		7.60		5.677e-03		-50.932		1.720e-03		18.259
8		0.00		8.00		6.824e-03		-51.511		2.179e-03		13.712
8		0.00		8.40		8.101e-03		-43.524		1.800e-03		12.960
8		0.00		8.80		9.422e-03		-50.148		1.949e-03		10.882
8		0.00		9.20		1.087e-02		-49.856		2.520e-03		10.872
8		0.00		9.60		1.207e-02		-49.258		2.749e-03		11.703
8		0.00		10.00		1.349e-02		-50.923		3.079e-03		10.426
8		0.00		9.60		1.429e-02		-48.937		3.111e-03		12.468
8		0.00		9.20		1.451e-02		-47.269		3.381e-03		11.441
8		0.00		8.80		1.571e-02		-49.112		3.735e-03		12.592
8		0.00		8.40		1.581e-02		-48.795		3.831e-03		12.665
8		0.00		8.00		1.559e-02		-51.324		3.891e-03		12.852
8		0.00		7.60		1.575e-02		-48.262		4.099e-03		11.356
8		0.00		7.20		1.575e-02		-47.926		3.924e-03		9.814
8		0.00		6.80		1.586e-02		-48.864		3.878e-03		9.583
8		0.00		6.40		1.589e-02		-53.986		3.701e-03		9.519
8		0.00		6.00		1.578e-02		-49.175		3.616e-03		9.342
8		0.00		5.60		1.570e-02		-48.863		3.329e-03		8.604
8		0.00		5.20		1.568e-02		-50.415		3.013e-03		10.077
8		0.00		4.80		1.523e-02		-48.396		3.005e-03		9.985
8		0.00		4.40		1.495e-02		-48.980		3.129e-03		10.582
8		0.00		4.00		1.514e-02		-49.438		3.165e-03		9.872
8		0.00		3.60		1.482e-02		-47.050		3.494e-03		12.001
8		0.00		3.20		1.445e-02		-49.632		3.386e-03		11.660
8		0.00		2.80		1.433e-02		-48.110		3.548e-03		11.295
8		0.00		2.40		1.427e-02		-47.930		3.803e-03		12.409
8		0.00		2.00		1.414e-02		-48.592		3.754e-03		14.098
8		0.00		1.60		1.412e-02		-48.016		3.526e-03		10.133
8		0.00		1.20		1.419e-02		-48.072		3.264e-03		10.783
8		0.00		0.80		1.409e-02		-48.875		3.391e-03		9.607
8		0.00		0.40		1.414e-02		-47.622		3.278e-03		9.371
8		0.00		0.00		1.434e-02		-49.658		2.936e-03		10.100
8		0.00		-0.40		1.409e-02		-50.819		2.904e-03		9.558
8		0.00		-0.80		1.395e-02		-47.815		2.598e-03		10.540
8		0.00		-1.20		1.419e-02		-47.253		2.917e-03		9.273
8		0.00		-1.60		1.384e-02		-48.642		2.707e-03		9.251
8		0.00		-2.00		1.344e-02		-50.306		2.959e-03		11.078
8		0.00		-2.40		1.282e-02		-49.517		3.041e-03		13.058
8		0.00		-2.80		1.244e-02		-45.569		3.030e-03		11.834
8		0.00		-3.20		1.174e-02		-46.173		3.140e-03		13.429
8		0.00		-3.60		1.191e-02		-46.931		3.308e-03		12.850
8		0.00		-4.00		1.114e-02		-43.937		3.117e-03		12.409
8		0.00		-4.40		1.078e-02		-46.683		3.187e-03		13.939
8		0.00		-4.80		1.014e-02		-41.830		2.820e-03		12.430
8		0.00		-5.20		9.497e-03		-42.908		2.775e-03		14.270
8		0.00		-5.60		8.915e-03		-44.042		2.595e-03		19.050
8		0.00		-6.00		7.796e-03		-44.851		2.267e-03		17.888
8		0.00		-6.40		7.105e-03		-49.399		2.101e-03		14.490
8		0.00		-6.80		6.466e-03		-49.709		1.818e-03		16.478
8		0.00		-7.20		5.142e-03		-37.085		1.645e-03		18.935
8		0.00		-7.60		3.316e-03		-27.709		1.298e-03		31.333
8		0.00		-8.00		2.294e-03		5.993		8.629e-04		45.879
8		0.00		-8.40		1.755e-03		23.233		7.284e-04		59.098
8		0.00		-8.80		2.432e-03		79.041		1.118e-03		42.261
8		0.00		-9.20		3.761e-03		112.642		1.307e-03		20.942
8		0.00		-9.60		6.014e-03		126.009		1.667e-03		15.344
8		0.00		-10.00		9.113e-03		120.712		2.285e-03		10.041
8		0.00		-9.60		9.505e-03		125.228		2.307e-03		11.749
8		0.00		-9.20		1.125e-02		123.253		2.694e-03		11.174
8		0.00		-8.80		1.123e-02		126.792		2.386e-03		10.483
8		0.00		-8.40		1.118e-02		125.817		2.706e-03		9.113
8		0.00		-8.00		1.121e-02		124.133		2.488e-03		9.142
8		0.00		-7.60		1.080e-02		120.522		2.400e-03		9.310
8		0.00		-7.20		1.048e-02		128.985		2.410e-03		9.119
8		0.00		-6.80		1.104e-02		122.636		2.478e-03		8.615
8		0.00		-6.40		1.024e-02		125.360		2.438e-03		12.627
8		0.00		-6.00		1.023e-02		126.033		2.278e-03		10.621
8		0.00		-5.60		1.006e-02		123.509		2.266e-03		13.020
8		0.00		-5.20		9.344e-03		121.944		2.336e-03		11.394
8		0.00		-4.80		9.441e-03		126.600		2.255e-03		13.374
8		0.00		-4.40		9.188e-03		122.223		2.295e-03		12.230
8		0.00		-4.00		8.866e-03		123.431		2.222e-03		13.648
8		0.00		-3.60		8.920e-03		127.331		2.370e-03		14.057
8		0.00		-3.20		8.804e-03		126.403		2.512e-03		16.732
8		0.00		-2.80		8.516e-03		120.740		2.190e-03		15.704
8		0.00		-2.40		8.650e-03		127.018		2.115e-03		15.253
8		0.00		-2.00		8.666e-03		125.096		2.431e-03		15.129
8		0.00		-1.60		8.396e-03		120.928		2.430e-03		18.835
8		0.00		-1.20		7.785e-03		120.575		2.394e-03		23.534
8		0.00		-0.80		7.698e-03		122.614		2.231e-03		19.397
8		0.00		-0.40		7.903e-03		120.060		2.282e-03		23.466
