# Date of analysis: 2023-11-20 16;19
# 
# Loop index	Read Volt (V)	Write Volt (V)	Amplitude (a.u)	Phase (deg)	Sigma Amp (a.u)	Sigma Pha (deg)	
1		0.00		0.00		2.585e-02		-53.352		5.332e-03		9.969
1		0.00		0.40		2.505e-02		-53.189		4.732e-03		11.146
1		0.00		0.80		2.377e-02		-53.272		4.291e-03		14.472
1		0.00		1.20		2.315e-02		-56.247		4.939e-03		14.886
1		0.00		1.60		2.235e-02		-52.851		5.439e-03		16.522
1		0.00		2.00		2.159e-02		-55.134		5.491e-03		16.647
1		0.00		2.40		2.201e-02		-55.334		5.640e-03		16.200
1		0.00		2.80		2.154e-02		-55.294		5.728e-03		17.198
1		0.00		3.20		2.161e-02		-52.516		6.096e-03		18.089
1		0.00		3.60		2.214e-02		-52.188		6.218e-03		17.225
1		0.00		4.00		2.155e-02		-53.888		6.568e-03		21.863
1		0.00		4.40		2.167e-02		-51.208		6.325e-03		22.413
1		0.00		4.80		2.256e-02		-49.625		7.015e-03		25.162
1		0.00		5.20		2.294e-02		-50.317		6.617e-03		20.532
1		0.00		5.60		2.414e-02		-47.052		7.049e-03		24.279
1		0.00		6.00		2.600e-02		-46.959		7.858e-03		16.168
1		0.00		6.40		2.742e-02		-50.572		7.829e-03		15.579
1		0.00		6.80		2.990e-02		-49.695		8.569e-03		12.391
1		0.00		7.20		3.172e-02		-50.778		8.706e-03		12.741
1		0.00		7.60		3.542e-02		-49.909		9.867e-03		11.952
1		0.00		8.00		3.703e-02		-51.373		9.667e-03		12.857
1		0.00		8.40		4.017e-02		-51.216		1.031e-02		11.034
1		0.00		8.80		4.179e-02		-51.270		1.045e-02		10.958
1		0.00		9.20		4.343e-02		-50.629		1.078e-02		10.884
1		0.00		9.60		4.327e-02		-49.992		1.071e-02		11.248
1		0.00		10.00		4.459e-02		-52.508		1.079e-02		11.958
1		0.00		9.60		4.311e-02		-52.617		1.086e-02		13.000
1		0.00		9.20		4.249e-02		-53.813		1.006e-02		12.470
1		0.00		8.80		4.089e-02		-53.307		1.055e-02		13.447
1		0.00		8.40		3.983e-02		-53.571		9.976e-03		13.093
1		0.00		8.00		3.778e-02		-52.348		9.544e-03		14.538
1		0.00		7.60		3.483e-02		-51.276		8.976e-03		15.048
1		0.00		7.20		3.399e-02		-51.100		8.658e-03		14.210
1		0.00		6.80		3.379e-02		-51.359		8.289e-03		13.885
1		0.00		6.40		3.251e-02		-51.898		7.764e-03		13.517
1		0.00		6.00		3.162e-02		-50.490		7.951e-03		14.725
1		0.00		5.60		3.106e-02		-52.058		7.775e-03		14.630
1		0.00		5.20		2.977e-02		-51.547		7.989e-03		18.104
1		0.00		4.80		2.949e-02		-51.158		7.743e-03		18.314
1		0.00		4.40		2.910e-02		-50.219		8.211e-03		15.735
1		0.00		4.00		2.865e-02		-50.146		8.111e-03		15.413
1		0.00		3.60		2.807e-02		-44.199		8.165e-03		17.855
1		0.00		3.20		2.750e-02		-48.956		8.181e-03		13.502
1		0.00		2.80		2.753e-02		-49.008		8.624e-03		12.447
1		0.00		2.40		2.674e-02		-49.796		7.950e-03		9.694
1		0.00		2.00		2.659e-02		-49.808		7.588e-03		9.144
1		0.00		1.60		2.634e-02		-49.570		7.196e-03		10.048
1		0.00		1.20		2.588e-02		-50.529		6.785e-03		9.116
1		0.00		0.80		2.517e-02		-51.276		6.045e-03		10.137
1		0.00		0.40		2.502e-02		-50.749		5.634e-03		10.549
1		0.00		0.00		2.402e-02		-50.037		5.167e-03		10.137
1		0.00		-0.40		2.309e-02		-52.021		4.917e-03		10.617
1		0.00		-0.80		2.167e-02		-53.663		4.240e-03		10.002
1		0.00		-1.20		1.945e-02		-52.551		3.563e-03		10.588
1		0.00		-1.60		1.680e-02		-52.505		3.520e-03		13.107
1		0.00		-2.00		1.470e-02		-52.359		3.382e-03		12.255
1		0.00		-2.40		1.204e-02		-48.320		3.692e-03		14.381
1		0.00		-2.80		9.782e-03		-51.899		3.697e-03		15.019
1		0.00		-3.20		7.248e-03		-43.257		3.593e-03		27.219
1		0.00		-3.60		4.821e-03		-31.271		2.980e-03		46.281
1		0.00		-4.00		4.341e-03		12.222		2.652e-03		66.664
1		0.00		-4.40		4.137e-03		46.629		1.628e-03		65.525
1		0.00		-4.80		5.975e-03		83.159		2.627e-03		52.942
1		0.00		-5.20		6.941e-03		97.885		3.103e-03		46.161
1		0.00		-5.60		9.227e-03		113.250		4.045e-03		26.303
1		0.00		-6.00		1.176e-02		117.951		4.717e-03		18.333
1		0.00		-6.40		1.295e-02		123.906		4.647e-03		16.155
1		0.00		-6.80		1.598e-02		123.489		5.385e-03		13.341
1		0.00		-7.20		1.756e-02		123.850		5.336e-03		11.108
1		0.00		-7.60		2.035e-02		124.041		5.732e-03		11.802
1		0.00		-8.00		1.990e-02		126.388		5.838e-03		11.065
1		0.00		-8.40		2.147e-02		125.315		5.619e-03		11.419
1		0.00		-8.80		2.308e-02		124.920		6.081e-03		11.743
1		0.00		-9.20		2.302e-02		123.425		5.651e-03		11.858
1		0.00		-9.60		2.378e-02		125.262		5.870e-03		10.886
1		0.00		-10.00		2.554e-02		126.461		6.368e-03		11.922
1		0.00		-9.60		2.733e-02		127.844		7.113e-03		11.446
1		0.00		-9.20		2.381e-02		126.222		5.916e-03		10.416
1		0.00		-8.80		2.522e-02		127.498		6.274e-03		10.862
1		0.00		-8.40		2.330e-02		126.472		5.691e-03		10.550
1		0.00		-8.00		2.417e-02		126.533		6.179e-03		10.882
1		0.00		-7.60		2.279e-02		125.366		6.044e-03		12.575
1		0.00		-7.20		2.285e-02		127.124		5.735e-03		11.168
1		0.00		-6.80		2.131e-02		126.671		5.558e-03		13.379
1		0.00		-6.40		2.174e-02		126.601		5.979e-03		12.096
1		0.00		-6.00		2.015e-02		123.779		5.542e-03		12.169
1		0.00		-5.60		2.001e-02		126.072		5.750e-03		10.998
1		0.00		-5.20		1.842e-02		123.729		5.024e-03		14.112
1		0.00		-4.80		1.793e-02		126.391		5.072e-03		13.671
1		0.00		-4.40		1.723e-02		125.126		4.586e-03		12.259
1		0.00		-4.00		1.657e-02		127.688		4.436e-03		12.047
1		0.00		-3.60		1.649e-02		126.035		4.093e-03		12.734
1		0.00		-3.20		1.626e-02		126.727		3.857e-03		11.382
1		0.00		-2.80		1.556e-02		127.396		3.505e-03		10.218
1		0.00		-2.40		1.497e-02		127.111		3.499e-03		11.850
1		0.00		-2.00		1.478e-02		126.753		3.473e-03		11.194
1		0.00		-1.60		1.348e-02		124.785		3.309e-03		9.926
1		0.00		-1.20		1.358e-02		128.204		3.144e-03		10.604
1		0.00		-0.80		1.244e-02		125.396		3.017e-03		8.724
1		0.00		-0.40		1.254e-02		128.299		2.661e-03		11.053
2		0.00		0.00		1.166e-02		127.591		2.747e-03		9.316
2		0.00		0.40		1.078e-02		128.082		2.642e-03		11.265
2		0.00		0.80		1.006e-02		124.240		2.431e-03		15.394
2		0.00		1.20		9.651e-03		127.871		2.444e-03		13.388
2		0.00		1.60		8.802e-03		130.122		2.232e-03		13.604
2		0.00		2.00		8.461e-03		128.553		2.074e-03		12.829
2		0.00		2.40		6.473e-03		129.615		1.953e-03		18.562
2		0.00		2.80		5.064e-03		125.691		1.724e-03		32.813
2		0.00		3.20		3.794e-03		90.275		1.399e-03		68.743
2		0.00		3.60		2.320e-03		27.851		8.753e-04		84.312
2		0.00		4.00		2.632e-03		-38.234		1.029e-03		60.315
2		0.00		4.40		3.930e-03		-56.823		1.721e-03		33.456
2		0.00		4.80		5.569e-03		-49.839		2.307e-03		26.827
2		0.00		5.20		8.320e-03		-54.262		2.958e-03		18.392
2		0.00		5.60		1.100e-02		-53.018		3.689e-03		13.497
2		0.00		6.00		1.340e-02		-52.838		4.504e-03		12.666
2		0.00		6.40		1.617e-02		-52.319		5.168e-03		12.255
2		0.00		6.80		1.813e-02		-51.917		5.929e-03		15.899
2		0.00		7.20		2.161e-02		-50.136		7.133e-03		12.539
2		0.00		7.60		2.513e-02		-52.034		8.400e-03		15.457
2		0.00		8.00		2.736e-02		-50.948		9.537e-03		17.832
2		0.00		8.40		3.062e-02		-50.213		1.066e-02		19.059
2		0.00		8.80		3.441e-02		-48.871		1.214e-02		22.109
2		0.00		9.20		3.709e-02		-49.323		1.322e-02		22.894
2		0.00		9.60		4.055e-02		-49.198		1.382e-02		17.708
2		0.00		10.00		4.232e-02		-48.524		1.428e-02		29.143
2		0.00		9.60		4.167e-02		-50.956		1.340e-02		24.347
2		0.00		9.20		4.075e-02		-54.685		1.323e-02		23.087
2		0.00		8.80		4.030e-02		-52.355		1.188e-02		17.924
2		0.00		8.40		3.815e-02		-52.814		1.132e-02		17.332
2		0.00		8.00		3.669e-02		-52.661		1.081e-02		17.304
2		0.00		7.60		3.627e-02		-50.528		9.740e-03		13.611
2		0.00		7.20		3.534e-02		-50.194		8.952e-03		12.547
2		0.00		6.80		3.399e-02		-50.457		8.452e-03		12.640
2		0.00		6.40		3.332e-02		-50.604		8.126e-03		12.427
2		0.00		6.00		3.206e-02		-51.283		7.647e-03		12.267
2		0.00		5.60		3.221e-02		-51.575		7.235e-03		12.359
2		0.00		5.20		3.175e-02		-50.864		6.913e-03		12.053
2		0.00		4.80		3.117e-02		-51.870		6.557e-03		11.182
2		0.00		4.40		3.117e-02		-51.297		6.823e-03		11.426
2		0.00		4.00		3.083e-02		-52.754		6.403e-03		11.171
2		0.00		3.60		3.049e-02		-51.888		6.539e-03		9.965
2		0.00		3.20		3.024e-02		-51.128		6.476e-03		9.582
2		0.00		2.80		3.024e-02		-51.558		6.484e-03		8.809
2		0.00		2.40		2.957e-02		-50.804		6.867e-03		9.187
2		0.00		2.00		2.864e-02		-50.695		6.747e-03		7.878
2		0.00		1.60		2.742e-02		-48.934		6.980e-03		7.767
2		0.00		1.20		2.703e-02		-48.769		7.109e-03		8.279
2		0.00		0.80		2.740e-02		-50.360		6.906e-03		7.142
2		0.00		0.40		2.669e-02		-49.054		7.031e-03		9.262
2		0.00		0.00		2.566e-02		-48.782		6.915e-03		8.891
2		0.00		-0.40		2.498e-02		-51.628		6.597e-03		12.035
2		0.00		-0.80		2.339e-02		-48.688		6.065e-03		12.953
2		0.00		-1.20		2.118e-02		-49.708		5.613e-03		15.562
2		0.00		-1.60		1.809e-02		-48.453		4.949e-03		14.840
2		0.00		-2.00		1.548e-02		-49.903		4.325e-03		16.239
2		0.00		-2.40		1.223e-02		-48.437		3.898e-03		14.782
2		0.00		-2.80		9.283e-03		-48.157		3.448e-03		16.193
2		0.00		-3.20		6.290e-03		-37.353		3.304e-03		26.274
2		0.00		-3.60		4.534e-03		-22.600		2.691e-03		53.649
2		0.00		-4.00		3.809e-03		20.567		1.830e-03		67.749
2		0.00		-4.40		4.424e-03		56.685		1.844e-03		66.591
2		0.00		-4.80		5.973e-03		90.008		2.791e-03		56.766
2		0.00		-5.20		8.213e-03		106.552		3.604e-03		45.998
2		0.00		-5.60		1.047e-02		114.927		4.084e-03		40.323
2		0.00		-6.00		1.226e-02		116.126		4.468e-03		31.583
2		0.00		-6.40		1.505e-02		122.269		5.001e-03		17.335
2		0.00		-6.80		1.685e-02		123.854		4.904e-03		13.165
2		0.00		-7.20		1.929e-02		125.402		5.222e-03		11.770
2		0.00		-7.60		2.230e-02		126.402		5.952e-03		9.162
2		0.00		-8.00		2.546e-02		126.336		6.859e-03		7.954
2		0.00		-8.40		2.404e-02		127.263		6.567e-03		9.764
2		0.00		-8.80		2.543e-02		126.628		6.929e-03		7.697
2		0.00		-9.20		2.677e-02		127.350		7.684e-03		8.083
2		0.00		-9.60		2.675e-02		126.846		7.873e-03		9.322
2		0.00		-10.00		2.844e-02		126.728		8.544e-03		10.739
2		0.00		-9.60		2.749e-02		126.462		8.837e-03		12.079
2		0.00		-9.20		2.666e-02		124.361		8.421e-03		18.576
2		0.00		-8.80		2.857e-02		123.661		9.074e-03		19.594
2		0.00		-8.40		2.560e-02		122.097		7.939e-03		21.542
2		0.00		-8.00		2.709e-02		124.118		7.854e-03		20.332
2		0.00		-7.60		2.527e-02		122.219		7.274e-03		18.873
2		0.00		-7.20		2.418e-02		123.580		6.940e-03		20.373
2		0.00		-6.80		2.452e-02		125.285		6.964e-03		21.007
2		0.00		-6.40		2.219e-02		123.045		6.237e-03		19.983
2		0.00		-6.00		2.217e-02		125.576		5.869e-03		16.086
2		0.00		-5.60		2.093e-02		128.439		4.971e-03		12.578
2		0.00		-5.20		2.094e-02		125.102		5.009e-03		10.678
2		0.00		-4.80		2.017e-02		126.986		4.680e-03		10.644
2		0.00		-4.40		1.957e-02		128.157		4.789e-03		10.589
2		0.00		-4.00		1.833e-02		125.818		4.440e-03		9.310
2		0.00		-3.60		1.808e-02		126.632		4.132e-03		9.663
2		0.00		-3.20		1.753e-02		127.840		3.747e-03		9.481
2		0.00		-2.80		1.668e-02		127.053		3.474e-03		11.068
2		0.00		-2.40		1.581e-02		126.799		3.631e-03		10.279
2		0.00		-2.00		1.533e-02		126.935		3.536e-03		9.829
2		0.00		-1.60		1.457e-02		125.456		3.378e-03		11.097
2		0.00		-1.20		1.398e-02		126.242		3.417e-03		10.770
2		0.00		-0.80		1.316e-02		125.240		3.201e-03		11.619
2		0.00		-0.40		1.292e-02		125.955		3.282e-03		10.453
3		0.00		0.00		1.226e-02		126.863		3.170e-03		11.040
3		0.00		0.40		1.193e-02		127.775		3.152e-03		12.245
3		0.00		0.80		1.092e-02		127.624		3.132e-03		10.588
3		0.00		1.20		1.053e-02		128.919		3.086e-03		10.066
3		0.00		1.60		1.009e-02		128.121		2.856e-03		12.127
3		0.00		2.00		9.080e-03		129.920		2.716e-03		13.514
3		0.00		2.40		8.039e-03		127.772		2.354e-03		17.612
3		0.00		2.80		6.815e-03		124.422		2.139e-03		23.710
3		0.00		3.20		5.610e-03		119.101		1.638e-03		30.416
3		0.00		3.60		3.841e-03		113.096		1.397e-03		50.706
3		0.00		4.00		2.312e-03		25.350		9.986e-04		86.313
3		0.00		4.40		2.297e-03		-37.448		9.249e-04		70.089
3		0.00		4.80		3.979e-03		-48.330		1.445e-03		25.576
3		0.00		5.20		6.326e-03		-47.679		2.300e-03		22.728
3		0.00		5.60		8.594e-03		-60.176		2.641e-03		16.732
3		0.00		6.00		1.149e-02		-50.313		3.656e-03		14.819
3		0.00		6.40		1.381e-02		-52.564		4.141e-03		15.128
3		0.00		6.80		1.716e-02		-51.387		5.123e-03		14.663
3		0.00		7.20		2.078e-02		-53.458		5.581e-03		12.402
3		0.00		7.60		2.311e-02		-53.193		6.370e-03		12.571
3		0.00		8.00		2.683e-02		-52.368		7.295e-03		11.606
3		0.00		8.40		2.967e-02		-52.469		7.955e-03		12.311
3		0.00		8.80		3.268e-02		-51.209		8.416e-03		12.133
3		0.00		9.20		3.603e-02		-51.563		9.152e-03		12.078
3		0.00		9.60		3.852e-02		-51.163		9.335e-03		12.326
3		0.00		10.00		4.178e-02		-51.492		9.932e-03		11.536
3		0.00		9.60		4.198e-02		-51.871		9.828e-03		11.792
3		0.00		9.20		4.198e-02		-51.408		9.503e-03		10.349
3		0.00		8.80		4.189e-02		-51.548		9.895e-03		10.439
3		0.00		8.40		4.058e-02		-50.239		9.437e-03		10.902
3		0.00		8.00		3.994e-02		-50.023		9.070e-03		9.917
3		0.00		7.60		3.919e-02		-50.029		9.064e-03		9.263
3		0.00		7.20		3.780e-02		-50.673		9.202e-03		9.204
3		0.00		6.80		3.615e-02		-50.824		9.382e-03		8.599
3		0.00		6.40		3.586e-02		-49.990		9.667e-03		8.943
3		0.00		6.00		3.497e-02		-50.733		9.455e-03		7.866
3		0.00		5.60		3.396e-02		-50.601		9.967e-03		7.665
3		0.00		5.20		3.347e-02		-49.923		1.020e-02		8.022
3		0.00		4.80		3.250e-02		-50.513		9.993e-03		7.877
3		0.00		4.40		3.122e-02		-50.753		1.008e-02		8.375
3		0.00		4.00		3.121e-02		-51.145		9.871e-03		10.742
3		0.00		3.60		3.026e-02		-50.159		9.682e-03		10.944
3		0.00		3.20		2.997e-02		-50.617		9.047e-03		14.274
3		0.00		2.80		2.998e-02		-50.789		8.456e-03		15.293
3		0.00		2.40		2.935e-02		-48.042		8.248e-03		13.993
3		0.00		2.00		2.920e-02		-50.678		7.610e-03		15.352
3		0.00		1.60		2.867e-02		-51.927		7.699e-03		19.184
3		0.00		1.20		2.826e-02		-51.519		7.635e-03		17.535
3		0.00		0.80		2.817e-02		-51.318		7.307e-03		15.464
3		0.00		0.40		2.813e-02		-51.256		6.913e-03		15.545
3		0.00		0.00		2.783e-02		-50.679		7.076e-03		14.251
3		0.00		-0.40		2.703e-02		-51.880		7.049e-03		12.262
3		0.00		-0.80		2.549e-02		-51.799		6.683e-03		13.562
3		0.00		-1.20		2.359e-02		-51.398		5.796e-03		10.878
3		0.00		-1.60		2.083e-02		-50.068		4.976e-03		10.981
3		0.00		-2.00		1.804e-02		-49.348		4.815e-03		10.257
3		0.00		-2.40		1.553e-02		-53.343		4.205e-03		11.991
3		0.00		-2.80		1.120e-02		-49.270		3.618e-03		14.895
3		0.00		-3.20		8.065e-03		-46.988		3.367e-03		16.722
3		0.00		-3.60		4.755e-03		-36.842		3.001e-03		44.222
3		0.00		-4.00		3.895e-03		34.357		1.754e-03		71.792
3		0.00		-4.40		4.670e-03		70.127		1.952e-03		61.611
3		0.00		-4.80		7.195e-03		103.012		3.046e-03		39.611
3		0.00		-5.20		9.490e-03		113.508		3.826e-03		31.997
3		0.00		-5.60		1.367e-02		124.535		4.654e-03		15.741
3		0.00		-6.00		1.568e-02		126.376		4.508e-03		10.055
3		0.00		-6.40		1.928e-02		125.554		5.047e-03		10.085
3		0.00		-6.80		2.150e-02		125.329		5.571e-03		10.026
3		0.00		-7.20		2.174e-02		126.237		5.473e-03		8.838
3		0.00		-7.60		2.389e-02		125.528		5.648e-03		9.157
3		0.00		-8.00		2.598e-02		125.866		6.410e-03		10.051
3		0.00		-8.40		2.579e-02		125.197		6.548e-03		9.892
3		0.00		-8.80		2.858e-02		126.630		7.543e-03		9.092
3		0.00		-9.20		2.804e-02		125.509		6.904e-03		8.322
3		0.00		-9.60		2.925e-02		125.120		7.525e-03		9.157
3		0.00		-10.00		3.090e-02		125.559		7.893e-03		8.651
3		0.00		-9.60		2.975e-02		125.836		7.588e-03		8.591
3		0.00		-9.20		2.932e-02		125.667		7.732e-03		9.139
3		0.00		-8.80		2.839e-02		125.228		7.350e-03		9.391
3		0.00		-8.40		2.851e-02		125.307		6.960e-03		9.851
3		0.00		-8.00		2.799e-02		124.690		6.503e-03		9.844
3		0.00		-7.60		2.703e-02		126.252		5.992e-03		9.300
3		0.00		-7.20		2.651e-02		126.826		5.856e-03		9.802
3		0.00		-6.80		2.636e-02		126.534		6.228e-03		10.665
3		0.00		-6.40		2.477e-02		126.131		5.856e-03		8.341
3		0.00		-6.00		2.394e-02		127.371		5.614e-03		9.027
3		0.00		-5.60		2.341e-02		127.558		5.244e-03		10.168
3		0.00		-5.20		2.170e-02		125.639		5.163e-03		8.303
3		0.00		-4.80		2.085e-02		127.212		4.717e-03		9.306
3		0.00		-4.40		2.051e-02		127.304		4.539e-03		8.808
3		0.00		-4.00		1.908e-02		126.242		4.773e-03		8.885
3		0.00		-3.60		1.858e-02		126.261		4.393e-03		9.569
3		0.00		-3.20		1.817e-02		125.025		4.463e-03		9.496
3		0.00		-2.80		1.776e-02		124.872		4.190e-03		10.265
3		0.00		-2.40		1.708e-02		125.066		4.170e-03		9.817
3		0.00		-2.00		1.631e-02		126.585		3.940e-03		10.571
3		0.00		-1.60		1.553e-02		126.592		3.831e-03		11.060
3		0.00		-1.20		1.496e-02		123.689		3.558e-03		10.821
3		0.00		-0.80		1.435e-02		124.382		3.728e-03		9.447
3		0.00		-0.40		1.419e-02		124.586		3.587e-03		11.665
4		0.00		0.00		1.329e-02		125.000		2.970e-03		11.262
4		0.00		0.40		1.280e-02		125.949		2.744e-03		10.424
4		0.00		0.80		1.228e-02		128.421		3.088e-03		9.270
4		0.00		1.20		1.216e-02		127.412		2.984e-03		12.580
4		0.00		1.60		1.123e-02		129.254		2.583e-03		11.622
4		0.00		2.00		1.047e-02		125.850		2.391e-03		10.821
4		0.00		2.40		9.474e-03		130.296		2.229e-03		10.647
4		0.00		2.80		8.035e-03		131.163		1.865e-03		10.707
4		0.00		3.20		6.835e-03		131.434		2.005e-03		12.371
4		0.00		3.60		5.484e-03		127.228		1.570e-03		21.893
4		0.00		4.00		3.193e-03		115.706		1.104e-03		32.779
4		0.00		4.40		1.702e-03		-3.491		7.575e-04		83.876
4		0.00		4.80		2.985e-03		-47.762		1.466e-03		38.585
4		0.00		5.20		5.519e-03		-53.077		1.960e-03		23.939
4		0.00		5.60		7.802e-03		-55.913		2.563e-03		18.538
4		0.00		6.00		1.040e-02		-51.330		3.358e-03		16.000
4		0.00		6.40		1.331e-02		-52.603		4.175e-03		19.043
4		0.00		6.80		1.579e-02		-53.058		4.911e-03		17.857
4		0.00		7.20		1.923e-02		-54.493		5.713e-03		18.580
4		0.00		7.60		2.238e-02		-52.509		6.631e-03		21.581
4		0.00		8.00		2.556e-02		-52.194		7.303e-03		20.006
4		0.00		8.40		2.908e-02		-49.883		8.382e-03		15.908
4		0.00		8.80		3.273e-02		-51.816		9.670e-03		16.724
4		0.00		9.20		3.651e-02		-49.088		1.094e-02		11.706
4		0.00		9.60		3.900e-02		-49.313		1.155e-02		10.307
4		0.00		10.00		4.104e-02		-49.623		1.215e-02		10.605
4		0.00		9.60		4.119e-02		-48.796		1.112e-02		9.597
4		0.00		9.20		4.119e-02		-49.784		1.070e-02		8.845
4		0.00		8.80		3.975e-02		-50.017		1.053e-02		8.662
4		0.00		8.40		3.868e-02		-51.326		9.863e-03		9.938
4		0.00		8.00		3.771e-02		-50.729		9.330e-03		10.008
4		0.00		7.60		3.700e-02		-51.231		8.829e-03		10.731
4		0.00		7.20		3.529e-02		-51.147		8.016e-03		10.168
4		0.00		6.80		3.528e-02		-51.127		8.295e-03		9.903
4		0.00		6.40		3.498e-02		-51.304		8.130e-03		10.116
4		0.00		6.00		3.400e-02		-52.186		8.171e-03		9.656
4		0.00		5.60		3.357e-02		-50.703		7.696e-03		9.789
4		0.00		5.20		3.288e-02		-50.314		7.879e-03		10.203
4		0.00		4.80		3.253e-02		-49.578		7.153e-03		9.411
4		0.00		4.40		3.258e-02		-51.219		7.529e-03		11.031
4		0.00		4.00		3.153e-02		-51.321		7.406e-03		13.256
4		0.00		3.60		3.060e-02		-51.216		7.613e-03		14.137
4		0.00		3.20		3.035e-02		-52.002		7.662e-03		15.413
4		0.00		2.80		3.069e-02		-51.248		8.096e-03		15.769
4		0.00		2.40		3.011e-02		-52.228		8.021e-03		14.626
4		0.00		2.00		2.972e-02		-50.656		8.112e-03		11.507
4		0.00		1.60		2.985e-02		-50.812		8.211e-03		8.649
4		0.00		1.20		2.909e-02		-50.562		7.871e-03		8.703
4		0.00		0.80		2.892e-02		-50.518		7.985e-03		7.578
4		0.00		0.40		2.910e-02		-50.105		7.402e-03		6.957
4		0.00		0.00		2.847e-02		-51.246		7.078e-03		6.697
4		0.00		-0.40		2.795e-02		-51.168		6.174e-03		8.016
4		0.00		-0.80		2.723e-02		-51.280		6.131e-03		8.070
4		0.00		-1.20		2.496e-02		-51.554		4.898e-03		8.665
4		0.00		-1.60		2.261e-02		-52.725		4.562e-03		10.257
4		0.00		-2.00		1.876e-02		-52.798		3.881e-03		9.606
4		0.00		-2.40		1.570e-02		-50.833		3.740e-03		12.648
4		0.00		-2.80		1.341e-02		-51.081		3.432e-03		11.536
4		0.00		-3.20		9.769e-03		-52.028		3.242e-03		14.965
4		0.00		-3.60		5.488e-03		-42.936		2.979e-03		42.012
4		0.00		-4.00		4.031e-03		-12.434		2.404e-03		65.642
4		0.00		-4.40		4.210e-03		55.884		1.664e-03		66.594
4		0.00		-4.80		6.424e-03		93.943		2.886e-03		48.018
4		0.00		-5.20		9.325e-03		107.427		3.969e-03		38.859
4		0.00		-5.60		1.275e-02		119.021		4.453e-03		23.144
4		0.00		-6.00		1.548e-02		121.763		4.833e-03		19.861
4		0.00		-6.40		1.808e-02		122.668		5.341e-03		18.845
4		0.00		-6.80		2.047e-02		123.778		6.198e-03		20.682
4		0.00		-7.20		2.186e-02		122.920		6.863e-03		17.743
4		0.00		-7.60		2.422e-02		123.250		7.534e-03		16.866
4		0.00		-8.00		2.687e-02		124.495		8.515e-03		13.627
4		0.00		-8.40		2.697e-02		125.980		8.592e-03		13.017
4		0.00		-8.80		2.960e-02		128.123		9.197e-03		10.692
4		0.00		-9.20		2.887e-02		126.585		8.445e-03		10.065
4		0.00		-9.60		3.014e-02		127.419		8.735e-03		9.602
4		0.00		-10.00		3.192e-02		128.746		9.004e-03		8.787
4		0.00		-9.60		3.056e-02		128.757		8.335e-03		8.323
4		0.00		-9.20		3.159e-02		127.015		8.269e-03		7.448
4		0.00		-8.80		3.045e-02		128.273		7.212e-03		7.909
4		0.00		-8.40		3.057e-02		127.221		7.097e-03		6.895
4		0.00		-8.00		3.029e-02		127.953		6.945e-03		6.531
4		0.00		-7.60		3.026e-02		127.426		7.262e-03		7.655
4		0.00		-7.20		2.832e-02		127.632		6.864e-03		7.164
4		0.00		-6.80		2.717e-02		129.184		6.218e-03		7.901
4		0.00		-6.40		2.613e-02		128.401		5.866e-03		8.243
4		0.00		-6.00		2.483e-02		127.603		5.484e-03		7.216
4		0.00		-5.60		2.438e-02		127.111		5.444e-03		7.027
4		0.00		-5.20		2.328e-02		129.125		5.482e-03		6.987
4		0.00		-4.80		2.181e-02		126.821		4.952e-03		6.901
4		0.00		-4.40		2.127e-02		126.418		4.990e-03		8.005
4		0.00		-4.00		2.022e-02		126.962		4.925e-03		7.466
4		0.00		-3.60		1.974e-02		126.851		4.790e-03		6.804
4		0.00		-3.20		1.830e-02		126.271		4.302e-03		9.942
4		0.00		-2.80		1.768e-02		125.060		4.402e-03		9.149
4		0.00		-2.40		1.739e-02		126.631		4.072e-03		8.993
4		0.00		-2.00		1.652e-02		125.370		3.646e-03		9.024
4		0.00		-1.60		1.623e-02		127.769		3.663e-03		9.373
4		0.00		-1.20		1.532e-02		126.441		3.720e-03		10.023
4		0.00		-0.80		1.486e-02		125.587		3.197e-03		10.561
4		0.00		-0.40		1.411e-02		125.884		3.058e-03		10.427
5		0.00		0.00		1.332e-02		127.611		2.756e-03		9.959
5		0.00		0.40		1.256e-02		126.600		2.763e-03		9.441
5		0.00		0.80		1.242e-02		127.839		2.668e-03		10.688
5		0.00		1.20		1.206e-02		125.961		2.609e-03		11.296
5		0.00		1.60		1.099e-02		129.506		2.852e-03		11.195
5		0.00		2.00		1.036e-02		130.894		2.499e-03		11.237
5		0.00		2.40		9.429e-03		124.629		2.246e-03		11.123
5		0.00		2.80		8.349e-03		127.414		2.191e-03		12.010
5		0.00		3.20		6.908e-03		128.951		2.198e-03		14.972
5		0.00		3.60		5.645e-03		129.563		1.820e-03		19.259
5		0.00		4.00		4.031e-03		109.774		1.522e-03		40.318
5		0.00		4.40		2.436e-03		66.099		9.543e-04		76.302
5		0.00		4.80		2.061e-03		-30.293		8.295e-04		73.555
5		0.00		5.20		4.796e-03		-47.899		1.444e-03		24.313
5		0.00		5.60		7.670e-03		-52.902		2.047e-03		15.748
5		0.00		6.00		9.917e-03		-53.507		2.275e-03		14.467
5		0.00		6.40		1.348e-02		-53.613		2.914e-03		11.433
5		0.00		6.80		1.758e-02		-53.117		3.585e-03		9.536
5		0.00		7.20		1.999e-02		-53.923		3.817e-03		9.966
5		0.00		7.60		2.418e-02		-51.208		4.714e-03		9.644
5		0.00		8.00		2.725e-02		-51.938		5.343e-03		9.186
5		0.00		8.40		3.006e-02		-53.770		5.778e-03		9.048
5		0.00		8.80		3.339e-02		-52.856		6.413e-03		8.553
5		0.00		9.20		3.591e-02		-51.602		7.030e-03		8.824
5		0.00		9.60		3.939e-02		-51.368		7.915e-03		7.525
5		0.00		10.00		4.079e-02		-50.757		8.705e-03		7.872
5		0.00		9.60		4.107e-02		-51.063		9.391e-03		8.082
5		0.00		9.20		4.091e-02		-51.068		9.604e-03		7.975
5		0.00		8.80		4.028e-02		-50.447		9.140e-03		8.083
5		0.00		8.40		3.948e-02		-50.678		9.464e-03		7.375
5		0.00		8.00		3.827e-02		-51.030		9.277e-03		7.335
5		0.00		7.60		3.752e-02		-50.792		9.511e-03		6.837
5		0.00		7.20		3.651e-02		-50.405		8.886e-03		6.480
5		0.00		6.80		3.608e-02		-50.744		9.217e-03		6.141
5		0.00		6.40		3.532e-02		-51.243		8.906e-03		5.913
5		0.00		6.00		3.452e-02		-50.896		8.699e-03		6.327
5		0.00		5.60		3.395e-02		-50.004		8.391e-03		7.445
5		0.00		5.20		3.425e-02		-50.084		8.404e-03		7.344
5		0.00		4.80		3.395e-02		-49.734		8.754e-03		7.311
5		0.00		4.40		3.294e-02		-49.158		8.504e-03		8.099
5		0.00		4.00		3.187e-02		-49.839		8.391e-03		8.538
5		0.00		3.60		3.244e-02		-49.326		8.378e-03		10.290
5		0.00		3.20		3.217e-02		-50.758		8.222e-03		11.438
5		0.00		2.80		3.124e-02		-50.889		7.990e-03		14.221
5		0.00		2.40		3.091e-02		-50.074		8.186e-03		15.543
5		0.00		2.00		3.052e-02		-51.552		7.774e-03		14.663
5		0.00		1.60		3.024e-02		-50.815		7.458e-03		11.982
5		0.00		1.20		2.957e-02		-50.498		7.296e-03		11.907
5		0.00		0.80		2.923e-02		-50.132		7.409e-03		11.751
5		0.00		0.40		2.969e-02		-50.417		7.257e-03		10.266
5		0.00		0.00		2.916e-02		-50.076		6.234e-03		9.433
5		0.00		-0.40		2.846e-02		-48.330		6.041e-03		8.793
5		0.00		-0.80		2.717e-02		-50.956		5.964e-03		8.633
5		0.00		-1.20		2.559e-02		-50.292		5.115e-03		9.758
5		0.00		-1.60		2.376e-02		-50.495		4.406e-03		10.302
5		0.00		-2.00		2.121e-02		-49.332		3.746e-03		9.449
5		0.00		-2.40		1.745e-02		-51.022		3.335e-03		10.198
5		0.00		-2.80		1.471e-02		-49.476		3.268e-03		11.165
5		0.00		-3.20		1.102e-02		-52.299		3.163e-03		12.916
5		0.00		-3.60		6.570e-03		-47.442		3.160e-03		20.192
5		0.00		-4.00		3.823e-03		-14.376		2.135e-03		66.957
5		0.00		-4.40		3.839e-03		61.049		1.501e-03		68.228
5		0.00		-4.80		6.144e-03		101.027		2.717e-03		44.555
5		0.00		-5.20		8.875e-03		116.658		3.498e-03		30.816
5		0.00		-5.60		1.202e-02		122.452		3.872e-03		20.930
5		0.00		-6.00		1.552e-02		128.129		4.625e-03		11.076
5		0.00		-6.40		1.809e-02		124.995		5.233e-03		11.520
5		0.00		-6.80		2.045e-02		125.973		5.574e-03		8.395
5		0.00		-7.20		2.359e-02		125.826		6.586e-03		7.780
5		0.00		-7.60		2.450e-02		129.244		6.724e-03		8.087
5		0.00		-8.00		2.619e-02		128.870		7.506e-03		8.781
5		0.00		-8.40		2.674e-02		127.898		7.676e-03		7.743
5		0.00		-8.80		2.820e-02		126.434		7.836e-03		8.985
5		0.00		-9.20		2.938e-02		127.765		8.295e-03		9.045
5		0.00		-9.60		3.142e-02		127.866		8.200e-03		9.096
5		0.00		-10.00		3.126e-02		128.168		8.761e-03		9.013
5		0.00		-9.60		3.298e-02		126.826		9.242e-03		9.812
5		0.00		-9.20		2.946e-02		126.556		7.896e-03		11.929
5		0.00		-8.80		3.023e-02		126.873		8.320e-03		11.021
5		0.00		-8.40		3.040e-02		126.712		8.099e-03		15.501
5		0.00		-8.00		2.971e-02		124.558		7.865e-03		15.977
5		0.00		-7.60		2.928e-02		125.806		7.638e-03		16.017
5		0.00		-7.20		2.843e-02		125.301		7.509e-03		14.854
5		0.00		-6.80		2.649e-02		125.502		6.700e-03		13.593
5		0.00		-6.40		2.630e-02		127.466		6.713e-03		11.710
5		0.00		-6.00		2.467e-02		128.205		5.614e-03		9.712
5		0.00		-5.60		2.436e-02		125.526		5.132e-03		8.963
5		0.00		-5.20		2.285e-02		126.893		4.626e-03		9.264
5		0.00		-4.80		2.226e-02		127.091		4.639e-03		7.313
5		0.00		-4.40		2.159e-02		126.536		4.437e-03		8.773
5		0.00		-4.00		2.054e-02		125.943		3.967e-03		9.572
5		0.00		-3.60		2.051e-02		126.324		3.850e-03		9.254
5		0.00		-3.20		1.969e-02		126.501		3.816e-03		9.303
5		0.00		-2.80		1.884e-02		123.805		3.852e-03		7.861
5		0.00		-2.40		1.824e-02		125.562		3.772e-03		7.636
5		0.00		-2.00		1.775e-02		126.837		3.742e-03		6.857
5		0.00		-1.60		1.686e-02		128.644		3.455e-03		7.886
5		0.00		-1.20		1.591e-02		127.509		3.825e-03		7.750
5		0.00		-0.80		1.484e-02		124.994		4.011e-03		9.367
5		0.00		-0.40		1.418e-02		127.484		3.687e-03		11.738
6		0.00		0.00		1.381e-02		126.055		3.866e-03		16.733
6		0.00		0.40		1.318e-02		123.605		3.805e-03		18.884
6		0.00		0.80		1.265e-02		125.913		3.703e-03		21.444
6		0.00		1.20		1.158e-02		124.750		3.427e-03		20.528
6		0.00		1.60		1.107e-02		120.920		3.116e-03		19.000
6		0.00		2.00		1.029e-02		128.126		2.809e-03		15.418
6		0.00		2.40		9.582e-03		123.064		2.385e-03		13.003
6		0.00		2.80		8.904e-03		126.631		2.314e-03		11.234
6		0.00		3.20		7.501e-03		126.084		2.092e-03		12.747
6		0.00		3.60		6.659e-03		128.416		1.707e-03		15.437
6		0.00		4.00		4.966e-03		118.860		1.597e-03		23.881
6		0.00		4.40		3.175e-03		99.136		1.380e-03		56.414
6		0.00		4.80		1.831e-03		-24.716		7.476e-04		79.086
6		0.00		5.20		2.775e-03		-52.485		1.053e-03		41.831
6		0.00		5.60		5.761e-03		-51.892		1.890e-03		20.085
6		0.00		6.00		9.081e-03		-49.053		2.359e-03		13.514
6		0.00		6.40		1.241e-02		-49.507		3.436e-03		16.213
6		0.00		6.80		1.615e-02		-49.639		4.233e-03		11.713
6		0.00		7.20		1.950e-02		-49.639		4.993e-03		13.465
6		0.00		7.60		2.163e-02		-51.134		5.666e-03		13.028
6		0.00		8.00		2.461e-02		-50.978		6.467e-03		10.898
6		0.00		8.40		2.781e-02		-51.497		6.965e-03		10.180
6		0.00		8.80		3.109e-02		-50.346		7.213e-03		10.416
6		0.00		9.20		3.417e-02		-50.783		7.396e-03		9.330
6		0.00		9.60		3.671e-02		-50.792		8.222e-03		10.443
6		0.00		10.00		3.964e-02		-51.783		8.543e-03		8.853
6		0.00		9.60		4.092e-02		-50.900		8.624e-03		8.713
6		0.00		9.20		3.999e-02		-52.015		8.892e-03		8.358
6		0.00		8.80		4.055e-02		-51.041		8.930e-03		7.543
6		0.00		8.40		3.950e-02		-50.415		8.570e-03		7.755
6		0.00		8.00		3.911e-02		-50.776		8.748e-03		7.488
6		0.00		7.60		3.832e-02		-50.358		9.340e-03		7.112
6		0.00		7.20		3.718e-02		-50.400		9.622e-03		6.956
6		0.00		6.80		3.695e-02		-51.183		9.615e-03		7.646
6		0.00		6.40		3.616e-02		-49.523		1.004e-02		7.983
6		0.00		6.00		3.632e-02		-50.658		9.820e-03		8.953
6		0.00		5.60		3.581e-02		-51.217		9.773e-03		11.639
6		0.00		5.20		3.510e-02		-50.588		9.723e-03		10.780
6		0.00		4.80		3.482e-02		-52.778		9.799e-03		15.046
6		0.00		4.40		3.428e-02		-52.218		9.971e-03		16.851
6		0.00		4.00		3.354e-02		-52.682		9.114e-03		14.098
6		0.00		3.60		3.365e-02		-51.108		8.931e-03		13.965
6		0.00		3.20		3.287e-02		-52.621		8.544e-03		12.159
6		0.00		2.80		3.354e-02		-51.710		8.247e-03		12.619
6		0.00		2.40		3.243e-02		-50.567		8.098e-03		10.899
6		0.00		2.00		3.229e-02		-50.813		7.790e-03		10.059
6		0.00		1.60		3.206e-02		-50.779		7.239e-03		10.173
6		0.00		1.20		3.231e-02		-50.376		6.997e-03		9.328
6		0.00		0.80		3.227e-02		-49.533		6.338e-03		8.424
6		0.00		0.40		3.229e-02		-50.695		6.409e-03		8.594
6		0.00		0.00		3.220e-02		-51.038		6.084e-03		8.588
6		0.00		-0.40		3.092e-02		-50.333		5.784e-03		9.632
6		0.00		-0.80		3.016e-02		-52.391		5.352e-03		9.219
6		0.00		-1.20		2.791e-02		-50.513		4.930e-03		9.651
6		0.00		-1.60		2.466e-02		-50.143		3.987e-03		8.886
6		0.00		-2.00		2.168e-02		-51.143		3.604e-03		10.471
6		0.00		-2.40		1.812e-02		-50.830		3.239e-03		10.403
6		0.00		-2.80		1.511e-02		-49.526		3.211e-03		11.444
6		0.00		-3.20		1.176e-02		-52.123		2.950e-03		12.703
6		0.00		-3.60		7.278e-03		-53.108		2.891e-03		16.761
6		0.00		-4.00		4.027e-03		-27.274		2.387e-03		58.818
6		0.00		-4.40		3.586e-03		50.416		1.510e-03		68.485
6		0.00		-4.80		5.839e-03		102.659		2.597e-03		48.819
6		0.00		-5.20		8.356e-03		114.268		3.213e-03		33.617
6		0.00		-5.60		1.278e-02		122.854		3.686e-03		12.200
6		0.00		-6.00		1.506e-02		125.384		4.558e-03		14.036
6		0.00		-6.40		1.850e-02		126.473		4.678e-03		8.147
6		0.00		-6.80		2.120e-02		127.321		4.791e-03		8.195
6		0.00		-7.20		2.270e-02		126.933		5.500e-03		7.983
6		0.00		-7.60		2.456e-02		127.496		5.915e-03		7.362
6		0.00		-8.00		2.716e-02		125.758		6.601e-03		7.613
6		0.00		-8.40		2.856e-02		127.548		7.068e-03		7.592
6		0.00		-8.80		3.024e-02		127.525		7.180e-03		7.262
6		0.00		-9.20		3.107e-02		128.281		7.242e-03		6.919
6		0.00		-9.60		3.167e-02		127.641		7.629e-03		7.803
6		0.00		-10.00		3.312e-02		128.858		8.398e-03		7.509
6		0.00		-9.60		3.177e-02		127.976		8.291e-03		7.780
6		0.00		-9.20		3.128e-02		127.688		8.856e-03		8.086
6		0.00		-8.80		3.126e-02		127.967		8.857e-03		7.090
6		0.00		-8.40		2.928e-02		127.282		8.583e-03		9.744
6		0.00		-8.00		2.972e-02		128.426		8.568e-03		7.945
6		0.00		-7.60		2.779e-02		127.408		7.674e-03		8.279
6		0.00		-7.20		2.805e-02		127.816		8.245e-03		9.098
6		0.00		-6.80		2.621e-02		125.993		7.852e-03		8.874
6		0.00		-6.40		2.502e-02		127.567		7.516e-03		10.328
6		0.00		-6.00		2.487e-02		128.291		6.748e-03		8.998
6		0.00		-5.60		2.399e-02		129.154		6.055e-03		7.017
6		0.00		-5.20		2.246e-02		128.521		5.950e-03		8.757
6		0.00		-4.80		2.221e-02		127.064		5.820e-03		9.546
6		0.00		-4.40		2.129e-02		128.361		5.679e-03		8.289
6		0.00		-4.00		2.040e-02		129.003		5.335e-03		8.382
6		0.00		-3.60		1.978e-02		126.986		5.206e-03		8.769
6		0.00		-3.20		1.902e-02		127.097		4.834e-03		8.488
6		0.00		-2.80		1.827e-02		127.525		4.611e-03		9.006
6		0.00		-2.40		1.695e-02		128.275		4.538e-03		9.037
6		0.00		-2.00		1.648e-02		129.427		4.160e-03		8.926
6		0.00		-1.60		1.586e-02		127.751		4.160e-03		9.793
6		0.00		-1.20		1.518e-02		128.676		3.860e-03		8.769
6		0.00		-0.80		1.458e-02		124.735		3.540e-03		7.922
6		0.00		-0.40		1.437e-02		127.109		3.019e-03		9.750
7		0.00		0.00		1.359e-02		127.295		3.244e-03		9.415
7		0.00		0.40		1.341e-02		127.285		2.902e-03		8.958
7		0.00		0.80		1.225e-02		127.396		2.888e-03		11.066
7		0.00		1.20		1.197e-02		128.422		2.655e-03		11.766
7		0.00		1.60		1.093e-02		125.257		2.444e-03		10.344
7		0.00		2.00		1.037e-02		126.754		2.497e-03		13.783
7		0.00		2.40		9.324e-03		126.331		2.355e-03		13.311
7		0.00		2.80		8.482e-03		128.041		2.119e-03		11.943
7		0.00		3.20		7.706e-03		127.122		2.054e-03		13.489
7		0.00		3.60		5.704e-03		125.706		1.911e-03		20.510
7		0.00		4.00		4.114e-03		118.771		1.558e-03		26.610
7		0.00		4.40		3.429e-03		94.533		1.311e-03		54.342
7		0.00		4.80		2.138e-03		40.967		8.108e-04		78.734
7		0.00		5.20		2.254e-03		-47.656		9.296e-04		47.990
7		0.00		5.60		4.498e-03		-47.657		1.725e-03		28.048
7		0.00		6.00		6.722e-03		-50.564		2.072e-03		18.712
7		0.00		6.40		1.022e-02		-51.003		3.149e-03		17.131
7		0.00		6.80		1.372e-02		-52.027		3.491e-03		11.475
7		0.00		7.20		1.673e-02		-51.168		4.165e-03		9.606
7		0.00		7.60		2.105e-02		-52.828		4.732e-03		9.171
7		0.00		8.00		2.408e-02		-52.308		5.088e-03		9.552
7		0.00		8.40		2.692e-02		-52.071		5.684e-03		9.254
7		0.00		8.80		3.030e-02		-53.605		6.716e-03		10.132
7		0.00		9.20		3.179e-02		-51.243		7.630e-03		10.634
7		0.00		9.60		3.523e-02		-51.211		8.227e-03		10.133
7		0.00		10.00		3.774e-02		-51.267		9.256e-03		12.266
7		0.00		9.60		3.830e-02		-50.028		9.948e-03		14.103
7		0.00		9.20		3.854e-02		-51.135		1.068e-02		15.250
7		0.00		8.80		3.884e-02		-51.477		1.096e-02		13.524
7		0.00		8.40		3.897e-02		-50.443		1.084e-02		10.352
7		0.00		8.00		3.816e-02		-51.254		9.905e-03		7.768
7		0.00		7.60		3.739e-02		-49.788		8.716e-03		8.292
7		0.00		7.20		3.709e-02		-52.063		7.741e-03		8.220
7		0.00		6.80		3.657e-02		-51.198		7.158e-03		8.632
7		0.00		6.40		3.590e-02		-51.868		6.763e-03		8.635
7		0.00		6.00		3.493e-02		-51.012		7.149e-03		9.777
7		0.00		5.60		3.468e-02		-51.032		7.606e-03		8.650
7		0.00		5.20		3.367e-02		-51.208		8.147e-03		11.460
7		0.00		4.80		3.388e-02		-51.621		8.734e-03		12.473
7		0.00		4.40		3.326e-02		-51.938		9.182e-03		10.827
7		0.00		4.00		3.338e-02		-50.818		9.485e-03		8.108
7		0.00		3.60		3.271e-02		-50.325		8.958e-03		7.485
7		0.00		3.20		3.314e-02		-50.471		8.111e-03		6.886
7		0.00		2.80		3.337e-02		-52.253		6.527e-03		6.914
7		0.00		2.40		3.345e-02		-52.278		5.931e-03		6.805
7		0.00		2.00		3.266e-02		-51.788		6.289e-03		7.914
7		0.00		1.60		3.252e-02		-50.143		6.047e-03		7.624
7		0.00		1.20		3.162e-02		-51.034		6.876e-03		8.875
7		0.00		0.80		3.109e-02		-50.284		7.455e-03		11.253
7		0.00		0.40		3.179e-02		-49.946		8.461e-03		9.737
7		0.00		0.00		3.137e-02		-49.678		8.294e-03		6.363
7		0.00		-0.40		3.150e-02		-50.063		7.211e-03		7.190
7		0.00		-0.80		3.033e-02		-50.958		6.111e-03		5.737
7		0.00		-1.20		2.891e-02		-51.367		5.290e-03		7.310
7		0.00		-1.60		2.603e-02		-51.673		5.139e-03		8.723
7		0.00		-2.00		2.296e-02		-49.283		5.095e-03		9.888
7		0.00		-2.40		1.864e-02		-49.723		4.775e-03		11.476
7		0.00		-2.80		1.523e-02		-48.339		4.543e-03		13.149
7		0.00		-3.20		1.056e-02		-46.131		3.380e-03		12.400
7		0.00		-3.60		7.533e-03		-46.257		2.953e-03		17.289
7		0.00		-4.00		4.244e-03		-44.112		2.312e-03		35.123
7		0.00		-4.40		3.136e-03		12.316		1.579e-03		78.505
7		0.00		-4.80		4.501e-03		87.579		1.858e-03		58.762
7		0.00		-5.20		7.511e-03		111.213		3.148e-03		33.378
7		0.00		-5.60		1.015e-02		119.529		3.618e-03		21.773
7		0.00		-6.00		1.379e-02		119.360		4.555e-03		22.329
7		0.00		-6.40		1.717e-02		124.541		5.280e-03		16.307
7		0.00		-6.80		1.979e-02		126.621		5.254e-03		10.031
7		0.00		-7.20		2.271e-02		127.691		5.596e-03		8.726
7		0.00		-7.60		2.627e-02		125.976		5.851e-03		8.442
7		0.00		-8.00		2.798e-02		126.564		5.572e-03		7.664
7		0.00		-8.40		2.904e-02		127.716		6.012e-03		7.674
7		0.00		-8.80		3.062e-02		127.307		6.629e-03		8.045
7		0.00		-9.20		3.083e-02		126.449		7.526e-03		11.977
7		0.00		-9.60		3.173e-02		125.696		8.498e-03		14.940
7		0.00		-10.00		3.287e-02		126.807		9.415e-03		9.908
7		0.00		-9.60		3.332e-02		128.481		8.713e-03		6.667
7		0.00		-9.20		3.189e-02		127.053		7.354e-03		6.488
7		0.00		-8.80		3.340e-02		127.603		6.978e-03		7.713
7		0.00		-8.40		3.161e-02		127.437		5.964e-03		8.092
7		0.00		-8.00		3.120e-02		127.905		6.637e-03		7.688
7		0.00		-7.60		3.047e-02		127.113		7.321e-03		10.260
7		0.00		-7.20		2.813e-02		125.445		7.427e-03		14.081
7		0.00		-6.80		2.765e-02		125.811		7.710e-03		15.685
7		0.00		-6.40		2.570e-02		127.731		7.105e-03		8.841
7		0.00		-6.00		2.489e-02		128.311		6.182e-03		6.999
7		0.00		-5.60		2.451e-02		127.261		4.985e-03		6.848
7		0.00		-5.20		2.365e-02		127.836		4.550e-03		7.061
7		0.00		-4.80		2.287e-02		126.384		4.289e-03		9.141
7		0.00		-4.40		2.187e-02		126.417		4.074e-03		7.762
7		0.00		-4.00		2.068e-02		129.258		4.711e-03		9.552
7		0.00		-3.60		1.939e-02		126.302		4.680e-03		13.892
7		0.00		-3.20		1.910e-02		124.130		4.680e-03		15.824
7		0.00		-2.80		1.792e-02		127.014		4.687e-03		11.896
7		0.00		-2.40		1.774e-02		126.998		4.447e-03		9.623
7		0.00		-2.00		1.682e-02		128.689		3.733e-03		7.178
7		0.00		-1.60		1.646e-02		127.094		3.348e-03		9.311
7		0.00		-1.20		1.598e-02		125.716		3.381e-03		9.296
7		0.00		-0.80		1.435e-02		124.292		3.252e-03		9.135
7		0.00		-0.40		1.396e-02		128.643		3.308e-03		10.812
8		0.00		0.00		1.318e-02		124.201		3.331e-03		12.094
8		0.00		0.40		1.256e-02		123.720		3.484e-03		18.893
8		0.00		0.80		1.195e-02		121.870		3.641e-03		23.278
8		0.00		1.20		1.085e-02		130.171		3.387e-03		11.943
8		0.00		1.60		1.070e-02		125.136		3.227e-03		13.990
8		0.00		2.00		1.030e-02		127.938		2.712e-03		10.870
8		0.00		2.40		9.110e-03		125.728		2.370e-03		13.925
8		0.00		2.80		8.314e-03		128.209		2.082e-03		12.376
8		0.00		3.20		7.315e-03		127.451		1.755e-03		14.102
8		0.00		3.60		6.265e-03		128.848		1.735e-03		18.236
8		0.00		4.00		4.526e-03		122.557		1.325e-03		26.223
8		0.00		4.40		2.930e-03		93.578		1.176e-03		56.313
8		0.00		4.80		2.048e-03		17.704		9.209e-04		66.515
8		0.00		5.20		2.418e-03		-54.028		9.600e-04		54.729
8		0.00		5.60		4.730e-03		-50.291		1.547e-03		27.941
8		0.00		6.00		7.286e-03		-55.523		2.053e-03		16.148
8		0.00		6.40		1.045e-02		-52.788		2.452e-03		11.486
8		0.00		6.80		1.398e-02		-56.455		2.771e-03		10.494
8		0.00		7.20		1.698e-02		-52.677		3.276e-03		9.190
8		0.00		7.60		2.035e-02		-51.985		4.064e-03		10.337
8		0.00		8.00		2.398e-02		-52.246		4.967e-03		9.443
8		0.00		8.40		2.737e-02		-51.368		5.463e-03		8.584
8		0.00		8.80		2.992e-02		-52.360		7.325e-03		11.779
8		0.00		9.20		3.279e-02		-50.263		8.519e-03		11.061
8		0.00		9.60		3.568e-02		-51.979		9.926e-03		14.764
8		0.00		10.00		3.831e-02		-52.150		1.104e-02		12.794
8		0.00		9.60		3.865e-02		-50.158		1.106e-02		6.779
8		0.00		9.20		3.920e-02		-50.800		1.002e-02		6.286
8		0.00		8.80		3.934e-02		-50.738		8.858e-03		6.519
8		0.00		8.40		3.832e-02		-50.995		7.883e-03		7.621
8		0.00		8.00		3.762e-02		-52.032		7.497e-03		9.301
8		0.00		7.60		3.686e-02		-51.191		7.053e-03		9.176
8		0.00		7.20		3.541e-02		-50.419		7.886e-03		8.922
8		0.00		6.80		3.537e-02		-50.198		8.340e-03		9.199
8		0.00		6.40		3.509e-02		-50.766		8.553e-03		11.998
8		0.00		6.00		3.508e-02		-51.815		9.127e-03		14.582
8		0.00		5.60		3.420e-02		-52.329		9.337e-03		14.266
8		0.00		5.20		3.442e-02		-50.167		9.807e-03		9.294
8		0.00		4.80		3.375e-02		-49.473		9.310e-03		6.896
8		0.00		4.40		3.403e-02		-50.256		8.813e-03		6.740
8		0.00		4.00		3.375e-02		-51.149		7.746e-03		6.771
8		0.00		3.60		3.334e-02		-51.280		7.035e-03		7.395
8		0.00		3.20		3.361e-02		-51.278		6.397e-03		7.610
8		0.00		2.80		3.280e-02		-50.563		6.931e-03		8.469
8		0.00		2.40		3.186e-02		-50.086		6.723e-03		9.138
8		0.00		2.00		3.188e-02		-49.744		7.166e-03		8.943
8		0.00		1.60		3.163e-02		-50.583		7.511e-03		10.240
8		0.00		1.20		3.114e-02		-49.420		7.309e-03		11.694
8		0.00		0.80		3.133e-02		-52.504		7.681e-03		13.741
8		0.00		0.40		3.176e-02		-49.918		8.225e-03		13.541
8		0.00		0.00		3.133e-02		-50.201		8.001e-03		8.114
8		0.00		-0.40		3.096e-02		-49.878		7.622e-03		7.837
8		0.00		-0.80		3.071e-02		-49.283		7.025e-03		7.523
8		0.00		-1.20		2.969e-02		-51.837		6.106e-03		6.965
8		0.00		-1.60		2.759e-02		-52.337		5.058e-03		7.617
8		0.00		-2.00		2.377e-02		-50.423		4.220e-03		8.186
8		0.00		-2.40		2.120e-02		-51.041		3.459e-03		7.947
8		0.00		-2.80		1.717e-02		-51.719		3.252e-03		9.765
8		0.00		-3.20		1.288e-02		-48.483		2.771e-03		10.853
8		0.00		-3.60		8.768e-03		-47.935		2.810e-03		15.054
8		0.00		-4.00		4.393e-03		-41.276		2.282e-03		41.784
8		0.00		-4.40		3.156e-03		22.118		1.476e-03		65.896
8		0.00		-4.80		4.964e-03		94.348		2.136e-03		43.122
8		0.00		-5.20		7.865e-03		114.646		3.031e-03		29.949
8		0.00		-5.60		1.103e-02		120.795		3.683e-03		25.396
8		0.00		-6.00		1.472e-02		123.380		4.761e-03		19.329
8		0.00		-6.40		1.766e-02		126.186		5.607e-03		11.867
8		0.00		-6.80		2.083e-02		126.876		6.002e-03		10.380
8		0.00		-7.20		2.346e-02		128.795		6.027e-03		7.160
8		0.00		-7.60		2.553e-02		126.527		5.965e-03		7.387
8		0.00		-8.00		2.818e-02		128.464		6.051e-03		7.417
8		0.00		-8.40		2.994e-02		127.895		6.736e-03		7.483
8		0.00		-8.80		2.968e-02		126.170		6.364e-03		8.732
8		0.00		-9.20		3.109e-02		126.646		6.576e-03		7.798
8		0.00		-9.60		3.196e-02		127.585		6.351e-03		7.637
8		0.00		-10.00		3.301e-02		128.273		6.847e-03		7.445
8		0.00		-9.60		3.294e-02		128.101		7.544e-03		8.109
8		0.00		-9.20		3.298e-02		127.186		8.820e-03		9.969
8		0.00		-8.80		3.134e-02		123.734		8.793e-03		16.389
8		0.00		-8.40		3.083e-02		123.255		8.718e-03		18.118
8		0.00		-8.00		3.106e-02		125.109		8.694e-03		20.094
8		0.00		-7.60		2.903e-02		123.670		8.677e-03		18.594
8		0.00		-7.20		2.953e-02		125.490		9.060e-03		11.639
8		0.00		-6.80		2.740e-02		128.137		8.019e-03		9.117
8		0.00		-6.40		2.644e-02		128.303		7.224e-03		6.838
8		0.00		-6.00		2.546e-02		126.606		6.711e-03		7.230
8		0.00		-5.60		2.452e-02		127.421		5.907e-03		8.209
8		0.00		-5.20		2.382e-02		126.041		5.364e-03		8.332
8		0.00		-4.80		2.300e-02		126.099		4.624e-03		8.888
8		0.00		-4.40		2.206e-02		125.456		4.514e-03		7.431
8		0.00		-4.00		2.125e-02		129.061		4.105e-03		7.923
8		0.00		-3.60		2.097e-02		125.713		3.815e-03		8.489
8		0.00		-3.20		1.964e-02		127.691		4.123e-03		8.633
8		0.00		-2.80		1.882e-02		126.893		4.201e-03		11.306
8		0.00		-2.40		1.826e-02		127.378		4.247e-03		12.763
8		0.00		-2.00		1.769e-02		126.416		4.226e-03		14.977
8		0.00		-1.60		1.703e-02		127.307		4.253e-03		18.652
8		0.00		-1.20		1.614e-02		124.945		4.508e-03		18.775
8		0.00		-0.80		1.512e-02		126.316		4.141e-03		13.804
8		0.00		-0.40		1.446e-02		126.006		3.805e-03		10.574
