# Date of analysis: 2023-11-20 16;19
# 
# Loop index	Read Volt (V)	Write Volt (V)	Amplitude (a.u)	Phase (deg)	Sigma Amp (a.u)	Sigma Pha (deg)	
1		0.00		0.00		4.610e-02		-53.762		8.801e-03		6.764
1		0.00		0.40		4.485e-02		-52.705		9.675e-03		6.839
1		0.00		0.80		4.383e-02		-54.278		1.093e-02		9.136
1		0.00		1.20		4.315e-02		-54.807		1.176e-02		12.446
1		0.00		1.60		4.373e-02		-55.140		1.137e-02		10.483
1		0.00		2.00		4.407e-02		-53.587		9.966e-03		5.820
1		0.00		2.40		4.425e-02		-52.440		9.295e-03		5.553
1		0.00		2.80		4.351e-02		-53.521		9.310e-03		7.178
1		0.00		3.20		4.313e-02		-54.597		1.047e-02		8.191
1		0.00		3.60		4.289e-02		-54.797		1.195e-02		9.459
1		0.00		4.00		4.283e-02		-55.397		1.287e-02		12.970
1		0.00		4.40		4.310e-02		-55.990		1.305e-02		14.229
1		0.00		4.80		4.456e-02		-56.103		1.182e-02		8.294
1		0.00		5.20		4.640e-02		-52.869		9.706e-03		6.443
1		0.00		5.60		4.692e-02		-53.344		9.651e-03		6.688
1		0.00		6.00		4.730e-02		-54.663		1.110e-02		9.800
1		0.00		6.40		4.846e-02		-54.215		1.204e-02		10.036
1		0.00		6.80		4.992e-02		-54.858		1.331e-02		12.871
1		0.00		7.20		5.236e-02		-55.158		1.471e-02		14.265
1		0.00		7.60		5.496e-02		-53.416		1.441e-02		8.961
1		0.00		8.00		6.053e-02		-51.226		1.362e-02		6.657
1		0.00		8.40		6.279e-02		-50.998		1.277e-02		6.584
1		0.00		8.80		6.611e-02		-48.113		1.486e-02		9.989
1		0.00		9.20		6.496e-02		-48.406		1.641e-02		12.055
1		0.00		9.60		6.321e-02		-44.363		1.797e-02		11.484
1		0.00		10.00		6.378e-02		-48.114		1.943e-02		21.468
1		0.00		9.60		6.194e-02		-49.405		1.792e-02		15.253
1		0.00		9.20		6.027e-02		-48.667		1.700e-02		9.475
1		0.00		8.80		6.218e-02		-48.589		1.518e-02		9.520
1		0.00		8.40		5.895e-02		-50.722		1.328e-02		8.419
1		0.00		8.00		5.733e-02		-51.314		1.315e-02		9.399
1		0.00		7.60		5.538e-02		-51.829		1.492e-02		11.673
1		0.00		7.20		5.241e-02		-51.114		1.492e-02		12.136
1		0.00		6.80		5.086e-02		-52.409		1.542e-02		19.076
1		0.00		6.40		4.950e-02		-50.194		1.529e-02		23.849
1		0.00		6.00		5.014e-02		-51.469		1.360e-02		7.246
1		0.00		5.60		5.116e-02		-50.840		1.088e-02		6.350
1		0.00		5.20		5.021e-02		-51.727		9.510e-03		7.902
1		0.00		4.80		4.871e-02		-50.972		9.832e-03		8.570
1		0.00		4.40		4.669e-02		-50.873		1.076e-02		8.935
1		0.00		4.00		4.527e-02		-51.220		1.149e-02		10.375
1		0.00		3.60		4.473e-02		-53.604		1.211e-02		13.572
1		0.00		3.20		4.459e-02		-52.068		1.156e-02		9.305
1		0.00		2.80		4.478e-02		-51.510		9.776e-03		7.120
1		0.00		2.40		4.494e-02		-51.908		8.325e-03		6.889
1		0.00		2.00		4.390e-02		-50.953		8.585e-03		8.092
1		0.00		1.60		4.222e-02		-50.249		8.968e-03		7.588
1		0.00		1.20		4.039e-02		-51.501		1.038e-02		9.304
1		0.00		0.80		3.929e-02		-52.708		1.121e-02		13.924
1		0.00		0.40		3.890e-02		-53.734		1.113e-02		11.431
1		0.00		0.00		3.812e-02		-52.059		9.352e-03		8.071
1		0.00		-0.40		3.785e-02		-50.273		7.403e-03		7.500
1		0.00		-0.80		3.492e-02		-51.513		6.705e-03		7.978
1		0.00		-1.20		3.017e-02		-50.552		6.760e-03		9.709
1		0.00		-1.60		2.748e-02		-53.420		7.097e-03		9.812
1		0.00		-2.00		2.182e-02		-51.912		6.409e-03		12.125
1		0.00		-2.40		1.867e-02		-53.991		5.650e-03		14.801
1		0.00		-2.80		1.624e-02		-51.282		4.446e-03		10.569
1		0.00		-3.20		1.330e-02		-49.429		3.257e-03		12.587
1		0.00		-3.60		8.587e-03		-49.722		2.905e-03		20.915
1		0.00		-4.00		5.636e-03		-37.406		2.464e-03		48.682
1		0.00		-4.40		2.897e-03		0.630		1.429e-03		74.813
1		0.00		-4.80		4.449e-03		86.914		2.811e-03		60.973
1		0.00		-5.20		7.266e-03		112.391		3.486e-03		38.958
1		0.00		-5.60		1.195e-02		120.915		4.666e-03		16.907
1		0.00		-6.00		1.529e-02		123.774		5.060e-03		12.495
1		0.00		-6.40		1.617e-02		126.176		4.791e-03		8.697
1		0.00		-6.80		1.389e-02		127.445		4.632e-03		10.313
1		0.00		-7.20		2.227e-02		126.011		6.766e-03		12.008
1		0.00		-7.60		2.466e-02		122.340		8.293e-03		19.582
1		0.00		-8.00		2.590e-02		121.535		8.726e-03		14.010
1		0.00		-8.40		2.661e-02		124.882		7.890e-03		8.908
1		0.00		-8.80		2.770e-02		127.321		7.559e-03		9.425
1		0.00		-9.20		2.712e-02		126.111		7.471e-03		7.147
1		0.00		-9.60		2.766e-02		124.600		8.908e-03		12.049
1		0.00		-10.00		3.039e-02		123.735		9.927e-03		17.102
1		0.00		-9.60		2.914e-02		122.224		9.774e-03		19.371
1		0.00		-9.20		2.926e-02		125.946		9.144e-03		9.584
1		0.00		-8.80		2.983e-02		126.596		7.985e-03		8.613
1		0.00		-8.40		3.154e-02		127.866		7.730e-03		7.388
1		0.00		-8.00		3.113e-02		127.817		8.095e-03		7.199
1		0.00		-7.60		2.694e-02		124.737		8.281e-03		13.369
1		0.00		-7.20		2.388e-02		123.001		7.785e-03		18.150
1		0.00		-6.80		2.497e-02		124.843		7.398e-03		12.123
1		0.00		-6.40		2.550e-02		126.887		6.625e-03		10.043
1		0.00		-6.00		2.600e-02		129.554		6.182e-03		7.406
1		0.00		-5.60		2.400e-02		127.901		5.932e-03		7.539
1		0.00		-5.20		2.203e-02		128.156		5.959e-03		8.679
1		0.00		-4.80		2.078e-02		123.681		6.344e-03		17.620
1		0.00		-4.40		1.861e-02		121.995		5.784e-03		21.751
1		0.00		-4.00		1.732e-02		123.705		5.327e-03		15.264
1		0.00		-3.60		1.551e-02		128.382		4.592e-03		12.032
1		0.00		-3.20		1.437e-02		130.476		3.945e-03		9.506
1		0.00		-2.80		1.280e-02		126.679		3.836e-03		11.725
1		0.00		-2.40		1.222e-02		128.372		3.905e-03		15.667
1		0.00		-2.00		1.104e-02		121.575		4.013e-03		21.080
1		0.00		-1.60		9.989e-03		120.804		3.561e-03		24.867
1		0.00		-1.20		9.681e-03		123.868		3.322e-03		18.457
1		0.00		-0.80		8.521e-03		121.688		2.989e-03		15.497
1		0.00		-0.40		7.432e-03		127.928		2.529e-03		14.177
2		0.00		0.00		6.432e-03		127.712		2.016e-03		20.051
2		0.00		0.40		5.622e-03		125.118		2.166e-03		16.458
2		0.00		0.80		4.526e-03		114.824		1.860e-03		31.085
2		0.00		1.20		3.781e-03		97.858		1.527e-03		53.311
2		0.00		1.60		2.685e-03		79.677		1.255e-03		65.977
2		0.00		2.00		1.953e-03		27.842		8.610e-04		87.650
2		0.00		2.40		2.127e-03		-59.662		8.242e-04		56.785
2		0.00		2.80		3.415e-03		-62.532		1.210e-03		30.092
2		0.00		3.20		6.442e-03		-55.011		2.012e-03		17.812
2		0.00		3.60		8.994e-03		-51.769		2.255e-03		12.539
2		0.00		4.00		1.170e-02		-52.134		3.113e-03		12.244
2		0.00		4.40		1.579e-02		-53.098		4.917e-03		14.246
2		0.00		4.80		1.847e-02		-48.964		5.800e-03		13.336
2		0.00		5.20		2.170e-02		-54.403		6.584e-03		10.905
2		0.00		5.60		2.572e-02		-51.334		6.112e-03		9.754
2		0.00		6.00		2.952e-02		-53.067		6.788e-03		8.846
2		0.00		6.40		3.117e-02		-52.917		7.745e-03		9.329
2		0.00		6.80		3.446e-02		-52.522		9.827e-03		10.341
2		0.00		7.20		3.661e-02		-54.073		1.191e-02		11.481
2		0.00		7.60		3.881e-02		-54.776		1.307e-02		15.561
2		0.00		8.00		4.232e-02		-52.275		1.312e-02		8.852
2		0.00		8.40		4.462e-02		-51.711		1.100e-02		7.380
2		0.00		8.80		4.525e-02		-51.132		1.083e-02		8.711
2		0.00		9.20		4.628e-02		-52.247		1.171e-02		7.701
2		0.00		9.60		4.380e-02		-51.652		1.289e-02		9.738
2		0.00		10.00		4.600e-02		-53.943		1.401e-02		14.044
2		0.00		9.60		4.483e-02		-52.491		1.382e-02		15.502
2		0.00		9.20		4.629e-02		-51.978		1.276e-02		7.899
2		0.00		8.80		4.476e-02		-51.781		1.022e-02		8.080
2		0.00		8.40		4.466e-02		-52.810		1.035e-02		7.952
2		0.00		8.00		4.132e-02		-51.886		1.032e-02		8.064
2		0.00		7.60		4.075e-02		-51.061		1.200e-02		10.358
2		0.00		7.20		3.891e-02		-55.917		1.243e-02		19.976
2		0.00		6.80		3.769e-02		-53.583		1.159e-02		12.327
2		0.00		6.40		3.701e-02		-52.209		9.161e-03		7.931
2		0.00		6.00		3.588e-02		-51.708		7.717e-03		8.639
2		0.00		5.60		3.423e-02		-50.870		8.629e-03		9.021
2		0.00		5.20		3.217e-02		-52.670		9.225e-03		8.452
2		0.00		4.80		3.111e-02		-53.441		9.882e-03		10.942
2		0.00		4.40		3.144e-02		-55.306		1.026e-02		14.056
2		0.00		4.00		3.137e-02		-52.329		8.121e-03		7.366
2		0.00		3.60		3.070e-02		-52.018		6.719e-03		8.056
2		0.00		3.20		2.969e-02		-51.583		6.716e-03		8.100
2		0.00		2.80		2.918e-02		-52.297		7.686e-03		9.969
2		0.00		2.40		2.860e-02		-53.211		8.345e-03		12.890
2		0.00		2.00		2.860e-02		-53.887		7.620e-03		11.567
2		0.00		1.60		2.863e-02		-52.398		6.501e-03		7.688
2		0.00		1.20		2.873e-02		-51.071		5.103e-03		8.515
2		0.00		0.80		2.799e-02		-52.128		5.569e-03		8.805
2		0.00		0.40		2.737e-02		-50.766		6.580e-03		9.025
2		0.00		0.00		2.551e-02		-53.771		7.087e-03		13.510
2		0.00		-0.40		2.430e-02		-52.088		6.885e-03		10.539
2		0.00		-0.80		2.381e-02		-52.927		5.466e-03		9.893
2		0.00		-1.20		2.056e-02		-51.556		4.123e-03		10.302
2		0.00		-1.60		1.629e-02		-54.539		3.892e-03		9.346
2		0.00		-2.00		1.258e-02		-52.896		3.806e-03		13.728
2		0.00		-2.40		9.529e-03		-56.368		3.285e-03		17.025
2		0.00		-2.80		7.122e-03		-54.333		2.895e-03		19.976
2		0.00		-3.20		4.319e-03		-45.331		1.965e-03		45.265
2		0.00		-3.60		2.874e-03		10.746		1.354e-03		81.202
2		0.00		-4.00		3.547e-03		68.652		2.360e-03		80.867
2		0.00		-4.40		6.736e-03		120.655		3.486e-03		38.249
2		0.00		-4.80		9.365e-03		124.490		4.293e-03		24.790
2		0.00		-5.20		1.152e-02		123.734		4.839e-03		28.798
2		0.00		-5.60		1.392e-02		127.520		5.146e-03		12.655
2		0.00		-6.00		1.842e-02		127.130		5.841e-03		9.671
2		0.00		-6.40		2.035e-02		128.899		5.866e-03		7.507
2		0.00		-6.80		2.138e-02		128.096		6.580e-03		9.667
2		0.00		-7.20		2.311e-02		125.780		7.655e-03		12.010
2		0.00		-7.60		2.479e-02		124.919		8.172e-03		18.182
2		0.00		-8.00		2.792e-02		127.630		8.443e-03		10.626
2		0.00		-8.40		3.065e-02		128.941		8.203e-03		8.058
2		0.00		-8.80		2.882e-02		129.167		7.407e-03		8.024
2		0.00		-9.20		3.155e-02		127.280		8.776e-03		8.700
2		0.00		-9.60		3.228e-02		125.895		1.015e-02		10.629
2		0.00		-10.00		3.297e-02		123.500		1.071e-02		21.337
2		0.00		-9.60		3.279e-02		125.517		1.053e-02		13.022
2		0.00		-9.20		3.321e-02		127.682		9.278e-03		8.666
2		0.00		-8.80		3.257e-02		127.088		8.557e-03		7.955
2		0.00		-8.40		3.155e-02		128.371		8.941e-03		8.165
2		0.00		-8.00		3.028e-02		125.692		9.579e-03		10.686
2		0.00		-7.60		3.005e-02		124.509		1.013e-02		17.736
2		0.00		-7.20		2.936e-02		123.425		1.011e-02		16.103
2		0.00		-6.80		2.786e-02		125.686		8.386e-03		9.670
2		0.00		-6.40		2.559e-02		129.119		6.932e-03		8.404
2		0.00		-6.00		2.427e-02		130.015		6.720e-03		7.685
2		0.00		-5.60		2.306e-02		128.201		6.681e-03		11.153
2		0.00		-5.20		2.070e-02		123.765		6.442e-03		17.601
2		0.00		-4.80		1.948e-02		124.345		5.905e-03		19.967
2		0.00		-4.40		1.835e-02		130.654		5.112e-03		11.043
2		0.00		-4.00		1.689e-02		130.558		4.368e-03		9.184
2		0.00		-3.60		1.516e-02		128.784		3.807e-03		7.281
2		0.00		-3.20		1.393e-02		131.055		3.963e-03		9.689
2		0.00		-2.80		1.281e-02		126.338		3.746e-03		11.956
2		0.00		-2.40		1.183e-02		125.014		3.554e-03		18.277
2		0.00		-2.00		1.049e-02		127.927		3.511e-03		17.197
2		0.00		-1.60		9.195e-03		129.595		2.962e-03		13.487
2		0.00		-1.20		8.068e-03		131.254		2.476e-03		12.706
2		0.00		-0.80		6.881e-03		134.733		2.222e-03		17.272
2		0.00		-0.40		6.211e-03		128.606		2.193e-03		20.807
3		0.00		0.00		5.228e-03		115.389		2.322e-03		39.883
3		0.00		0.40		4.077e-03		108.143		1.645e-03		42.806
3		0.00		0.80		3.464e-03		95.998		1.702e-03		70.975
3		0.00		1.20		2.580e-03		61.548		1.189e-03		89.628
3		0.00		1.60		1.973e-03		-3.813		7.386e-04		88.829
3		0.00		2.00		2.038e-03		-20.744		8.042e-04		76.893
3		0.00		2.40		2.052e-03		-54.174		9.539e-04		53.920
3		0.00		2.80		2.976e-03		-61.349		1.253e-03		37.458
3		0.00		3.20		3.661e-03		-66.745		1.281e-03		29.358
3		0.00		3.60		5.990e-03		-61.418		1.674e-03		14.340
3		0.00		4.00		9.304e-03		-57.847		1.879e-03		13.703
3		0.00		4.40		1.204e-02		-52.985		2.179e-03		13.130
3		0.00		4.80		1.416e-02		-53.959		2.937e-03		11.021
3		0.00		5.20		1.664e-02		-53.803		4.145e-03		12.760
3		0.00		5.60		2.060e-02		-53.701		5.166e-03		11.107
3		0.00		6.00		2.382e-02		-51.188		5.703e-03		8.010
3		0.00		6.40		2.777e-02		-51.034		5.492e-03		7.935
3		0.00		6.80		3.145e-02		-50.478		6.193e-03		7.577
3		0.00		7.20		3.302e-02		-52.113		7.959e-03		8.781
3		0.00		7.60		3.662e-02		-52.393		9.971e-03		8.829
3		0.00		8.00		3.735e-02		-53.609		1.142e-02		14.754
3		0.00		8.40		3.828e-02		-53.795		1.158e-02		9.279
3		0.00		8.80		4.162e-02		-50.469		1.068e-02		6.064
3		0.00		9.20		4.250e-02		-51.946		9.925e-03		6.737
3		0.00		9.60		4.266e-02		-51.577		1.020e-02		7.986
3		0.00		10.00		4.161e-02		-52.397		1.093e-02		9.021
3		0.00		9.60		3.952e-02		-51.475		1.170e-02		10.546
3		0.00		9.20		3.958e-02		-54.599		1.207e-02		16.795
3		0.00		8.80		3.935e-02		-53.737		1.103e-02		7.706
3		0.00		8.40		3.885e-02		-51.251		8.376e-03		6.974
3		0.00		8.00		3.836e-02		-51.433		6.771e-03		5.560
3		0.00		7.60		3.623e-02		-51.777		7.098e-03		7.096
3		0.00		7.20		3.426e-02		-52.438		7.554e-03		8.394
3		0.00		6.80		3.413e-02		-51.925		8.360e-03		8.911
3		0.00		6.40		3.264e-02		-52.938		8.616e-03		12.067
3		0.00		6.00		3.116e-02		-53.313		8.308e-03		10.666
3		0.00		5.60		3.090e-02		-51.892		6.835e-03		8.282
3		0.00		5.20		3.067e-02		-50.417		5.626e-03		8.080
3		0.00		4.80		3.004e-02		-53.098		5.762e-03		8.255
3		0.00		4.40		2.834e-02		-50.943		6.078e-03		7.456
3		0.00		4.00		2.752e-02		-51.564		7.052e-03		10.363
3		0.00		3.60		2.718e-02		-54.741		7.551e-03		13.508
3		0.00		3.20		2.608e-02		-53.317		7.059e-03		9.859
3		0.00		2.80		2.673e-02		-52.170		6.085e-03		7.730
3		0.00		2.40		2.666e-02		-52.733		4.774e-03		8.068
3		0.00		2.00		2.660e-02		-51.461		4.661e-03		7.759
3		0.00		1.60		2.618e-02		-52.339		5.447e-03		10.145
3		0.00		1.20		2.568e-02		-51.850		6.052e-03		9.798
3		0.00		0.80		2.485e-02		-52.653		6.526e-03		11.835
3		0.00		0.40		2.488e-02		-54.053		6.376e-03		11.474
3		0.00		0.00		2.407e-02		-53.742		5.192e-03		8.212
3		0.00		-0.40		2.256e-02		-51.228		3.931e-03		8.496
3		0.00		-0.80		2.139e-02		-51.997		3.433e-03		9.265
3		0.00		-1.20		1.859e-02		-51.082		3.436e-03		9.634
3		0.00		-1.60		1.496e-02		-52.489		3.508e-03		12.013
3		0.00		-2.00		1.208e-02		-53.030		3.293e-03		14.143
3		0.00		-2.40		8.742e-03		-54.056		3.059e-03		19.735
3		0.00		-2.80		6.629e-03		-57.855		2.578e-03		24.468
3		0.00		-3.20		4.120e-03		-46.132		1.685e-03		50.021
3		0.00		-3.60		3.143e-03		-11.084		1.248e-03		86.356
3		0.00		-4.00		3.481e-03		50.451		2.098e-03		87.818
3		0.00		-4.40		6.335e-03		119.030		2.845e-03		43.923
3		0.00		-4.80		9.605e-03		131.906		4.003e-03		19.992
3		0.00		-5.20		1.177e-02		125.101		4.363e-03		19.804
3		0.00		-5.60		1.444e-02		126.157		5.194e-03		20.784
3		0.00		-6.00		1.869e-02		126.830		6.360e-03		10.582
3		0.00		-6.40		2.111e-02		128.885		6.487e-03		9.455
3		0.00		-6.80		2.375e-02		130.023		6.493e-03		8.691
3		0.00		-7.20		2.501e-02		128.631		6.725e-03		7.395
3		0.00		-7.60		2.680e-02		129.318		7.238e-03		7.232
3		0.00		-8.00		2.816e-02		128.258		7.830e-03		8.702
3		0.00		-8.40		2.937e-02		127.286		8.542e-03		12.401
3		0.00		-8.80		3.189e-02		125.046		9.172e-03		19.305
3		0.00		-9.20		3.157e-02		124.972		9.153e-03		17.274
3		0.00		-9.60		2.947e-02		128.955		8.002e-03		8.743
3		0.00		-10.00		3.103e-02		130.701		8.075e-03		7.527
3		0.00		-9.60		3.340e-02		130.144		7.449e-03		7.381
3		0.00		-9.20		3.472e-02		129.207		7.913e-03		5.547
3		0.00		-8.80		3.438e-02		128.266		8.441e-03		7.657
3		0.00		-8.40		3.343e-02		128.555		8.963e-03		8.691
3		0.00		-8.00		3.293e-02		125.586		9.282e-03		13.525
3		0.00		-7.60		3.216e-02		123.860		1.016e-02		18.098
3		0.00		-7.20		3.167e-02		127.515		9.378e-03		9.670
3		0.00		-6.80		2.941e-02		128.896		7.959e-03		7.321
3		0.00		-6.40		2.779e-02		129.594		6.753e-03		7.652
3		0.00		-6.00		2.604e-02		129.418		6.120e-03		7.203
3		0.00		-5.60		2.463e-02		129.851		5.950e-03		6.491
3		0.00		-5.20		2.275e-02		128.135		6.126e-03		8.115
3		0.00		-4.80		2.083e-02		129.273		6.290e-03		11.380
3		0.00		-4.40		1.923e-02		125.332		5.964e-03		19.514
3		0.00		-4.00		1.783e-02		126.240		5.653e-03		20.050
3		0.00		-3.60		1.672e-02		129.106		4.901e-03		10.486
3		0.00		-3.20		1.535e-02		129.767		4.226e-03		9.050
3		0.00		-2.80		1.403e-02		130.536		3.730e-03		9.351
3		0.00		-2.40		1.319e-02		129.130		3.329e-03		7.831
3		0.00		-2.00		1.182e-02		134.027		3.201e-03		9.068
3		0.00		-1.60		1.006e-02		130.286		3.067e-03		11.833
3		0.00		-1.20		9.403e-03		128.741		2.905e-03		19.272
3		0.00		-0.80		8.295e-03		130.533		2.880e-03		20.978
3		0.00		-0.40		7.177e-03		128.309		2.299e-03		21.082
4		0.00		0.00		5.978e-03		129.216		2.103e-03		19.484
4		0.00		0.40		4.925e-03		121.106		2.018e-03		43.391
4		0.00		0.80		3.860e-03		106.910		1.754e-03		64.838
4		0.00		1.20		3.243e-03		77.865		1.613e-03		83.193
4		0.00		1.60		2.389e-03		31.276		9.826e-04		105.189
4		0.00		2.00		2.046e-03		-0.682		8.377e-04		92.133
4		0.00		2.40		1.922e-03		-37.674		7.044e-04		72.683
4		0.00		2.80		2.440e-03		-63.334		1.126e-03		37.231
4		0.00		3.20		3.460e-03		-66.336		1.342e-03		30.843
4		0.00		3.60		4.727e-03		-62.737		1.814e-03		29.340
4		0.00		4.00		6.211e-03		-63.218		1.900e-03		18.142
4		0.00		4.40		8.456e-03		-54.811		2.188e-03		14.445
4		0.00		4.80		1.103e-02		-55.268		2.236e-03		13.288
4		0.00		5.20		1.425e-02		-50.260		2.713e-03		12.222
4		0.00		5.60		1.767e-02		-51.098		3.798e-03		12.573
4		0.00		6.00		2.169e-02		-50.632		5.417e-03		8.335
4		0.00		6.40		2.526e-02		-53.344		6.874e-03		11.967
4		0.00		6.80		2.786e-02		-53.621		7.918e-03		12.618
4		0.00		7.20		3.088e-02		-52.437		8.315e-03		8.218
4		0.00		7.60		3.346e-02		-52.392		8.238e-03		8.250
4		0.00		8.00		3.542e-02		-50.303		7.321e-03		8.220
4		0.00		8.40		3.746e-02		-50.929		7.747e-03		7.142
4		0.00		8.80		3.819e-02		-51.082		9.016e-03		7.370
4		0.00		9.20		3.804e-02		-51.363		9.768e-03		8.163
4		0.00		9.60		3.846e-02		-52.688		1.132e-02		11.532
4		0.00		10.00		3.783e-02		-53.284		1.152e-02		14.961
4		0.00		9.60		3.718e-02		-54.824		1.112e-02		14.012
4		0.00		9.20		3.771e-02		-52.138		1.031e-02		6.918
4		0.00		8.80		3.578e-02		-52.342		8.421e-03		6.560
4		0.00		8.40		3.585e-02		-52.227		7.324e-03		7.265
4		0.00		8.00		3.433e-02		-50.621		6.917e-03		6.939
4		0.00		7.60		3.264e-02		-51.864		7.093e-03		8.181
4		0.00		7.20		3.092e-02		-52.787		7.667e-03		8.562
4		0.00		6.80		3.025e-02		-52.028		8.369e-03		9.066
4		0.00		6.40		2.944e-02		-53.244		8.089e-03		14.603
4		0.00		6.00		2.911e-02		-52.377		7.497e-03		8.849
4		0.00		5.60		2.902e-02		-50.418		6.275e-03		6.801
4		0.00		5.20		2.941e-02		-53.045		5.366e-03		7.841
4		0.00		4.80		2.836e-02		-52.704		5.317e-03		8.151
4		0.00		4.40		2.820e-02		-49.488		5.793e-03		7.731
4		0.00		4.00		2.690e-02		-53.645		6.542e-03		8.251
4		0.00		3.60		2.635e-02		-52.532		6.945e-03		9.961
4		0.00		3.20		2.556e-02		-54.965		7.219e-03		12.923
4		0.00		2.80		2.540e-02		-53.384		6.875e-03		7.374
4		0.00		2.40		2.521e-02		-51.390		5.365e-03		7.075
4		0.00		2.00		2.495e-02		-52.634		4.944e-03		7.968
4		0.00		1.60		2.411e-02		-52.518		5.230e-03		8.854
4		0.00		1.20		2.322e-02		-52.148		5.906e-03		10.174
4		0.00		0.80		2.251e-02		-50.198		6.247e-03		10.143
4		0.00		0.40		2.221e-02		-55.283		6.361e-03		15.738
4		0.00		0.00		2.133e-02		-54.168		5.764e-03		13.217
4		0.00		-0.40		2.148e-02		-52.387		4.980e-03		8.193
4		0.00		-0.80		2.072e-02		-52.628		3.908e-03		9.030
4		0.00		-1.20		1.784e-02		-52.754		3.436e-03		9.948
4		0.00		-1.60		1.496e-02		-50.990		3.106e-03		10.694
4		0.00		-2.00		1.104e-02		-54.529		2.693e-03		11.809
4		0.00		-2.40		7.448e-03		-54.658		2.637e-03		15.835
4		0.00		-2.80		5.193e-03		-58.424		2.419e-03		28.262
4		0.00		-3.20		3.069e-03		-22.468		1.138e-03		71.829
4		0.00		-3.60		2.878e-03		42.941		1.860e-03		89.683
4		0.00		-4.00		4.180e-03		94.506		2.367e-03		74.762
4		0.00		-4.40		8.026e-03		125.958		3.406e-03		33.282
4		0.00		-4.80		1.095e-02		130.889		3.649e-03		9.963
4		0.00		-5.20		1.371e-02		129.349		4.541e-03		10.617
4		0.00		-5.60		1.629e-02		129.471		5.179e-03		12.021
4		0.00		-6.00		1.881e-02		126.867		6.378e-03		14.046
4		0.00		-6.40		2.118e-02		123.511		7.220e-03		19.169
4		0.00		-6.80		2.345e-02		125.343		8.005e-03		15.303
4		0.00		-7.20		2.587e-02		127.165		8.000e-03		8.962
4		0.00		-7.60		2.802e-02		129.836		7.916e-03		7.204
4		0.00		-8.00		2.982e-02		129.319		7.723e-03		6.044
4		0.00		-8.40		3.095e-02		128.221		7.842e-03		6.477
4		0.00		-8.80		3.211e-02		128.378		8.281e-03		6.205
4		0.00		-9.20		3.262e-02		129.731		8.554e-03		6.478
4		0.00		-9.60		2.936e-02		129.093		8.178e-03		8.727
4		0.00		-10.00		3.381e-02		126.966		9.286e-03		13.598
4		0.00		-9.60		3.204e-02		127.784		8.753e-03		14.933
4		0.00		-9.20		3.371e-02		125.230		9.275e-03		14.034
4		0.00		-8.80		3.420e-02		128.679		9.247e-03		7.904
4		0.00		-8.40		3.414e-02		127.781		8.394e-03		6.470
4		0.00		-8.00		3.414e-02		129.244		7.708e-03		6.379
4		0.00		-7.60		3.359e-02		129.446		7.279e-03		6.174
4		0.00		-7.20		3.152e-02		128.423		6.917e-03		6.631
4		0.00		-6.80		2.925e-02		130.327		6.969e-03		6.577
4		0.00		-6.40		2.787e-02		128.605		7.362e-03		6.534
4		0.00		-6.00		2.596e-02		130.306		7.489e-03		8.072
4		0.00		-5.60		2.409e-02		127.949		7.424e-03		11.349
4		0.00		-5.20		2.242e-02		125.405		7.233e-03		14.962
4		0.00		-4.80		2.120e-02		125.236		6.545e-03		15.555
4		0.00		-4.40		1.962e-02		125.244		6.311e-03		17.704
4		0.00		-4.00		1.814e-02		126.448		5.683e-03		12.499
4		0.00		-3.60		1.704e-02		130.062		5.126e-03		9.970
4		0.00		-3.20		1.562e-02		132.084		4.440e-03		8.939
4		0.00		-2.80		1.462e-02		129.811		4.121e-03		9.281
4		0.00		-2.40		1.293e-02		129.416		3.641e-03		9.208
4		0.00		-2.00		1.214e-02		135.273		3.363e-03		10.343
4		0.00		-1.60		1.073e-02		127.646		3.109e-03		10.780
4		0.00		-1.20		1.037e-02		131.737		3.037e-03		12.201
4		0.00		-0.80		8.843e-03		129.266		2.718e-03		18.560
4		0.00		-0.40		7.663e-03		128.775		2.616e-03		19.716
5		0.00		0.00		6.593e-03		130.089		2.105e-03		25.642
5		0.00		0.40		5.492e-03		126.043		2.089e-03		34.199
5		0.00		0.80		4.804e-03		118.127		1.795e-03		46.624
5		0.00		1.20		3.860e-03		108.105		1.524e-03		65.022
5		0.00		1.60		2.820e-03		80.229		1.282e-03		83.246
5		0.00		2.00		2.276e-03		15.700		1.139e-03		89.755
5		0.00		2.40		2.045e-03		-7.582		8.271e-04		92.300
5		0.00		2.80		2.088e-03		-42.980		8.619e-04		60.803
5		0.00		3.20		3.157e-03		-67.797		1.142e-03		37.003
5		0.00		3.60		4.108e-03		-70.838		1.286e-03		28.996
5		0.00		4.00		5.100e-03		-60.807		1.412e-03		20.335
5		0.00		4.40		6.992e-03		-54.467		2.001e-03		16.700
5		0.00		4.80		9.167e-03		-55.587		2.553e-03		14.985
5		0.00		5.20		1.150e-02		-57.357		3.310e-03		15.226
5		0.00		5.60		1.557e-02		-53.168		4.344e-03		9.980
5		0.00		6.00		1.838e-02		-55.151		4.852e-03		12.944
5		0.00		6.40		2.260e-02		-54.038		5.885e-03		9.353
5		0.00		6.80		2.590e-02		-54.018		6.322e-03		7.173
5		0.00		7.20		2.908e-02		-51.898		6.386e-03		7.323
5		0.00		7.60		3.415e-02		-50.997		6.763e-03		6.620
5		0.00		8.00		3.665e-02		-50.954		7.157e-03		6.358
5		0.00		8.40		3.673e-02		-50.471		7.637e-03		6.774
5		0.00		8.80		3.810e-02		-50.888		7.446e-03		7.092
5		0.00		9.20		3.979e-02		-50.597		8.274e-03		6.507
5		0.00		9.60		3.956e-02		-50.853		9.362e-03		6.756
5		0.00		10.00		3.979e-02		-50.581		1.008e-02		7.441
5		0.00		9.60		3.823e-02		-51.902		1.074e-02		8.750
5		0.00		9.20		3.696e-02		-51.350		1.071e-02		10.000
5		0.00		8.80		3.723e-02		-51.294		1.140e-02		9.760
5		0.00		8.40		3.626e-02		-52.723		1.075e-02		15.568
5		0.00		8.00		3.477e-02		-55.938		1.089e-02		19.184
5		0.00		7.60		3.378e-02		-55.133		1.030e-02		15.678
5		0.00		7.20		3.287e-02		-52.825		9.828e-03		9.806
5		0.00		6.80		3.275e-02		-51.133		8.366e-03		7.712
5		0.00		6.40		3.252e-02		-51.158		6.999e-03		7.296
5		0.00		6.00		3.189e-02		-51.059		6.013e-03		7.679
5		0.00		5.60		3.095e-02		-51.733		5.664e-03		7.217
5		0.00		5.20		3.078e-02		-51.453		5.378e-03		7.024
5		0.00		4.80		3.015e-02		-50.557		5.475e-03		7.265
5		0.00		4.40		2.993e-02		-50.946		5.197e-03		7.914
5		0.00		4.00		2.857e-02		-51.032		5.726e-03		7.382
5		0.00		3.60		2.826e-02		-49.993		5.916e-03		7.422
5		0.00		3.20		2.802e-02		-52.244		6.288e-03		7.316
5		0.00		2.80		2.690e-02		-51.023		6.555e-03		11.100
5		0.00		2.40		2.614e-02		-52.920		6.828e-03		11.777
5		0.00		2.00		2.550e-02		-54.710		7.019e-03		14.956
5		0.00		1.60		2.517e-02		-53.997		6.945e-03		14.121
5		0.00		1.20		2.537e-02		-53.335		6.914e-03		8.506
5		0.00		0.80		2.510e-02		-52.612		6.274e-03		7.908
5		0.00		0.40		2.443e-02		-52.660		5.832e-03		7.638
5		0.00		0.00		2.416e-02		-51.535		4.775e-03		8.029
5		0.00		-0.40		2.319e-02		-51.052		4.503e-03		10.220
5		0.00		-0.80		2.161e-02		-52.561		4.108e-03		8.288
5		0.00		-1.20		1.949e-02		-54.131		3.259e-03		8.663
5		0.00		-1.60		1.610e-02		-50.560		3.337e-03		10.235
5		0.00		-2.00		1.298e-02		-53.813		2.980e-03		11.582
5		0.00		-2.40		9.619e-03		-52.859		2.867e-03		14.089
5		0.00		-2.80		7.348e-03		-54.302		2.595e-03		16.177
5		0.00		-3.20		4.955e-03		-46.132		2.334e-03		36.797
5		0.00		-3.60		2.944e-03		-15.723		1.146e-03		76.952
5		0.00		-4.00		3.562e-03		69.978		2.128e-03		71.772
5		0.00		-4.40		5.605e-03		113.968		2.707e-03		54.684
5		0.00		-4.80		8.906e-03		129.710		3.493e-03		18.155
5		0.00		-5.20		1.086e-02		125.958		3.883e-03		18.939
5		0.00		-5.60		1.379e-02		126.754		4.720e-03		20.818
5		0.00		-6.00		1.728e-02		124.025		5.812e-03		21.384
5		0.00		-6.40		2.090e-02		124.770		6.941e-03		16.273
5		0.00		-6.80		2.290e-02		125.856		7.437e-03		17.305
5		0.00		-7.20		2.555e-02		125.105		8.338e-03		15.477
5		0.00		-7.60		2.678e-02		128.092		8.267e-03		8.614
5		0.00		-8.00		2.702e-02		128.185		8.043e-03		8.074
5		0.00		-8.40		3.151e-02		129.613		8.922e-03		8.459
5		0.00		-8.80		3.289e-02		130.390		8.590e-03		6.445
5		0.00		-9.20		3.399e-02		129.142		8.377e-03		6.638
5		0.00		-9.60		3.456e-02		129.129		7.710e-03		6.134
5		0.00		-10.00		3.563e-02		129.266		7.624e-03		5.379
5		0.00		-9.60		3.511e-02		129.691		7.504e-03		5.903
5		0.00		-9.20		3.405e-02		129.899		7.540e-03		6.321
5		0.00		-8.80		3.474e-02		129.368		7.857e-03		5.727
5		0.00		-8.40		3.426e-02		130.051		7.587e-03		5.926
5		0.00		-8.00		3.347e-02		128.649		8.091e-03		6.396
5		0.00		-7.60		3.228e-02		130.886		7.965e-03		6.875
5		0.00		-7.20		3.104e-02		129.927		7.635e-03		8.273
5		0.00		-6.80		2.954e-02		127.102		7.975e-03		13.169
5		0.00		-6.40		2.759e-02		126.634		7.848e-03		15.090
5		0.00		-6.00		2.602e-02		125.526		7.739e-03		17.317
5		0.00		-5.60		2.465e-02		124.669		7.330e-03		16.796
5		0.00		-5.20		2.333e-02		126.799		6.813e-03		14.308
5		0.00		-4.80		2.196e-02		128.442		6.662e-03		9.301
5		0.00		-4.40		2.046e-02		131.188		5.694e-03		8.951
5		0.00		-4.00		1.900e-02		130.081		5.109e-03		10.088
5		0.00		-3.60		1.803e-02		132.559		4.937e-03		7.563
5		0.00		-3.20		1.661e-02		129.299		4.348e-03		8.875
5		0.00		-2.80		1.522e-02		131.038		3.952e-03		9.272
5		0.00		-2.40		1.440e-02		132.647		3.546e-03		9.150
5		0.00		-2.00		1.315e-02		132.102		3.085e-03		8.482
5		0.00		-1.60		1.170e-02		133.367		3.220e-03		10.237
5		0.00		-1.20		1.038e-02		133.639		2.903e-03		10.322
5		0.00		-0.80		9.246e-03		131.661		2.581e-03		12.467
5		0.00		-0.40		8.004e-03		128.372		2.460e-03		18.529
6		0.00		0.00		6.915e-03		126.842		2.316e-03		23.157
6		0.00		0.40		5.978e-03		126.804		1.977e-03		20.894
6		0.00		0.80		5.309e-03		124.819		2.001e-03		39.053
6		0.00		1.20		4.331e-03		121.881		1.651e-03		38.169
6		0.00		1.60		3.212e-03		100.310		1.377e-03		60.790
6		0.00		2.00		2.595e-03		43.983		1.356e-03		96.360
6		0.00		2.40		2.001e-03		-3.373		7.902e-04		92.381
6		0.00		2.80		2.166e-03		-57.552		8.867e-04		64.639
6		0.00		3.20		3.825e-03		-68.608		1.250e-03		28.859
6		0.00		3.60		5.440e-03		-64.596		1.608e-03		19.149
6		0.00		4.00		7.755e-03		-57.290		1.797e-03		17.389
6		0.00		4.40		1.127e-02		-55.403		2.960e-03		11.969
6		0.00		4.80		1.465e-02		-53.016		3.850e-03		11.696
6		0.00		5.20		1.748e-02		-53.641		4.645e-03		12.097
6		0.00		5.60		1.977e-02		-53.319		5.036e-03		10.329
6		0.00		6.00		2.405e-02		-53.983		6.163e-03		10.102
6		0.00		6.40		2.682e-02		-54.414		6.621e-03		10.791
6		0.00		6.80		2.983e-02		-52.141		6.728e-03		6.725
6		0.00		7.20		3.185e-02		-52.310		6.852e-03		7.540
6		0.00		7.60		3.132e-02		-52.422		6.349e-03		7.137
6		0.00		8.00		3.482e-02		-51.587		6.644e-03		6.550
6		0.00		8.40		3.616e-02		-51.926		6.936e-03		5.883
6		0.00		8.80		3.789e-02		-50.697		7.820e-03		6.870
6		0.00		9.20		3.731e-02		-50.178		8.939e-03		6.786
6		0.00		9.60		3.949e-02		-51.051		1.029e-02		9.417
6		0.00		10.00		3.992e-02		-52.023		1.127e-02		13.646
6		0.00		9.60		3.851e-02		-53.375		1.092e-02		14.871
6		0.00		9.20		3.719e-02		-54.529		1.118e-02		13.367
6		0.00		8.80		3.810e-02		-52.248		1.026e-02		7.025
6		0.00		8.40		3.651e-02		-51.534		8.199e-03		5.977
6		0.00		8.00		3.620e-02		-51.758		7.348e-03		6.142
6		0.00		7.60		3.472e-02		-50.553		6.332e-03		6.597
6		0.00		7.20		3.421e-02		-51.243		6.996e-03		7.396
6		0.00		6.80		3.316e-02		-50.491		6.942e-03		6.216
6		0.00		6.40		3.269e-02		-52.303		7.382e-03		7.341
6		0.00		6.00		3.063e-02		-51.963		7.703e-03		9.864
6		0.00		5.60		2.972e-02		-53.078		7.500e-03		12.980
6		0.00		5.20		2.961e-02		-53.678		7.619e-03		11.671
6		0.00		4.80		2.994e-02		-50.749		6.924e-03		6.863
6		0.00		4.40		3.008e-02		-50.590		5.819e-03		6.722
6		0.00		4.00		2.950e-02		-51.724		4.961e-03		7.160
6		0.00		3.60		2.908e-02		-51.082		4.966e-03		7.154
6		0.00		3.20		2.813e-02		-51.986		5.623e-03		7.550
6		0.00		2.80		2.685e-02		-50.786		6.101e-03		8.475
6		0.00		2.40		2.603e-02		-53.427		6.753e-03		10.933
6		0.00		2.00		2.536e-02		-53.904		7.153e-03		14.354
6		0.00		1.60		2.527e-02		-51.420		6.915e-03		7.915
6		0.00		1.20		2.537e-02		-52.371		6.089e-03		7.123
6		0.00		0.80		2.549e-02		-51.793		5.276e-03		7.694
6		0.00		0.40		2.480e-02		-50.247		4.686e-03		8.703
6		0.00		0.00		2.403e-02		-50.778		5.204e-03		7.874
6		0.00		-0.40		2.263e-02		-53.293		5.744e-03		10.010
6		0.00		-0.80		2.064e-02		-53.521		5.595e-03		11.471
6		0.00		-1.20		1.868e-02		-53.725		5.454e-03		11.542
6		0.00		-1.60		1.598e-02		-55.291		4.613e-03		12.307
6		0.00		-2.00		1.297e-02		-50.582		3.298e-03		11.944
6		0.00		-2.40		9.801e-03		-53.120		2.919e-03		14.225
6		0.00		-2.80		6.037e-03		-58.472		2.309e-03		22.136
6		0.00		-3.20		3.956e-03		-35.155		1.676e-03		61.399
6		0.00		-3.60		2.812e-03		-6.069		1.186e-03		84.546
6		0.00		-4.00		2.973e-03		51.315		1.682e-03		83.454
6		0.00		-4.40		4.891e-03		112.661		2.556e-03		47.187
6		0.00		-4.80		8.607e-03		124.338		3.398e-03		30.986
6		0.00		-5.20		1.217e-02		127.371		4.003e-03		12.144
6		0.00		-5.60		1.628e-02		129.794		4.970e-03		9.468
6		0.00		-6.00		1.850e-02		131.126		5.392e-03		9.957
6		0.00		-6.40		2.098e-02		130.185		5.444e-03		6.808
6		0.00		-6.80		2.331e-02		130.280		6.043e-03		7.228
6		0.00		-7.20		2.527e-02		130.856		7.037e-03		7.946
6		0.00		-7.60		2.750e-02		128.090		8.233e-03		10.325
6		0.00		-8.00		2.653e-02		125.840		8.289e-03		19.262
6		0.00		-8.40		3.067e-02		126.080		9.468e-03		13.988
6		0.00		-8.80		3.303e-02		127.357		9.500e-03		8.481
6		0.00		-9.20		3.514e-02		129.206		9.038e-03		6.295
6		0.00		-9.60		3.528e-02		129.630		8.280e-03		6.708
6		0.00		-10.00		3.606e-02		129.055		8.382e-03		5.365
6		0.00		-9.60		3.491e-02		129.596		8.556e-03		6.821
6		0.00		-9.20		3.521e-02		129.837		8.991e-03		7.926
6		0.00		-8.80		3.444e-02		126.971		9.057e-03		13.638
6		0.00		-8.40		3.320e-02		126.501		9.195e-03		14.102
6		0.00		-8.00		3.341e-02		129.020		8.525e-03		7.186
6		0.00		-7.60		3.233e-02		129.329		7.678e-03		6.409
6		0.00		-7.20		2.964e-02		131.025		6.250e-03		6.494
6		0.00		-6.80		2.946e-02		129.836		6.236e-03		6.942
6		0.00		-6.40		2.877e-02		128.674		6.273e-03		7.175
6		0.00		-6.00		2.724e-02		129.945		6.983e-03		8.125
6		0.00		-5.60		2.438e-02		126.416		7.183e-03		15.091
6		0.00		-5.20		2.314e-02		125.478		6.869e-03		20.586
6		0.00		-4.80		2.144e-02		127.334		6.437e-03		11.527
6		0.00		-4.40		2.012e-02		129.751		5.236e-03		9.469
6		0.00		-4.00		1.861e-02		131.791		4.607e-03		8.120
6		0.00		-3.60		1.729e-02		130.660		4.640e-03		8.615
6		0.00		-3.20		1.577e-02		129.210		4.271e-03		9.167
6		0.00		-2.80		1.431e-02		130.827		4.067e-03		10.570
6		0.00		-2.40		1.322e-02		125.985		4.244e-03		17.421
6		0.00		-2.00		1.240e-02		128.864		4.142e-03		17.517
6		0.00		-1.60		1.146e-02		130.019		3.624e-03		13.178
6		0.00		-1.20		1.024e-02		130.728		3.083e-03		13.181
6		0.00		-0.80		9.072e-03		131.387		2.431e-03		14.199
6		0.00		-0.40		8.165e-03		132.152		2.387e-03		11.215
7		0.00		0.00		7.115e-03		131.155		2.401e-03		13.795
7		0.00		0.40		6.369e-03		134.574		2.216e-03		16.756
7		0.00		0.80		4.820e-03		124.202		1.938e-03		32.206
7		0.00		1.20		4.127e-03		112.914		1.658e-03		45.304
7		0.00		1.60		3.167e-03		92.992		1.450e-03		75.933
7		0.00		2.00		2.500e-03		66.538		1.254e-03		94.596
7		0.00		2.40		2.239e-03		30.530		1.045e-03		100.545
7		0.00		2.80		1.909e-03		-13.882		8.010e-04		88.587
7		0.00		3.20		2.264e-03		-44.780		1.036e-03		63.070
7		0.00		3.60		2.830e-03		-62.782		1.214e-03		44.496
7		0.00		4.00		4.551e-03		-68.616		1.623e-03		25.726
7		0.00		4.40		6.241e-03		-63.551		1.938e-03		17.149
7		0.00		4.80		9.605e-03		-59.960		2.666e-03		14.403
7		0.00		5.20		1.294e-02		-50.423		2.737e-03		10.940
7		0.00		5.60		1.705e-02		-51.956		3.245e-03		8.294
7		0.00		6.00		2.008e-02		-51.923		3.861e-03		9.697
7		0.00		6.40		2.306e-02		-51.435		4.901e-03		8.789
7		0.00		6.80		2.726e-02		-53.784		6.098e-03		7.415
7		0.00		7.20		2.970e-02		-52.732		7.477e-03		10.211
7		0.00		7.60		3.239e-02		-52.877		8.418e-03		10.876
7		0.00		8.00		3.455e-02		-52.583		8.973e-03		8.336
7		0.00		8.40		3.741e-02		-51.557		8.453e-03		5.189
7		0.00		8.80		4.016e-02		-50.866		7.466e-03		5.146
7		0.00		9.20		4.048e-02		-51.403		7.465e-03		6.541
7		0.00		9.60		4.068e-02		-50.073		8.244e-03		6.113
7		0.00		10.00		4.136e-02		-50.831		9.128e-03		6.899
7		0.00		9.60		4.004e-02		-51.129		1.007e-02		7.998
7		0.00		9.20		3.924e-02		-52.695		1.113e-02		11.215
7		0.00		8.80		3.767e-02		-52.288		1.131e-02		12.012
7		0.00		8.40		3.698e-02		-51.863		1.002e-02		6.047
7		0.00		8.00		3.674e-02		-51.995		8.880e-03		7.536
7		0.00		7.60		3.595e-02		-50.687		7.703e-03		6.926
7		0.00		7.20		3.474e-02		-51.075		7.156e-03		6.008
7		0.00		6.80		3.349e-02		-51.008		8.163e-03		6.639
7		0.00		6.40		3.221e-02		-51.459		8.610e-03		8.075
7		0.00		6.00		3.073e-02		-53.946		8.860e-03		11.521
7		0.00		5.60		2.991e-02		-54.288		8.934e-03		14.587
7		0.00		5.20		2.985e-02		-53.647		8.272e-03		10.584
7		0.00		4.80		2.985e-02		-52.118		6.591e-03		7.384
7		0.00		4.40		3.042e-02		-49.754		5.426e-03		6.747
7		0.00		4.00		3.017e-02		-50.996		5.006e-03		7.309
7		0.00		3.60		2.975e-02		-50.666		5.157e-03		7.427
7		0.00		3.20		2.908e-02		-50.219		5.340e-03		6.698
7		0.00		2.80		2.769e-02		-50.153		5.833e-03		7.931
7		0.00		2.40		2.784e-02		-51.470		6.319e-03		9.695
7		0.00		2.00		2.738e-02		-52.772		6.614e-03		10.338
7		0.00		1.60		2.649e-02		-53.003		6.590e-03		12.425
7		0.00		1.20		2.614e-02		-52.438		6.099e-03		8.240
7		0.00		0.80		2.591e-02		-51.271		5.558e-03		6.853
7		0.00		0.40		2.655e-02		-50.918		4.849e-03		6.103
7		0.00		0.00		2.588e-02		-50.863		4.514e-03		8.856
7		0.00		-0.40		2.464e-02		-51.263		4.221e-03		7.899
7		0.00		-0.80		2.309e-02		-51.743		4.563e-03		9.488
7		0.00		-1.20		2.080e-02		-50.918		5.024e-03		7.278
7		0.00		-1.60		1.731e-02		-52.565		4.596e-03		11.341
7		0.00		-2.00		1.465e-02		-54.066		4.071e-03		12.094
7		0.00		-2.40		1.137e-02		-55.989		3.564e-03		11.740
7		0.00		-2.80		7.540e-03		-58.752		2.809e-03		16.851
7		0.00		-3.20		5.109e-03		-71.075		2.179e-03		28.002
7		0.00		-3.60		3.273e-03		-11.525		1.493e-03		71.980
7		0.00		-4.00		3.064e-03		40.741		1.608e-03		89.589
7		0.00		-4.40		5.829e-03		121.925		2.969e-03		36.642
7		0.00		-4.80		8.541e-03		128.046		3.359e-03		29.422
7		0.00		-5.20		1.191e-02		130.460		3.837e-03		11.202
7		0.00		-5.60		1.463e-02		126.520		4.561e-03		12.178
7		0.00		-6.00		1.699e-02		127.988		5.267e-03		13.816
7		0.00		-6.40		1.992e-02		127.097		5.814e-03		17.300
7		0.00		-6.80		2.273e-02		127.639		6.392e-03		12.132
7		0.00		-7.20		2.491e-02		128.065		7.340e-03		9.423
7		0.00		-7.60		2.669e-02		128.345		7.442e-03		6.116
7		0.00		-8.00		2.940e-02		128.750		7.650e-03		7.934
7		0.00		-8.40		3.129e-02		128.755		7.790e-03		6.201
7		0.00		-8.80		3.211e-02		128.150		8.140e-03		5.703
7		0.00		-9.20		3.269e-02		129.161		8.117e-03		6.482
7		0.00		-9.60		3.397e-02		129.427		9.038e-03		6.258
7		0.00		-10.00		3.446e-02		128.386		1.015e-02		7.677
7		0.00		-9.60		3.389e-02		127.665		1.030e-02		10.835
7		0.00		-9.20		3.226e-02		125.789		1.022e-02		16.983
7		0.00		-8.80		3.205e-02		125.678		9.616e-03		16.423
7		0.00		-8.40		3.246e-02		127.875		9.129e-03		10.502
7		0.00		-8.00		3.136e-02		128.968		7.774e-03		6.630
7		0.00		-7.60		3.143e-02		131.072		7.492e-03		6.860
7		0.00		-7.20		2.992e-02		129.871		6.791e-03		6.860
7		0.00		-6.80		2.951e-02		129.856		6.326e-03		6.520
7		0.00		-6.40		2.734e-02		131.358		5.934e-03		6.851
7		0.00		-6.00		2.595e-02		129.500		5.558e-03		6.035
7		0.00		-5.60		2.406e-02		130.588		5.722e-03		6.170
7		0.00		-5.20		2.229e-02		129.706		5.568e-03		8.277
7		0.00		-4.80		2.095e-02		126.505		5.561e-03		10.953
7		0.00		-4.40		1.920e-02		125.046		5.615e-03		18.900
7		0.00		-4.00		1.796e-02		128.120		5.489e-03		16.009
7		0.00		-3.60		1.646e-02		127.504		5.084e-03		15.177
7		0.00		-3.20		1.523e-02		130.727		4.339e-03		10.911
7		0.00		-2.80		1.449e-02		131.181		4.008e-03		9.355
7		0.00		-2.40		1.285e-02		132.016		3.254e-03		11.189
7		0.00		-2.00		1.199e-02		133.135		3.334e-03		10.547
7		0.00		-1.60		1.071e-02		132.946		2.904e-03		10.025
7		0.00		-1.20		9.895e-03		135.682		2.893e-03		9.831
7		0.00		-0.80		8.656e-03		132.112		2.782e-03		16.959
7		0.00		-0.40		7.733e-03		126.340		2.494e-03		26.801
8		0.00		0.00		7.008e-03		129.436		2.306e-03		27.864
8		0.00		0.40		6.009e-03		129.246		1.912e-03		24.353
8		0.00		0.80		4.955e-03		120.783		1.863e-03		43.946
8		0.00		1.20		3.910e-03		108.186		1.579e-03		49.065
8		0.00		1.60		3.074e-03		86.063		1.518e-03		75.834
8		0.00		2.00		2.630e-03		70.592		1.309e-03		80.011
8		0.00		2.40		2.129e-03		6.419		9.779e-04		96.027
8		0.00		2.80		1.879e-03		-36.259		7.662e-04		72.662
8		0.00		3.20		2.143e-03		-65.335		9.351e-04		51.687
8		0.00		3.60		2.935e-03		-69.688		1.226e-03		38.485
8		0.00		4.00		4.114e-03		-67.292		1.379e-03		24.888
8		0.00		4.40		6.071e-03		-58.361		1.855e-03		18.267
8		0.00		4.80		7.409e-03		-57.453		2.073e-03		17.078
8		0.00		5.20		1.063e-02		-53.501		3.083e-03		14.164
8		0.00		5.60		1.348e-02		-52.621		3.959e-03		12.469
8		0.00		6.00		1.765e-02		-52.062		5.179e-03		13.531
8		0.00		6.40		2.118e-02		-53.737		5.720e-03		9.617
8		0.00		6.80		2.515e-02		-54.635		6.704e-03		7.096
8		0.00		7.20		2.959e-02		-50.719		6.811e-03		6.640
8		0.00		7.60		3.322e-02		-51.666		6.559e-03		6.746
8		0.00		8.00		3.511e-02		-51.841		6.661e-03		6.687
8		0.00		8.40		3.735e-02		-50.501		6.907e-03		6.224
8		0.00		8.80		3.828e-02		-49.894		7.472e-03		6.805
8		0.00		9.20		3.811e-02		-51.323		8.245e-03		7.682
8		0.00		9.60		4.052e-02		-50.508		9.324e-03		6.436
8		0.00		10.00		4.156e-02		-50.464		1.020e-02		7.697
8		0.00		9.60		4.037e-02		-51.550		1.054e-02		9.626
8		0.00		9.20		4.056e-02		-52.251		1.062e-02		10.925
8		0.00		8.80		3.770e-02		-53.126		1.008e-02		14.852
8		0.00		8.40		3.675e-02		-54.078		1.028e-02		11.962
8		0.00		8.00		3.549e-02		-52.410		9.488e-03		7.475
8		0.00		7.60		3.521e-02		-51.158		8.314e-03		5.879
8		0.00		7.20		3.470e-02		-52.445		7.042e-03		6.649
8		0.00		6.80		3.381e-02		-51.098		6.524e-03		6.099
8		0.00		6.40		3.292e-02		-49.630		5.722e-03		7.013
8		0.00		6.00		3.188e-02		-51.534		6.210e-03		7.850
8		0.00		5.60		3.138e-02		-49.898		6.626e-03		6.215
8		0.00		5.20		2.978e-02		-50.647		6.718e-03		7.943
8		0.00		4.80		2.935e-02		-51.411		7.116e-03		7.941
8		0.00		4.40		2.853e-02		-53.820		7.444e-03		10.014
8		0.00		4.00		2.867e-02		-52.155		7.262e-03		11.701
8		0.00		3.60		2.800e-02		-51.748		7.048e-03		9.273
8		0.00		3.20		2.791e-02		-51.993		6.781e-03		8.045
8		0.00		2.80		2.783e-02		-50.494		5.864e-03		6.582
8		0.00		2.40		2.842e-02		-49.462		5.440e-03		6.749
8		0.00		2.00		2.775e-02		-49.836		4.964e-03		6.334
8		0.00		1.60		2.773e-02		-51.288		4.606e-03		6.764
8		0.00		1.20		2.688e-02		-49.896		4.909e-03		6.389
8		0.00		0.80		2.605e-02		-51.343		5.280e-03		6.746
8		0.00		0.40		2.556e-02		-50.238		5.922e-03		8.265
8		0.00		0.00		2.468e-02		-52.294		6.379e-03		9.198
8		0.00		-0.40		2.326e-02		-54.165		6.578e-03		12.762
8		0.00		-0.80		2.189e-02		-52.759		6.211e-03		8.477
8		0.00		-1.20		1.931e-02		-54.103		5.094e-03		9.220
8		0.00		-1.60		1.630e-02		-51.233		4.030e-03		8.911
8		0.00		-2.00		1.374e-02		-54.168		3.327e-03		10.804
8		0.00		-2.40		1.099e-02		-53.778		2.591e-03		11.806
8		0.00		-2.80		7.053e-03		-52.926		2.448e-03		18.591
8		0.00		-3.20		4.662e-03		-54.563		1.921e-03		42.642
8		0.00		-3.60		3.098e-03		-34.127		1.277e-03		80.969
8		0.00		-4.00		2.899e-03		32.394		1.629e-03		94.367
8		0.00		-4.40		4.952e-03		113.637		2.765e-03		58.167
8		0.00		-4.80		7.853e-03		125.728		3.184e-03		30.461
8		0.00		-5.20		1.206e-02		133.184		4.330e-03		12.483
8		0.00		-5.60		1.524e-02		129.596		4.876e-03		10.462
8		0.00		-6.00		1.876e-02		130.555		5.158e-03		7.150
8		0.00		-6.40		2.042e-02		131.183		5.054e-03		6.170
8		0.00		-6.80		2.387e-02		127.900		5.684e-03		6.559
8		0.00		-7.20		2.603e-02		130.880		6.344e-03		7.328
8		0.00		-7.60		2.811e-02		129.600		7.337e-03		6.995
8		0.00		-8.00		2.904e-02		127.747		8.342e-03		13.489
8		0.00		-8.40		3.059e-02		125.836		9.051e-03		19.121
8		0.00		-8.80		3.128e-02		126.214		9.449e-03		14.349
8		0.00		-9.20		3.240e-02		128.998		9.193e-03		7.280
8		0.00		-9.60		3.412e-02		128.628		8.305e-03		6.222
8		0.00		-10.00		3.626e-02		129.400		8.476e-03		6.634
8		0.00		-9.60		3.517e-02		129.287		7.981e-03		5.540
8		0.00		-9.20		3.415e-02		128.701		8.593e-03		7.106
8		0.00		-8.80		3.313e-02		128.721		8.944e-03		7.196
8		0.00		-8.40		3.271e-02		127.656		9.629e-03		9.969
8		0.00		-8.00		3.283e-02		125.105		9.621e-03		16.108
8		0.00		-7.60		3.206e-02		126.444		8.925e-03		13.644
8		0.00		-7.20		3.157e-02		128.140		8.369e-03		9.776
8		0.00		-6.80		2.979e-02		130.528		6.877e-03		7.009
8		0.00		-6.40		2.796e-02		130.705		6.194e-03		6.990
8		0.00		-6.00		2.640e-02		132.269		5.604e-03		5.490
8		0.00		-5.60		2.482e-02		131.038		5.382e-03		6.186
8		0.00		-5.20		2.310e-02		128.667		5.400e-03		7.287
8		0.00		-4.80		2.166e-02		130.418		5.271e-03		7.685
8		0.00		-4.40		1.972e-02		130.283		5.008e-03		11.592
8		0.00		-4.00		1.785e-02		128.574		5.252e-03		13.999
8		0.00		-3.60		1.682e-02		125.986		5.141e-03		15.321
8		0.00		-3.20		1.510e-02		129.462		4.736e-03		12.916
8		0.00		-2.80		1.403e-02		128.503		4.494e-03		10.989
8		0.00		-2.40		1.293e-02		130.213		3.842e-03		11.420
8		0.00		-2.00		1.163e-02		131.581		3.383e-03		11.583
8		0.00		-1.60		1.084e-02		130.035		3.367e-03		9.507
8		0.00		-1.20		9.722e-03		134.281		2.806e-03		11.209
8		0.00		-0.80		8.632e-03		131.337		2.888e-03		12.246
8		0.00		-0.40		7.812e-03		130.806		2.681e-03		13.896
