# Date of analysis: 2024-03-08 10;59
# Segment other properties: height: -63.024798461953445, diff height: 541.3209327375106, deflection: 33.275917433307946, deflection error: 3.2690163444526337, adhesion: 47.218666309808924, phase offset: 0
# 
# Loop index	Read Volt (V)	Write Volt (V)	Amplitude (a.u)	Phase (deg)	Sigma Amp (a.u)	Sigma Pha (deg)	
1		0.00		0.00		1.276e-02		-47.226		2.833e-03		12.547
1		0.00		0.40		1.252e-02		-50.043		3.012e-03		10.275
1		0.00		0.80		1.245e-02		-46.426		3.076e-03		13.303
1		0.00		1.20		1.250e-02		-44.979		3.059e-03		11.355
1		0.00		1.60		1.236e-02		-48.696		3.222e-03		11.496
1		0.00		2.00		1.231e-02		-46.492		3.118e-03		11.714
1		0.00		2.40		1.247e-02		-48.864		3.336e-03		10.867
1		0.00		2.80		1.187e-02		-49.734		2.847e-03		12.130
1		0.00		3.20		1.234e-02		-47.677		3.243e-03		13.423
1		0.00		3.60		1.279e-02		-43.076		2.956e-03		13.585
1		0.00		4.00		1.326e-02		-46.246		3.470e-03		11.034
1		0.00		4.40		1.365e-02		-47.665		3.319e-03		14.410
1		0.00		4.80		1.394e-02		-48.963		3.215e-03		11.143
1		0.00		5.20		1.470e-02		-47.504		3.787e-03		12.826
1		0.00		5.60		1.562e-02		-46.919		3.682e-03		11.900
1		0.00		6.00		1.656e-02		-48.293		4.049e-03		11.420
1		0.00		6.40		1.721e-02		-50.728		4.194e-03		13.421
1		0.00		6.80		1.771e-02		-49.646		4.319e-03		12.027
1		0.00		7.20		1.882e-02		-51.247		4.375e-03		12.066
1		0.00		7.60		1.965e-02		-51.377		5.168e-03		13.347
1		0.00		8.00		2.003e-02		-50.772		5.208e-03		12.157
1		0.00		8.40		2.133e-02		-50.469		5.542e-03		11.111
1		0.00		8.80		2.225e-02		-52.499		5.994e-03		13.273
1		0.00		9.20		2.372e-02		-50.616		6.650e-03		12.374
1		0.00		9.60		2.560e-02		-52.492		7.157e-03		11.527
1		0.00		10.00		2.696e-02		-51.647		7.635e-03		10.519
1		0.00		9.60		2.761e-02		-51.019		7.918e-03		9.828
1		0.00		9.20		2.884e-02		-53.705		7.888e-03		10.474
1		0.00		8.80		2.918e-02		-49.513		7.769e-03		9.569
1		0.00		8.40		2.954e-02		-51.358		7.107e-03		8.808
1		0.00		8.00		2.934e-02		-52.894		6.878e-03		9.063
1		0.00		7.60		2.945e-02		-53.038		6.411e-03		8.535
1		0.00		7.20		2.927e-02		-52.766		6.443e-03		8.129
1		0.00		6.80		2.933e-02		-52.637		6.091e-03		7.820
1		0.00		6.40		2.855e-02		-53.202		5.671e-03		7.894
1		0.00		6.00		2.834e-02		-52.042		5.530e-03		7.824
1		0.00		5.60		2.856e-02		-51.780		5.566e-03		8.067
1		0.00		5.20		2.771e-02		-51.469		5.212e-03		8.787
1		0.00		4.80		2.780e-02		-51.193		5.452e-03		7.894
1		0.00		4.40		2.716e-02		-52.444		5.496e-03		8.869
1		0.00		4.00		2.653e-02		-50.494		5.813e-03		7.431
1		0.00		3.60		2.721e-02		-50.396		5.910e-03		8.606
1		0.00		3.20		2.593e-02		-51.552		5.776e-03		8.937
1		0.00		2.80		2.589e-02		-49.358		6.112e-03		10.347
1		0.00		2.40		2.622e-02		-50.885		6.013e-03		9.247
1		0.00		2.00		2.555e-02		-50.730		6.200e-03		10.311
1		0.00		1.60		2.531e-02		-51.337		6.322e-03		9.634
1		0.00		1.20		2.507e-02		-49.840		6.498e-03		12.730
1		0.00		0.80		2.516e-02		-50.540		6.165e-03		12.618
1		0.00		0.40		2.527e-02		-50.071		6.269e-03		11.741
1		0.00		0.00		2.569e-02		-48.609		6.140e-03		10.344
1		0.00		-0.40		2.576e-02		-49.164		6.224e-03		11.490
1		0.00		-0.80		2.484e-02		-50.437		6.316e-03		11.931
1		0.00		-1.20		2.530e-02		-49.702		6.149e-03		9.952
1		0.00		-1.60		2.489e-02		-50.306		6.338e-03		9.912
1		0.00		-2.00		2.453e-02		-50.544		6.121e-03		8.987
1		0.00		-2.40		2.434e-02		-50.183		5.934e-03		10.470
1		0.00		-2.80		2.332e-02		-51.241		5.522e-03		9.901
1		0.00		-3.20		2.380e-02		-49.649		5.266e-03		8.761
1		0.00		-3.60		2.323e-02		-50.338		4.805e-03		8.098
1		0.00		-4.00		2.218e-02		-52.598		4.545e-03		8.684
1		0.00		-4.40		2.106e-02		-49.697		4.546e-03		9.725
1		0.00		-4.80		2.089e-02		-51.757		4.092e-03		6.715
1		0.00		-5.20		1.905e-02		-49.359		4.054e-03		9.809
1		0.00		-5.60		1.821e-02		-50.139		3.515e-03		9.702
1		0.00		-6.00		1.582e-02		-47.483		3.566e-03		9.936
1		0.00		-6.40		1.405e-02		-46.487		3.266e-03		11.256
1		0.00		-6.80		1.146e-02		-46.678		2.724e-03		11.402
1		0.00		-7.20		8.263e-03		-42.980		2.205e-03		13.742
1		0.00		-7.60		5.607e-03		-40.141		1.722e-03		19.043
1		0.00		-8.00		2.945e-03		-13.191		1.170e-03		29.230
1		0.00		-8.40		1.996e-03		9.674		8.249e-04		57.891
1		0.00		-8.80		3.045e-03		83.332		1.277e-03		41.835
1		0.00		-9.20		5.074e-03		115.766		1.635e-03		20.421
1		0.00		-9.60		7.369e-03		116.457		2.073e-03		13.557
1		0.00		-10.00		9.671e-03		119.844		2.220e-03		12.660
1		0.00		-9.60		1.048e-02		122.982		2.638e-03		11.097
1		0.00		-9.20		1.116e-02		125.097		2.487e-03		10.567
1		0.00		-8.80		1.086e-02		120.270		2.678e-03		15.772
1		0.00		-8.40		1.060e-02		122.239		2.979e-03		12.011
1		0.00		-8.00		1.032e-02		122.213		2.995e-03		16.612
1		0.00		-7.60		1.000e-02		123.770		3.258e-03		20.419
1		0.00		-7.20		1.013e-02		119.804		3.126e-03		21.541
1		0.00		-6.80		9.726e-03		120.293		3.183e-03		24.312
1		0.00		-6.40		9.317e-03		120.144		3.047e-03		16.371
1		0.00		-6.00		9.308e-03		122.364		2.596e-03		12.394
1		0.00		-5.60		9.281e-03		123.985		2.665e-03		11.353
1		0.00		-5.20		9.081e-03		123.380		2.587e-03		14.319
1		0.00		-4.80		8.964e-03		123.675		2.287e-03		11.821
1		0.00		-4.40		8.726e-03		121.119		2.204e-03		14.882
1		0.00		-4.00		8.542e-03		125.690		2.349e-03		10.982
1		0.00		-3.60		8.269e-03		122.792		2.360e-03		18.629
1		0.00		-3.20		8.416e-03		122.562		2.457e-03		19.923
1		0.00		-2.80		8.000e-03		120.164		2.503e-03		21.763
1		0.00		-2.40		8.201e-03		118.638		2.318e-03		20.485
1		0.00		-2.00		8.034e-03		119.009		2.323e-03		12.066
1		0.00		-1.60		7.875e-03		121.993		2.020e-03		15.767
1		0.00		-1.20		7.705e-03		120.494		2.134e-03		13.517
1		0.00		-0.80		7.648e-03		123.133		1.832e-03		11.590
1		0.00		-0.40		8.065e-03		124.873		1.981e-03		16.003
2		0.00		0.00		7.874e-03		119.448		2.197e-03		16.369
2		0.00		0.40		7.060e-03		123.148		2.006e-03		16.151
2		0.00		0.80		7.262e-03		121.199		2.173e-03		15.481
2		0.00		1.20		7.021e-03		119.371		2.104e-03		16.895
2		0.00		1.60		6.618e-03		123.443		2.183e-03		21.497
2		0.00		2.00		6.219e-03		120.615		1.789e-03		15.908
2		0.00		2.40		5.602e-03		113.703		2.003e-03		24.919
2		0.00		2.80		4.631e-03		121.074		1.563e-03		19.466
2		0.00		3.20		4.168e-03		120.884		1.441e-03		21.470
2		0.00		3.60		3.492e-03		100.064		1.342e-03		43.744
2		0.00		4.00		2.733e-03		99.827		1.081e-03		50.816
2		0.00		4.40		1.819e-03		22.164		7.986e-04		77.397
2		0.00		4.80		1.775e-03		9.596		6.765e-04		66.482
2		0.00		5.20		1.757e-03		-22.572		8.129e-04		65.061
2		0.00		5.60		2.331e-03		-28.542		9.334e-04		49.196
2		0.00		6.00		3.301e-03		-42.227		1.293e-03		26.715
2		0.00		6.40		4.045e-03		-51.259		1.337e-03		18.227
2		0.00		6.80		4.939e-03		-54.996		1.529e-03		14.060
2		0.00		7.20		5.633e-03		-54.350		1.554e-03		18.038
2		0.00		7.60		7.214e-03		-52.829		1.740e-03		14.074
2		0.00		8.00		7.732e-03		-48.397		2.064e-03		13.863
2		0.00		8.40		9.060e-03		-45.903		2.531e-03		13.118
2		0.00		8.80		9.998e-03		-51.344		2.811e-03		16.136
2		0.00		9.20		1.230e-02		-49.685		3.713e-03		15.137
2		0.00		9.60		1.464e-02		-47.247		4.590e-03		13.892
2		0.00		10.00		1.802e-02		-48.645		5.330e-03		12.788
2		0.00		9.60		1.925e-02		-52.936		5.501e-03		8.385
2		0.00		9.20		2.036e-02		-52.151		5.176e-03		10.234
2		0.00		8.80		2.082e-02		-53.043		5.009e-03		9.445
2		0.00		8.40		2.141e-02		-52.426		4.835e-03		8.865
2		0.00		8.00		2.144e-02		-50.095		4.748e-03		11.422
2		0.00		7.60		2.150e-02		-52.093		4.500e-03		10.060
2		0.00		7.20		2.100e-02		-52.026		4.652e-03		9.792
2		0.00		6.80		2.068e-02		-51.524		5.365e-03		11.390
2		0.00		6.40		2.063e-02		-51.720		5.338e-03		13.199
2		0.00		6.00		2.030e-02		-52.707		5.399e-03		10.752
2		0.00		5.60		2.015e-02		-51.732		5.074e-03		10.534
2		0.00		5.20		2.024e-02		-54.517		4.559e-03		8.492
2		0.00		4.80		2.014e-02		-49.787		3.983e-03		9.361
2		0.00		4.40		1.958e-02		-50.341		4.027e-03		9.330
2		0.00		4.00		1.967e-02		-51.514		4.440e-03		10.312
2		0.00		3.60		1.865e-02		-50.738		4.979e-03		11.137
2		0.00		3.20		1.867e-02		-53.162		5.259e-03		14.431
2		0.00		2.80		1.832e-02		-50.578		5.465e-03		14.520
2		0.00		2.40		1.815e-02		-52.065		5.367e-03		12.264
2		0.00		2.00		1.840e-02		-49.295		5.215e-03		10.003
2		0.00		1.60		1.849e-02		-51.320		4.467e-03		8.794
2		0.00		1.20		1.770e-02		-51.030		3.975e-03		10.617
2		0.00		0.80		1.779e-02		-50.766		4.276e-03		9.172
2		0.00		0.40		1.760e-02		-54.196		4.546e-03		12.438
2		0.00		0.00		1.717e-02		-46.754		4.589e-03		10.777
2		0.00		-0.40		1.749e-02		-49.221		4.691e-03		12.786
2		0.00		-0.80		1.761e-02		-47.336		4.805e-03		10.294
2		0.00		-1.20		1.785e-02		-50.176		4.650e-03		9.096
2		0.00		-1.60		1.721e-02		-51.421		4.172e-03		9.613
2		0.00		-2.00		1.704e-02		-50.397		3.660e-03		8.999
2		0.00		-2.40		1.673e-02		-49.776		3.826e-03		10.323
2		0.00		-2.80		1.609e-02		-47.594		3.690e-03		12.556
2		0.00		-3.20		1.563e-02		-49.983		4.144e-03		12.680
2		0.00		-3.60		1.533e-02		-47.375		4.170e-03		14.556
2		0.00		-4.00		1.499e-02		-49.155		4.042e-03		9.330
2		0.00		-4.40		1.413e-02		-46.250		3.957e-03		8.994
2		0.00		-4.80		1.333e-02		-50.181		3.129e-03		11.172
2		0.00		-5.20		1.252e-02		-49.998		3.138e-03		10.672
2		0.00		-5.60		1.132e-02		-47.712		2.900e-03		12.146
2		0.00		-6.00		9.963e-03		-46.481		3.004e-03		16.526
2		0.00		-6.40		8.289e-03		-49.119		2.500e-03		18.252
2		0.00		-6.80		6.721e-03		-44.364		2.299e-03		17.208
2		0.00		-7.20		4.936e-03		-40.458		1.682e-03		21.466
2		0.00		-7.60		2.891e-03		-33.337		1.198e-03		32.858
2		0.00		-8.00		1.784e-03		-14.972		7.566e-04		59.876
2		0.00		-8.40		2.350e-03		85.993		9.713e-04		37.870
2		0.00		-8.80		3.956e-03		109.807		1.259e-03		33.615
2		0.00		-9.20		5.758e-03		113.010		1.690e-03		24.174
2		0.00		-9.60		7.937e-03		121.344		2.436e-03		24.141
2		0.00		-10.00		9.638e-03		124.138		2.784e-03		18.176
2		0.00		-9.60		1.154e-02		121.922		3.122e-03		13.502
2		0.00		-9.20		1.202e-02		118.716		3.189e-03		10.154
2		0.00		-8.80		1.252e-02		124.323		2.957e-03		9.042
2		0.00		-8.40		1.220e-02		125.647		3.058e-03		9.508
2		0.00		-8.00		1.210e-02		124.890		2.865e-03		11.775
2		0.00		-7.60		1.166e-02		127.825		2.950e-03		13.526
2		0.00		-7.20		1.069e-02		125.460		3.099e-03		16.994
2		0.00		-6.80		1.108e-02		123.866		3.384e-03		18.930
2		0.00		-6.40		1.023e-02		118.365		3.248e-03		21.264
2		0.00		-6.00		1.040e-02		122.896		3.295e-03		12.462
2		0.00		-5.60		1.001e-02		124.167		2.650e-03		10.616
2		0.00		-5.20		9.987e-03		123.093		2.543e-03		10.663
2		0.00		-4.80		9.889e-03		123.707		2.614e-03		11.138
2		0.00		-4.40		9.571e-03		124.725		2.406e-03		10.315
2		0.00		-4.00		9.150e-03		125.568		2.474e-03		14.349
2		0.00		-3.60		9.173e-03		123.087		2.663e-03		14.996
2		0.00		-3.20		9.187e-03		117.510		2.797e-03		16.283
2		0.00		-2.80		8.884e-03		125.031		2.549e-03		17.454
2		0.00		-2.40		8.864e-03		126.244		2.465e-03		13.059
2		0.00		-2.00		8.943e-03		124.623		2.301e-03		14.419
2		0.00		-1.60		8.686e-03		124.685		2.050e-03		12.212
2		0.00		-1.20		8.735e-03		124.629		2.098e-03		12.230
2		0.00		-0.80		8.723e-03		121.227		2.171e-03		13.751
2		0.00		-0.40		8.469e-03		124.468		2.341e-03		16.289
3		0.00		0.00		8.570e-03		121.113		2.395e-03		19.005
3		0.00		0.40		8.171e-03		120.943		2.384e-03		21.000
3		0.00		0.80		8.474e-03		122.817		2.677e-03		11.730
3		0.00		1.20		7.603e-03		122.450		2.220e-03		13.124
3		0.00		1.60		7.500e-03		124.317		2.054e-03		13.550
3		0.00		2.00		6.960e-03		122.869		2.286e-03		15.397
3		0.00		2.40		6.417e-03		127.522		2.025e-03		16.395
3		0.00		2.80		5.906e-03		119.245		1.868e-03		21.929
3		0.00		3.20		4.790e-03		115.400		1.602e-03		36.641
3		0.00		3.60		3.943e-03		101.870		1.512e-03		55.750
3		0.00		4.00		3.682e-03		102.081		1.384e-03		47.751
3		0.00		4.40		2.662e-03		88.939		1.069e-03		67.144
3		0.00		4.80		1.886e-03		51.736		8.482e-04		76.103
3		0.00		5.20		1.716e-03		21.981		7.612e-04		73.689
3		0.00		5.60		1.926e-03		-31.458		7.323e-04		66.461
3		0.00		6.00		2.236e-03		-49.176		9.579e-04		56.088
3		0.00		6.40		2.743e-03		-58.291		1.142e-03		33.791
3		0.00		6.80		3.434e-03		-57.924		1.295e-03		28.897
3		0.00		7.20		4.294e-03		-47.753		1.266e-03		24.129
3		0.00		7.60		5.896e-03		-44.466		1.821e-03		17.559
3		0.00		8.00		7.107e-03		-48.399		1.796e-03		13.725
3		0.00		8.40		7.736e-03		-51.636		1.762e-03		14.914
3		0.00		8.80		8.627e-03		-55.952		2.032e-03		14.705
3		0.00		9.20		1.089e-02		-50.909		2.923e-03		11.990
3		0.00		9.60		1.290e-02		-53.278		3.644e-03		15.562
3		0.00		10.00		1.438e-02		-48.855		4.363e-03		13.365
3		0.00		9.60		1.623e-02		-49.530		4.428e-03		10.081
3		0.00		9.20		1.754e-02		-51.687		4.266e-03		9.441
3		0.00		8.80		1.797e-02		-52.979		4.424e-03		10.971
3		0.00		8.40		1.852e-02		-52.783		4.468e-03		8.591
3		0.00		8.00		1.815e-02		-52.300		4.979e-03		12.515
3		0.00		7.60		1.796e-02		-51.881		5.184e-03		13.476
3		0.00		7.20		1.837e-02		-50.933		5.394e-03		14.111
3		0.00		6.80		1.825e-02		-50.995		4.508e-03		10.055
3		0.00		6.40		1.842e-02		-51.373		4.006e-03		8.396
3		0.00		6.00		1.787e-02		-49.011		3.891e-03		9.721
3		0.00		5.60		1.755e-02		-48.956		3.969e-03		11.590
3		0.00		5.20		1.734e-02		-49.122		4.503e-03		13.672
3		0.00		4.80		1.725e-02		-49.648		4.560e-03		13.381
3		0.00		4.40		1.749e-02		-51.323		4.683e-03		11.757
3		0.00		4.00		1.731e-02		-48.582		4.116e-03		10.451
3		0.00		3.60		1.753e-02		-49.307		3.753e-03		9.049
3		0.00		3.20		1.707e-02		-48.292		3.485e-03		10.237
3		0.00		2.80		1.702e-02		-49.406		3.769e-03		9.912
3		0.00		2.40		1.687e-02		-51.831		4.111e-03		12.907
3		0.00		2.00		1.658e-02		-50.413		4.708e-03		9.676
3		0.00		1.60		1.624e-02		-51.323		4.842e-03		11.580
3		0.00		1.20		1.651e-02		-50.451		4.548e-03		10.326
3		0.00		0.80		1.670e-02		-51.851		3.992e-03		10.696
3		0.00		0.40		1.640e-02		-50.124		3.826e-03		9.039
3		0.00		0.00		1.628e-02		-47.966		3.815e-03		11.533
3		0.00		-0.40		1.579e-02		-50.359		4.356e-03		12.195
3		0.00		-0.80		1.517e-02		-48.116		4.425e-03		17.629
3		0.00		-1.20		1.550e-02		-50.492		4.341e-03		10.235
3		0.00		-1.60		1.556e-02		-50.660		4.324e-03		10.002
3		0.00		-2.00		1.504e-02		-49.249		3.247e-03		9.663
3		0.00		-2.40		1.489e-02		-46.898		2.904e-03		10.212
3		0.00		-2.80		1.453e-02		-49.928		3.008e-03		10.677
3		0.00		-3.20		1.417e-02		-48.808		3.341e-03		10.413
3		0.00		-3.60		1.382e-02		-47.697		3.360e-03		11.751
3		0.00		-4.00		1.310e-02		-48.243		3.567e-03		11.658
3		0.00		-4.40		1.258e-02		-49.677		3.027e-03		10.514
3		0.00		-4.80		1.142e-02		-50.709		2.463e-03		13.958
3		0.00		-5.20		1.135e-02		-46.449		2.615e-03		10.979
3		0.00		-5.60		1.019e-02		-46.292		2.351e-03		11.381
3		0.00		-6.00		8.897e-03		-43.623		2.354e-03		14.298
3		0.00		-6.40		8.040e-03		-45.954		2.103e-03		12.639
3		0.00		-6.80		6.338e-03		-43.811		1.990e-03		20.109
3		0.00		-7.20		4.688e-03		-45.875		1.712e-03		17.803
3		0.00		-7.60		2.710e-03		-47.145		1.201e-03		31.398
3		0.00		-8.00		2.063e-03		-2.495		9.180e-04		55.521
3		0.00		-8.40		2.177e-03		52.604		9.274e-04		64.527
3		0.00		-8.80		4.203e-03		117.787		1.423e-03		29.294
3		0.00		-9.20		6.253e-03		119.808		1.925e-03		20.008
3		0.00		-9.60		8.999e-03		123.267		2.684e-03		19.049
3		0.00		-10.00		1.090e-02		121.258		3.236e-03		15.171
3		0.00		-9.60		1.245e-02		123.418		2.912e-03		9.536
3		0.00		-9.20		1.269e-02		127.392		2.850e-03		9.530
3		0.00		-8.80		1.234e-02		126.430		2.488e-03		9.489
3		0.00		-8.40		1.272e-02		127.183		2.712e-03		8.764
3		0.00		-8.00		1.226e-02		124.639		3.083e-03		14.309
3		0.00		-7.60		1.209e-02		125.770		3.214e-03		16.435
3		0.00		-7.20		1.133e-02		125.123		3.166e-03		17.515
3		0.00		-6.80		1.107e-02		123.578		3.003e-03		10.202
3		0.00		-6.40		1.128e-02		121.974		2.672e-03		10.316
3		0.00		-6.00		1.087e-02		124.048		2.621e-03		10.161
3		0.00		-5.60		1.052e-02		124.579		2.450e-03		12.336
3		0.00		-5.20		1.032e-02		121.913		2.935e-03		16.235
3		0.00		-4.80		9.688e-03		124.171		2.806e-03		18.692
3		0.00		-4.40		9.824e-03		121.519		2.932e-03		16.395
3		0.00		-4.00		9.973e-03		121.739		2.911e-03		11.069
3		0.00		-3.60		9.532e-03		122.604		2.569e-03		10.844
3		0.00		-3.20		9.231e-03		122.991		2.332e-03		12.126
3		0.00		-2.80		9.242e-03		125.852		2.256e-03		11.832
3		0.00		-2.40		9.270e-03		126.418		2.638e-03		11.948
3		0.00		-2.00		9.136e-03		121.688		2.733e-03		18.981
3		0.00		-1.60		8.677e-03		124.592		2.778e-03		20.439
3		0.00		-1.20		8.747e-03		120.866		2.288e-03		13.002
3		0.00		-0.80		9.132e-03		122.002		2.256e-03		11.343
3		0.00		-0.40		9.125e-03		121.870		2.123e-03		11.451
4		0.00		0.00		8.677e-03		126.080		2.216e-03		13.888
4		0.00		0.40		8.382e-03		125.770		2.251e-03		11.656
4		0.00		0.80		7.984e-03		124.495		2.240e-03		19.799
4		0.00		1.20		8.298e-03		120.814		2.307e-03		17.665
4		0.00		1.60		7.733e-03		121.677		2.282e-03		12.048
4		0.00		2.00		7.476e-03		125.461		2.056e-03		14.659
4		0.00		2.40		6.869e-03		123.814		1.652e-03		12.987
4		0.00		2.80		6.423e-03		125.756		1.598e-03		12.697
4		0.00		3.20		5.601e-03		124.905		1.585e-03		15.381
4		0.00		3.60		4.804e-03		117.688		1.522e-03		23.492
4		0.00		4.00		3.821e-03		108.876		1.519e-03		47.582
4		0.00		4.40		3.050e-03		103.364		1.128e-03		48.695
4		0.00		4.80		2.518e-03		80.530		9.821e-04		79.994
4		0.00		5.20		1.736e-03		51.350		7.745e-04		71.537
4		0.00		5.60		1.778e-03		-8.306		6.681e-04		78.872
4		0.00		6.00		1.697e-03		-24.503		7.686e-04		62.489
4		0.00		6.40		2.290e-03		-39.831		7.858e-04		58.958
4		0.00		6.80		3.215e-03		-54.136		1.084e-03		31.731
4		0.00		7.20		3.461e-03		-38.286		1.352e-03		30.880
4		0.00		7.60		4.493e-03		-52.830		1.452e-03		21.455
4		0.00		8.00		5.662e-03		-57.167		1.732e-03		21.192
4		0.00		8.40		6.685e-03		-54.864		1.842e-03		13.337
4		0.00		8.80		8.137e-03		-46.955		2.021e-03		13.860
4		0.00		9.20		1.045e-02		-50.774		2.137e-03		11.841
4		0.00		9.60		1.143e-02		-52.469		2.460e-03		10.438
4		0.00		10.00		1.446e-02		-50.258		2.894e-03		9.493
4		0.00		9.60		1.506e-02		-50.981		3.027e-03		10.397
4		0.00		9.20		1.577e-02		-50.008		3.480e-03		10.606
4		0.00		8.80		1.589e-02		-50.279		4.095e-03		12.908
4		0.00		8.40		1.624e-02		-52.276		4.563e-03		11.425
4		0.00		8.00		1.648e-02		-48.410		4.742e-03		11.874
4		0.00		7.60		1.641e-02		-49.160		4.823e-03		11.380
4		0.00		7.20		1.620e-02		-49.967		4.490e-03		9.528
4		0.00		6.80		1.654e-02		-49.300		4.254e-03		9.022
4		0.00		6.40		1.637e-02		-52.123		3.977e-03		10.018
4		0.00		6.00		1.640e-02		-53.728		3.930e-03		9.050
4		0.00		5.60		1.628e-02		-52.211		3.979e-03		9.948
4		0.00		5.20		1.605e-02		-53.337		3.845e-03		8.264
4		0.00		4.80		1.579e-02		-52.223		3.432e-03		11.504
4		0.00		4.40		1.557e-02		-51.346		3.529e-03		10.581
4		0.00		4.00		1.520e-02		-47.779		3.666e-03		10.219
4		0.00		3.60		1.549e-02		-48.829		3.594e-03		10.943
4		0.00		3.20		1.526e-02		-47.646		3.796e-03		11.577
4		0.00		2.80		1.518e-02		-50.142		3.717e-03		13.790
4		0.00		2.40		1.508e-02		-49.323		4.057e-03		11.215
4		0.00		2.00		1.503e-02		-48.324		3.832e-03		12.433
4		0.00		1.60		1.505e-02		-51.165		3.863e-03		12.505
4		0.00		1.20		1.504e-02		-49.540		3.680e-03		8.019
4		0.00		0.80		1.504e-02		-49.456		3.717e-03		11.422
4		0.00		0.40		1.480e-02		-49.723		3.656e-03		8.588
4		0.00		0.00		1.471e-02		-50.427		3.223e-03		8.705
4		0.00		-0.40		1.475e-02		-52.375		3.145e-03		9.702
4		0.00		-0.80		1.481e-02		-49.647		3.256e-03		9.440
4		0.00		-1.20		1.408e-02		-52.026		3.296e-03		12.063
4		0.00		-1.60		1.382e-02		-49.496		2.971e-03		11.135
4		0.00		-2.00		1.367e-02		-49.983		3.083e-03		11.771
4		0.00		-2.40		1.328e-02		-49.922		2.944e-03		10.732
4		0.00		-2.80		1.262e-02		-49.749		2.959e-03		11.977
4		0.00		-3.20		1.250e-02		-48.047		3.153e-03		11.521
4		0.00		-3.60		1.251e-02		-51.352		3.141e-03		13.170
4		0.00		-4.00		1.198e-02		-51.566		3.198e-03		13.645
4		0.00		-4.40		1.120e-02		-49.788		2.828e-03		15.547
4		0.00		-4.80		1.062e-02		-46.463		2.846e-03		13.493
4		0.00		-5.20		9.868e-03		-46.745		2.611e-03		15.816
4		0.00		-5.60		8.930e-03		-49.865		2.214e-03		10.691
4		0.00		-6.00		8.445e-03		-43.398		2.203e-03		12.031
4		0.00		-6.40		6.675e-03		-42.042		2.000e-03		15.320
4		0.00		-6.80		5.776e-03		-42.766		1.594e-03		17.903
4		0.00		-7.20		4.629e-03		-43.849		1.433e-03		26.157
4		0.00		-7.60		2.910e-03		-36.870		1.101e-03		32.072
4		0.00		-8.00		1.958e-03		-10.038		8.028e-04		54.594
4		0.00		-8.40		1.940e-03		40.674		7.644e-04		72.190
4		0.00		-8.80		3.018e-03		99.902		1.218e-03		35.190
4		0.00		-9.20		5.679e-03		117.966		1.620e-03		19.701
4		0.00		-9.60		7.762e-03		124.897		2.062e-03		12.693
4		0.00		-10.00		1.001e-02		125.294		2.659e-03		13.919
4		0.00		-9.60		1.101e-02		124.329		3.277e-03		15.195
4		0.00		-9.20		1.141e-02		126.675		3.216e-03		12.864
4		0.00		-8.80		1.146e-02		125.745		2.977e-03		13.875
4		0.00		-8.40		1.137e-02		124.817		3.039e-03		16.779
4		0.00		-8.00		1.126e-02		123.699		3.215e-03		16.326
4		0.00		-7.60		1.124e-02		123.869		3.025e-03		17.177
4		0.00		-7.20		1.098e-02		121.645		3.139e-03		17.721
4		0.00		-6.80		1.098e-02		121.402		2.938e-03		16.532
4		0.00		-6.40		1.067e-02		120.728		2.869e-03		14.126
4		0.00		-6.00		1.070e-02		123.923		2.768e-03		10.653
4		0.00		-5.60		1.035e-02		123.830		2.766e-03		14.266
4		0.00		-5.20		1.003e-02		122.333		2.501e-03		11.948
4		0.00		-4.80		9.899e-03		124.872		2.567e-03		11.984
4		0.00		-4.40		9.852e-03		126.728		2.605e-03		9.878
4		0.00		-4.00		9.836e-03		126.461		2.412e-03		12.836
4		0.00		-3.60		9.504e-03		123.116		2.550e-03		13.546
4		0.00		-3.20		9.497e-03		122.605		2.451e-03		12.174
4		0.00		-2.80		9.496e-03		123.593		2.336e-03		10.980
4		0.00		-2.40		9.590e-03		127.067		2.482e-03		12.245
4		0.00		-2.00		9.201e-03		126.057		2.105e-03		11.019
4		0.00		-1.60		9.179e-03		126.136		1.929e-03		10.926
4		0.00		-1.20		8.897e-03		126.738		2.159e-03		11.066
4		0.00		-0.80		9.155e-03		123.460		1.982e-03		10.522
4		0.00		-0.40		9.353e-03		123.077		2.216e-03		12.424
5		0.00		0.00		9.268e-03		121.994		2.273e-03		13.235
5		0.00		0.40		8.851e-03		130.142		2.139e-03		13.580
5		0.00		0.80		8.228e-03		125.519		2.100e-03		12.349
5		0.00		1.20		8.187e-03		121.937		1.760e-03		14.109
5		0.00		1.60		8.296e-03		126.430		2.029e-03		13.204
5		0.00		2.00		7.378e-03		126.933		1.889e-03		12.805
5		0.00		2.40		6.881e-03		128.486		1.871e-03		13.412
5		0.00		2.80		6.126e-03		126.283		1.743e-03		20.204
5		0.00		3.20		5.487e-03		126.663		1.544e-03		17.680
5		0.00		3.60		4.638e-03		125.384		1.376e-03		19.562
5		0.00		4.00		3.852e-03		117.440		1.400e-03		44.291
5		0.00		4.40		3.112e-03		92.982		1.260e-03		58.904
5		0.00		4.80		2.663e-03		97.588		1.087e-03		49.972
5		0.00		5.20		1.924e-03		55.476		8.206e-04		73.429
5		0.00		5.60		1.557e-03		10.648		6.122e-04		84.409
5		0.00		6.00		1.684e-03		-16.681		7.339e-04		70.227
5		0.00		6.40		2.033e-03		-41.349		8.484e-04		64.494
5		0.00		6.80		2.586e-03		-54.884		1.009e-03		42.923
5		0.00		7.20		3.227e-03		-54.814		1.510e-03		32.687
5		0.00		7.60		3.906e-03		-57.741		1.409e-03		25.777
5		0.00		8.00		4.822e-03		-43.722		1.554e-03		26.876
5		0.00		8.40		5.810e-03		-53.320		1.745e-03		21.318
5		0.00		8.80		7.272e-03		-47.697		2.094e-03		17.535
5		0.00		9.20		8.972e-03		-51.600		2.410e-03		13.775
5		0.00		9.60		9.994e-03		-52.251		2.621e-03		11.215
5		0.00		10.00		1.207e-02		-46.128		3.068e-03		8.069
5		0.00		9.60		1.300e-02		-52.615		3.330e-03		11.033
5		0.00		9.20		1.430e-02		-51.713		3.534e-03		10.973
5		0.00		8.80		1.485e-02		-51.554		3.554e-03		9.780
5		0.00		8.40		1.512e-02		-48.238		3.589e-03		9.808
5		0.00		8.00		1.545e-02		-48.893		3.515e-03		10.947
5		0.00		7.60		1.505e-02		-52.004		3.431e-03		10.271
5		0.00		7.20		1.516e-02		-53.856		3.152e-03		9.720
5		0.00		6.80		1.505e-02		-52.936		3.155e-03		8.837
5		0.00		6.40		1.479e-02		-48.004		2.962e-03		10.355
5		0.00		6.00		1.487e-02		-52.580		3.209e-03		10.352
5		0.00		5.60		1.433e-02		-49.086		3.079e-03		10.620
5		0.00		5.20		1.450e-02		-51.416		2.727e-03		8.937
5		0.00		4.80		1.424e-02		-50.615		2.669e-03		10.269
5		0.00		4.40		1.413e-02		-49.347		2.926e-03		10.084
5		0.00		4.00		1.440e-02		-48.447		2.991e-03		10.259
5		0.00		3.60		1.397e-02		-49.122		3.013e-03		10.302
5		0.00		3.20		1.362e-02		-48.758		3.024e-03		12.512
5		0.00		2.80		1.317e-02		-50.643		3.197e-03		11.669
5		0.00		2.40		1.361e-02		-47.861		2.928e-03		10.671
5		0.00		2.00		1.307e-02		-47.674		3.213e-03		8.869
5		0.00		1.60		1.361e-02		-49.169		3.538e-03		12.663
5		0.00		1.20		1.273e-02		-53.247		3.467e-03		15.772
5		0.00		0.80		1.245e-02		-49.246		3.622e-03		12.967
5		0.00		0.40		1.291e-02		-48.474		3.783e-03		14.685
5		0.00		0.00		1.268e-02		-50.782		3.814e-03		14.468
5		0.00		-0.40		1.249e-02		-50.825		3.749e-03		14.894
5		0.00		-0.80		1.259e-02		-48.319		3.665e-03		11.422
5		0.00		-1.20		1.210e-02		-51.163		3.749e-03		13.886
5		0.00		-1.60		1.225e-02		-48.233		3.631e-03		11.736
5		0.00		-2.00		1.168e-02		-50.842		3.210e-03		13.013
5		0.00		-2.40		1.214e-02		-48.413		2.964e-03		10.588
5		0.00		-2.80		1.168e-02		-48.297		2.781e-03		11.933
5		0.00		-3.20		1.123e-02		-48.726		2.564e-03		11.580
5		0.00		-3.60		1.073e-02		-47.574		2.561e-03		11.463
5		0.00		-4.00		1.066e-02		-50.873		2.284e-03		10.776
5		0.00		-4.40		1.037e-02		-49.656		2.147e-03		12.833
5		0.00		-4.80		9.665e-03		-49.287		2.123e-03		10.745
5		0.00		-5.20		9.036e-03		-46.863		2.005e-03		11.151
5		0.00		-5.60		7.710e-03		-42.262		1.679e-03		13.998
5		0.00		-6.00		7.222e-03		-47.306		1.486e-03		11.042
5		0.00		-6.40		6.207e-03		-38.269		1.510e-03		19.463
5		0.00		-6.80		5.190e-03		-41.274		1.348e-03		17.801
5		0.00		-7.20		3.869e-03		-37.938		1.048e-03		27.279
5		0.00		-7.60		2.164e-03		-7.596		8.933e-04		58.466
5		0.00		-8.00		1.808e-03		8.473		7.953e-04		64.439
5		0.00		-8.40		1.985e-03		61.575		8.311e-04		66.347
5		0.00		-8.80		3.118e-03		105.254		1.240e-03		35.640
5		0.00		-9.20		5.017e-03		118.654		1.604e-03		22.794
5		0.00		-9.60		7.109e-03		126.006		1.773e-03		18.794
5		0.00		-10.00		9.885e-03		123.556		2.348e-03		13.637
5		0.00		-9.60		1.092e-02		127.335		2.666e-03		13.155
5		0.00		-9.20		1.127e-02		125.852		2.669e-03		13.235
5		0.00		-8.80		1.157e-02		125.892		2.945e-03		16.098
5		0.00		-8.40		1.138e-02		127.913		2.853e-03		15.615
5		0.00		-8.00		1.164e-02		125.688		3.168e-03		17.532
5		0.00		-7.60		1.147e-02		125.096		2.839e-03		18.076
5		0.00		-7.20		1.140e-02		125.049		3.029e-03		16.333
5		0.00		-6.80		1.124e-02		124.324		2.843e-03		19.789
5		0.00		-6.40		1.120e-02		126.822		3.016e-03		17.343
5		0.00		-6.00		1.096e-02		125.733		2.850e-03		14.271
5		0.00		-5.60		1.034e-02		121.092		2.982e-03		17.034
5		0.00		-5.20		1.035e-02		123.004		3.184e-03		12.447
5		0.00		-4.80		1.003e-02		125.473		2.661e-03		11.940
5		0.00		-4.40		1.008e-02		125.537		2.944e-03		16.622
5		0.00		-4.00		9.677e-03		123.222		3.003e-03		11.431
5		0.00		-3.60		9.911e-03		125.714		2.974e-03		10.026
5		0.00		-3.20		9.434e-03		124.974		2.590e-03		11.390
5		0.00		-2.80		9.768e-03		124.284		2.620e-03		9.216
5		0.00		-2.40		9.639e-03		126.615		2.562e-03		10.418
5		0.00		-2.00		9.004e-03		128.466		2.517e-03		10.886
5		0.00		-1.60		9.132e-03		124.559		2.057e-03		12.011
5		0.00		-1.20		9.347e-03		125.019		2.047e-03		10.167
5		0.00		-0.80		9.578e-03		124.189		2.224e-03		9.967
5		0.00		-0.40		9.011e-03		127.958		2.035e-03		11.657
6		0.00		0.00		9.088e-03		127.327		2.019e-03		10.676
6		0.00		0.40		9.201e-03		125.711		2.014e-03		10.370
6		0.00		0.80		9.208e-03		125.145		2.162e-03		12.613
6		0.00		1.20		8.940e-03		127.022		1.854e-03		11.792
6		0.00		1.60		8.384e-03		124.511		1.896e-03		15.171
6		0.00		2.00		7.809e-03		125.625		2.043e-03		15.645
6		0.00		2.40		7.555e-03		124.921		1.821e-03		12.403
6		0.00		2.80		6.737e-03		124.303		1.767e-03		15.485
6		0.00		3.20		5.847e-03		122.411		1.552e-03		16.962
6		0.00		3.60		5.313e-03		124.394		1.683e-03		32.620
6		0.00		4.00		4.149e-03		117.588		1.575e-03		39.492
6		0.00		4.40		3.303e-03		106.760		1.296e-03		58.208
6		0.00		4.80		2.816e-03		99.984		1.093e-03		59.372
6		0.00		5.20		2.384e-03		78.550		1.100e-03		66.969
6		0.00		5.60		1.884e-03		36.223		8.944e-04		79.285
6		0.00		6.00		1.833e-03		-19.992		7.155e-04		75.235
6		0.00		6.40		2.138e-03		-28.441		8.630e-04		54.923
6		0.00		6.80		2.633e-03		-43.762		1.082e-03		39.344
6		0.00		7.20		2.947e-03		-58.163		1.064e-03		38.354
6		0.00		7.60		3.781e-03		-57.823		1.370e-03		22.302
6		0.00		8.00		4.776e-03		-52.251		1.408e-03		26.762
6		0.00		8.40		5.990e-03		-48.883		1.715e-03		20.505
6		0.00		8.80		6.546e-03		-47.892		1.730e-03		16.318
6		0.00		9.20		8.123e-03		-44.622		2.249e-03		17.996
6		0.00		9.60		9.511e-03		-52.642		2.651e-03		11.793
6		0.00		10.00		1.104e-02		-47.692		3.049e-03		9.436
6		0.00		9.60		1.226e-02		-48.630		3.359e-03		9.825
6		0.00		9.20		1.264e-02		-49.717		3.540e-03		11.574
6		0.00		8.80		1.310e-02		-51.700		3.771e-03		11.389
6		0.00		8.40		1.342e-02		-50.481		3.523e-03		11.542
6		0.00		8.00		1.368e-02		-51.943		3.697e-03		9.562
6		0.00		7.60		1.380e-02		-53.145		3.547e-03		9.346
6		0.00		7.20		1.342e-02		-49.767		3.186e-03		10.626
6		0.00		6.80		1.368e-02		-51.571		3.347e-03		10.354
6		0.00		6.40		1.354e-02		-53.097		2.927e-03		9.512
6		0.00		6.00		1.369e-02		-50.385		2.939e-03		11.351
6		0.00		5.60		1.340e-02		-49.485		2.748e-03		9.352
6		0.00		5.20		1.360e-02		-50.854		2.664e-03		10.150
6		0.00		4.80		1.333e-02		-50.177		2.786e-03		11.267
6		0.00		4.40		1.322e-02		-51.216		2.815e-03		10.361
6		0.00		4.00		1.297e-02		-50.215		2.819e-03		10.475
6		0.00		3.60		1.293e-02		-50.818		2.790e-03		11.288
6		0.00		3.20		1.278e-02		-47.210		2.907e-03		10.933
6		0.00		2.80		1.272e-02		-50.534		2.918e-03		13.260
6		0.00		2.40		1.277e-02		-51.816		2.788e-03		11.552
6		0.00		2.00		1.261e-02		-51.724		3.099e-03		13.852
6		0.00		1.60		1.213e-02		-52.087		3.068e-03		11.289
6		0.00		1.20		1.215e-02		-45.833		3.096e-03		11.659
6		0.00		0.80		1.200e-02		-51.458		3.283e-03		13.292
6		0.00		0.40		1.190e-02		-48.364		3.285e-03		12.896
6		0.00		0.00		1.179e-02		-48.747		3.219e-03		14.452
6		0.00		-0.40		1.177e-02		-47.981		3.189e-03		11.543
6		0.00		-0.80		1.123e-02		-47.339		3.236e-03		17.672
6		0.00		-1.20		1.152e-02		-44.716		3.101e-03		14.565
6		0.00		-1.60		1.143e-02		-46.974		3.105e-03		13.422
6		0.00		-2.00		1.145e-02		-50.702		2.887e-03		14.617
6		0.00		-2.40		1.092e-02		-52.330		2.778e-03		13.388
6		0.00		-2.80		1.163e-02		-49.964		2.775e-03		12.484
6		0.00		-3.20		1.068e-02		-46.615		2.511e-03		10.861
6		0.00		-3.60		1.083e-02		-48.860		2.716e-03		11.380
6		0.00		-4.00		1.030e-02		-49.329		2.385e-03		10.907
6		0.00		-4.40		9.302e-03		-41.788		2.119e-03		12.228
6		0.00		-4.80		9.013e-03		-55.216		1.928e-03		11.328
6		0.00		-5.20		8.361e-03		-45.166		1.813e-03		11.070
6		0.00		-5.60		8.022e-03		-48.402		1.829e-03		14.722
6		0.00		-6.00		6.658e-03		-45.458		1.794e-03		12.721
6		0.00		-6.40		5.824e-03		-49.531		1.625e-03		17.577
6		0.00		-6.80		4.668e-03		-46.422		1.505e-03		22.242
6		0.00		-7.20		3.197e-03		-43.853		1.150e-03		28.234
6		0.00		-7.60		2.334e-03		-40.465		1.021e-03		42.395
6		0.00		-8.00		1.711e-03		-9.162		7.147e-04		69.408
6		0.00		-8.40		1.916e-03		46.419		7.969e-04		82.373
6		0.00		-8.80		3.387e-03		110.967		1.281e-03		42.328
6		0.00		-9.20		4.800e-03		114.025		1.539e-03		31.694
6		0.00		-9.60		6.553e-03		121.745		1.720e-03		17.600
6		0.00		-10.00		8.281e-03		127.913		2.292e-03		19.867
6		0.00		-9.60		9.132e-03		125.385		2.405e-03		16.189
6		0.00		-9.20		1.013e-02		128.562		2.489e-03		16.651
6		0.00		-8.80		1.058e-02		122.067		2.758e-03		15.883
6		0.00		-8.40		1.126e-02		124.757		3.096e-03		14.127
6		0.00		-8.00		1.149e-02		121.756		2.947e-03		12.542
6		0.00		-7.60		1.138e-02		125.681		2.750e-03		12.274
6		0.00		-7.20		1.116e-02		123.019		2.929e-03		10.266
6		0.00		-6.80		1.100e-02		123.161		2.828e-03		12.091
6		0.00		-6.40		1.047e-02		124.901		2.610e-03		10.535
6		0.00		-6.00		1.009e-02		123.407		2.701e-03		12.083
6		0.00		-5.60		1.050e-02		124.716		2.580e-03		8.221
6		0.00		-5.20		1.025e-02		125.801		2.442e-03		10.806
6		0.00		-4.80		1.007e-02		124.495		2.249e-03		11.549
6		0.00		-4.40		1.019e-02		126.974		2.131e-03		9.860
6		0.00		-4.00		9.902e-03		125.464		2.333e-03		10.683
6		0.00		-3.60		1.008e-02		124.854		2.258e-03		10.533
6		0.00		-3.20		9.813e-03		124.301		2.276e-03		12.187
6		0.00		-2.80		9.213e-03		127.075		2.184e-03		10.359
6		0.00		-2.40		9.411e-03		124.803		2.006e-03		9.757
6		0.00		-2.00		9.316e-03		125.950		1.873e-03		11.789
6		0.00		-1.60		9.009e-03		125.014		2.226e-03		13.602
6		0.00		-1.20		9.184e-03		126.399		2.357e-03		12.687
6		0.00		-0.80		8.970e-03		126.378		2.328e-03		13.550
6		0.00		-0.40		9.051e-03		124.334		2.143e-03		13.065
7		0.00		0.00		8.875e-03		125.486		2.002e-03		14.012
7		0.00		0.40		8.495e-03		126.163		2.230e-03		16.146
7		0.00		0.80		8.701e-03		124.570		2.306e-03		16.600
7		0.00		1.20		8.118e-03		125.162		2.200e-03		20.314
7		0.00		1.60		7.837e-03		128.626		2.373e-03		17.270
7		0.00		2.00		7.444e-03		120.686		2.013e-03		19.193
7		0.00		2.40		6.945e-03		122.059		2.089e-03		17.670
7		0.00		2.80		6.323e-03		121.977		2.057e-03		29.928
7		0.00		3.20		5.605e-03		124.722		1.737e-03		16.393
7		0.00		3.60		5.306e-03		119.029		1.929e-03		19.270
7		0.00		4.00		4.341e-03		124.449		1.434e-03		33.877
7		0.00		4.40		3.480e-03		107.936		1.140e-03		54.636
7		0.00		4.80		2.538e-03		96.604		1.055e-03		52.310
7		0.00		5.20		2.119e-03		62.847		8.292e-04		70.738
7		0.00		5.60		1.820e-03		-7.938		7.855e-04		73.630
7		0.00		6.00		1.596e-03		-11.251		7.199e-04		77.081
7		0.00		6.40		2.102e-03		-41.508		7.733e-04		54.486
7		0.00		6.80		2.900e-03		-55.359		1.032e-03		38.147
7		0.00		7.20		3.263e-03		-57.177		1.154e-03		28.577
7		0.00		7.60		4.074e-03		-55.624		1.353e-03		24.189
7		0.00		8.00		4.600e-03		-44.875		1.485e-03		25.964
7		0.00		8.40		5.152e-03		-51.687		1.574e-03		20.626
7		0.00		8.80		6.829e-03		-46.917		1.867e-03		17.429
7		0.00		9.20		7.844e-03		-55.768		2.393e-03		16.632
7		0.00		9.60		9.526e-03		-49.366		2.558e-03		9.959
7		0.00		10.00		1.119e-02		-53.108		3.271e-03		16.762
7		0.00		9.60		1.268e-02		-50.922		3.397e-03		14.639
7		0.00		9.20		1.323e-02		-51.924		3.477e-03		10.015
7		0.00		8.80		1.399e-02		-52.087		3.599e-03		10.207
7		0.00		8.40		1.410e-02		-49.688		3.602e-03		10.597
7		0.00		8.00		1.431e-02		-51.567		3.383e-03		9.561
7		0.00		7.60		1.473e-02		-50.219		3.083e-03		9.338
7		0.00		7.20		1.441e-02		-52.641		3.020e-03		7.417
7		0.00		6.80		1.449e-02		-52.910		2.733e-03		9.844
7		0.00		6.40		1.422e-02		-50.056		2.840e-03		8.997
7		0.00		6.00		1.422e-02		-50.293		2.718e-03		10.962
7		0.00		5.60		1.408e-02		-51.328		2.705e-03		9.866
7		0.00		5.20		1.392e-02		-49.019		2.774e-03		8.715
7		0.00		4.80		1.362e-02		-49.044		2.785e-03		11.908
7		0.00		4.40		1.354e-02		-48.295		2.892e-03		10.365
7		0.00		4.00		1.328e-02		-49.376		2.947e-03		9.891
7		0.00		3.60		1.277e-02		-49.790		2.999e-03		9.810
7		0.00		3.20		1.274e-02		-46.776		3.194e-03		11.190
7		0.00		2.80		1.271e-02		-46.562		3.124e-03		15.662
7		0.00		2.40		1.231e-02		-47.523		3.395e-03		14.098
7		0.00		2.00		1.204e-02		-51.489		3.653e-03		13.470
7		0.00		1.60		1.205e-02		-46.824		3.448e-03		14.587
7		0.00		1.20		1.175e-02		-46.232		3.298e-03		12.392
7		0.00		0.80		1.200e-02		-50.487		3.596e-03		11.585
7		0.00		0.40		1.162e-02		-48.311		3.384e-03		11.896
7		0.00		0.00		1.186e-02		-46.434		3.077e-03		11.198
7		0.00		-0.40		1.187e-02		-52.322		2.957e-03		11.613
7		0.00		-0.80		1.183e-02		-49.178		2.663e-03		11.595
7		0.00		-1.20		1.190e-02		-47.520		2.382e-03		12.848
7		0.00		-1.60		1.209e-02		-47.457		2.491e-03		10.609
7		0.00		-2.00		1.178e-02		-51.204		2.509e-03		10.577
7		0.00		-2.40		1.109e-02		-52.229		2.393e-03		11.605
7		0.00		-2.80		1.102e-02		-46.817		2.441e-03		13.080
7		0.00		-3.20		1.087e-02		-47.000		2.490e-03		13.872
7		0.00		-3.60		1.026e-02		-46.436		2.279e-03		12.365
7		0.00		-4.00		9.529e-03		-44.285		2.147e-03		11.936
7		0.00		-4.40		9.456e-03		-48.718		2.512e-03		14.417
7		0.00		-4.80		8.899e-03		-48.822		2.567e-03		13.530
7		0.00		-5.20		8.161e-03		-40.975		2.309e-03		17.518
7		0.00		-5.60		7.781e-03		-44.087		2.226e-03		13.144
7		0.00		-6.00		6.488e-03		-49.369		1.884e-03		14.477
7		0.00		-6.40		5.802e-03		-48.549		1.950e-03		17.890
7		0.00		-6.80		4.867e-03		-41.834		1.560e-03		20.553
7		0.00		-7.20		4.138e-03		-47.681		1.378e-03		25.428
7		0.00		-7.60		2.500e-03		-22.909		1.100e-03		40.470
7		0.00		-8.00		1.615e-03		-7.290		6.651e-04		70.499
7		0.00		-8.40		1.806e-03		61.593		7.775e-04		64.998
7		0.00		-8.80		2.987e-03		94.476		1.023e-03		38.746
7		0.00		-9.20		4.649e-03		123.486		1.455e-03		17.875
7		0.00		-9.60		6.518e-03		123.889		1.685e-03		17.922
7		0.00		-10.00		9.392e-03		120.048		2.691e-03		18.014
7		0.00		-9.60		1.037e-02		125.180		2.594e-03		18.853
7		0.00		-9.20		1.073e-02		123.514		2.788e-03		16.435
7		0.00		-8.80		1.175e-02		124.584		3.019e-03		11.894
7		0.00		-8.40		1.173e-02		123.012		2.909e-03		10.619
7		0.00		-8.00		1.192e-02		124.129		2.593e-03		9.441
7		0.00		-7.60		1.163e-02		122.734		2.773e-03		10.836
7		0.00		-7.20		1.174e-02		124.959		2.915e-03		12.334
7		0.00		-6.80		1.074e-02		125.622		2.769e-03		12.785
7		0.00		-6.40		1.054e-02		127.988		2.670e-03		11.203
7		0.00		-6.00		1.012e-02		122.469		2.916e-03		13.575
7		0.00		-5.60		1.008e-02		123.675		3.049e-03		15.641
7		0.00		-5.20		1.006e-02		123.556		3.064e-03		20.824
7		0.00		-4.80		9.469e-03		122.620		2.756e-03		17.367
7		0.00		-4.40		9.370e-03		123.507		2.900e-03		16.289
7		0.00		-4.00		9.223e-03		123.094		2.830e-03		12.307
7		0.00		-3.60		9.261e-03		126.730		2.124e-03		10.006
7		0.00		-3.20		9.301e-03		123.458		2.468e-03		9.929
7		0.00		-2.80		9.457e-03		122.394		1.932e-03		12.059
7		0.00		-2.40		9.046e-03		128.009		2.174e-03		11.036
7		0.00		-2.00		9.311e-03		126.911		2.125e-03		11.472
7		0.00		-1.60		8.580e-03		124.616		2.364e-03		14.787
7		0.00		-1.20		8.802e-03		123.439		2.430e-03		14.652
7		0.00		-0.80		8.180e-03		123.725		2.158e-03		19.254
7		0.00		-0.40		8.742e-03		124.917		2.356e-03		16.239
8		0.00		0.00		8.319e-03		118.344		2.375e-03		23.303
8		0.00		0.40		8.966e-03		123.199		2.357e-03		11.325
8		0.00		0.80		8.615e-03		125.871		2.059e-03		10.412
8		0.00		1.20		8.501e-03		130.994		2.123e-03		12.045
8		0.00		1.60		7.958e-03		121.672		1.954e-03		11.661
8		0.00		2.00		7.430e-03		125.384		1.785e-03		13.933
8		0.00		2.40		7.080e-03		129.016		1.901e-03		12.725
8		0.00		2.80		6.671e-03		126.858		1.715e-03		14.720
8		0.00		3.20		5.941e-03		124.636		1.810e-03		15.782
8		0.00		3.60		5.072e-03		120.872		1.646e-03		19.315
8		0.00		4.00		4.156e-03		116.010		1.555e-03		37.651
8		0.00		4.40		3.739e-03		108.940		1.363e-03		33.447
8		0.00		4.80		2.843e-03		106.109		1.025e-03		40.849
8		0.00		5.20		2.302e-03		65.478		1.068e-03		78.180
8		0.00		5.60		1.845e-03		45.016		8.037e-04		74.450
8		0.00		6.00		1.700e-03		-5.780		7.204e-04		72.215
8		0.00		6.40		1.827e-03		-25.421		6.708e-04		73.333
8		0.00		6.80		2.343e-03		-47.954		9.893e-04		45.895
8		0.00		7.20		2.957e-03		-56.396		1.100e-03		30.916
8		0.00		7.60		3.793e-03		-49.488		1.323e-03		27.380
8		0.00		8.00		4.192e-03		-49.920		1.267e-03		25.358
8		0.00		8.40		5.113e-03		-46.244		1.444e-03		18.259
8		0.00		8.80		6.835e-03		-48.486		1.697e-03		16.023
8		0.00		9.20		8.048e-03		-52.717		1.880e-03		13.549
8		0.00		9.60		9.348e-03		-51.507		2.159e-03		12.688
8		0.00		10.00		1.111e-02		-49.802		2.508e-03		11.014
8		0.00		9.60		1.173e-02		-49.580		2.883e-03		12.478
8		0.00		9.20		1.210e-02		-50.816		3.412e-03		13.252
8		0.00		8.80		1.225e-02		-50.920		3.365e-03		12.347
8		0.00		8.40		1.278e-02		-51.353		3.665e-03		11.698
8		0.00		8.00		1.329e-02		-48.704		3.610e-03		11.269
8		0.00		7.60		1.320e-02		-51.964		3.077e-03		9.235
8		0.00		7.20		1.326e-02		-51.201		2.875e-03		9.955
8		0.00		6.80		1.294e-02		-52.861		2.565e-03		11.786
8		0.00		6.40		1.330e-02		-51.959		2.865e-03		12.221
8		0.00		6.00		1.275e-02		-50.406		2.978e-03		13.824
8		0.00		5.60		1.242e-02		-48.349		3.253e-03		11.190
8		0.00		5.20		1.212e-02		-50.531		3.348e-03		13.880
8		0.00		4.80		1.266e-02		-49.718		3.232e-03		9.805
8		0.00		4.40		1.260e-02		-52.558		2.831e-03		9.688
8		0.00		4.00		1.258e-02		-50.338		2.577e-03		10.238
8		0.00		3.60		1.240e-02		-46.237		2.561e-03		12.909
8		0.00		3.20		1.248e-02		-48.093		2.611e-03		9.661
8		0.00		2.80		1.254e-02		-50.595		2.674e-03		11.502
8		0.00		2.40		1.224e-02		-47.170		2.969e-03		11.992
8		0.00		2.00		1.205e-02		-48.067		3.142e-03		11.891
8		0.00		1.60		1.178e-02		-48.528		3.226e-03		12.589
8		0.00		1.20		1.197e-02		-46.870		2.931e-03		10.588
8		0.00		0.80		1.218e-02		-48.780		2.445e-03		9.841
8		0.00		0.40		1.226e-02		-45.118		2.487e-03		10.048
8		0.00		0.00		1.208e-02		-48.606		2.655e-03		12.622
8		0.00		-0.40		1.152e-02		-48.335		2.732e-03		12.298
8		0.00		-0.80		1.131e-02		-47.178		3.056e-03		12.124
8		0.00		-1.20		1.108e-02		-50.832		3.060e-03		12.714
8		0.00		-1.60		1.084e-02		-46.874		2.783e-03		13.921
8		0.00		-2.00		1.128e-02		-48.355		2.358e-03		10.580
8		0.00		-2.40		1.129e-02		-48.695		2.195e-03		9.980
8		0.00		-2.80		1.049e-02		-48.641		2.210e-03		11.775
8		0.00		-3.20		1.012e-02		-49.008		2.199e-03		14.213
8		0.00		-3.60		9.731e-03		-46.476		2.327e-03		11.033
8		0.00		-4.00		9.350e-03		-48.421		2.495e-03		16.191
8		0.00		-4.40		8.819e-03		-43.808		2.271e-03		13.129
8		0.00		-4.80		8.568e-03		-41.377		2.032e-03		14.044
8		0.00		-5.20		7.997e-03		-53.035		1.867e-03		13.595
8		0.00		-5.60		7.565e-03		-41.017		1.578e-03		15.812
8		0.00		-6.00		6.813e-03		-44.663		1.699e-03		15.674
8		0.00		-6.40		5.625e-03		-44.395		1.620e-03		14.272
8		0.00		-6.80		4.545e-03		-40.286		1.699e-03		25.761
8		0.00		-7.20		3.808e-03		-36.670		1.369e-03		22.079
8		0.00		-7.60		2.645e-03		-45.292		1.162e-03		38.740
8		0.00		-8.00		1.591e-03		5.587		6.466e-04		81.857
8		0.00		-8.40		2.187e-03		68.433		8.613e-04		59.191
8		0.00		-8.80		3.611e-03		116.152		1.235e-03		36.491
8		0.00		-9.20		4.907e-03		117.848		1.694e-03		28.036
8		0.00		-9.60		5.863e-03		119.430		1.746e-03		24.662
8		0.00		-10.00		7.275e-03		122.816		2.143e-03		15.750
8		0.00		-9.60		8.143e-03		126.323		2.087e-03		12.938
8		0.00		-9.20		9.006e-03		123.706		1.915e-03		11.816
8		0.00		-8.80		9.924e-03		126.558		2.031e-03		11.053
8		0.00		-8.40		9.229e-03		127.614		2.418e-03		15.588
8		0.00		-8.00		9.461e-03		122.323		2.590e-03		16.482
8		0.00		-7.60		9.475e-03		124.054		2.445e-03		14.538
8		0.00		-7.20		9.274e-03		128.251		2.434e-03		12.536
8		0.00		-6.80		9.365e-03		125.165		2.358e-03		10.700
8		0.00		-6.40		9.075e-03		127.906		2.097e-03		11.605
8		0.00		-6.00		8.920e-03		124.044		2.064e-03		13.179
8		0.00		-5.60		9.016e-03		130.844		2.385e-03		15.389
8		0.00		-5.20		8.375e-03		123.831		2.315e-03		19.134
8		0.00		-4.80		8.406e-03		127.382		2.274e-03		11.984
8		0.00		-4.40		8.592e-03		123.933		2.434e-03		10.079
8		0.00		-4.00		8.345e-03		126.633		1.979e-03		12.270
8		0.00		-3.60		8.312e-03		124.478		1.958e-03		13.130
8		0.00		-3.20		7.909e-03		127.936		1.835e-03		12.351
8		0.00		-2.80		7.947e-03		120.664		2.190e-03		17.842
8		0.00		-2.40		7.943e-03		121.701		2.495e-03		21.288
8		0.00		-2.00		7.957e-03		123.737		2.343e-03		16.452
8		0.00		-1.60		8.260e-03		125.995		1.946e-03		11.538
8		0.00		-1.20		8.280e-03		125.795		1.878e-03		13.435
8		0.00		-0.80		7.749e-03		124.420		1.918e-03		14.193
8		0.00		-0.40		7.844e-03		123.936		2.142e-03		13.477
