# Date of analysis: 2024-03-08 10;58
# Segment other properties: height: -46.14943665094399, diff height: 531.5406139030881, deflection: 33.57012065743751, deflection error: 3.7320746428353533, adhesion: 45.68355793511952, phase offset: 0
# 
# Loop index	Read Volt (V)	Write Volt (V)	Amplitude (a.u)	Phase (deg)	Sigma Amp (a.u)	Sigma Pha (deg)	
1		0.00		0.00		3.876e-02		-54.747		1.054e-02		11.984
1		0.00		0.40		2.905e-02		-53.161		7.796e-03		14.701
1		0.00		0.80		2.241e-02		-55.047		6.049e-03		14.487
1		0.00		1.20		1.558e-02		-52.313		4.370e-03		13.682
1		0.00		1.60		8.817e-03		-54.144		2.590e-03		15.670
1		0.00		2.00		3.046e-03		-51.025		1.415e-03		32.332
1		0.00		2.40		3.240e-03		98.161		1.362e-03		53.905
1		0.00		2.80		8.158e-03		129.484		2.521e-03		14.716
1		0.00		3.20		1.327e-02		132.267		3.943e-03		9.478
1		0.00		3.60		1.824e-02		129.096		5.080e-03		10.057
1		0.00		4.00		2.283e-02		128.571		6.437e-03		11.452
1		0.00		4.40		2.805e-02		130.801		7.716e-03		8.137
1		0.00		4.80		3.176e-02		128.829		8.567e-03		9.882
1		0.00		5.20		3.623e-02		131.877		9.857e-03		8.544
1		0.00		5.60		3.876e-02		130.902		1.086e-02		8.692
1		0.00		6.00		4.321e-02		129.730		1.251e-02		9.517
1		0.00		6.40		4.603e-02		129.687		1.349e-02		9.038
1		0.00		6.80		4.841e-02		127.757		1.494e-02		15.492
1		0.00		7.20		5.029e-02		126.136		1.533e-02		18.918
1		0.00		7.60		5.195e-02		125.580		1.589e-02		20.535
1		0.00		8.00		5.263e-02		126.090		1.627e-02		21.158
1		0.00		8.40		5.291e-02		125.936		1.725e-02		27.095
1		0.00		8.80		5.572e-02		127.166		1.769e-02		20.576
1		0.00		9.20		5.573e-02		127.764		1.836e-02		14.376
1		0.00		9.60		5.581e-02		126.730		1.787e-02		15.059
1		0.00		10.00		5.421e-02		127.443		1.818e-02		14.658
1		0.00		9.60		5.504e-02		126.686		1.840e-02		14.120
1		0.00		9.20		5.344e-02		128.094		1.713e-02		11.629
1		0.00		8.80		5.152e-02		130.708		1.543e-02		8.567
1		0.00		8.40		4.898e-02		131.529		1.359e-02		7.826
1		0.00		8.00		4.744e-02		131.458		1.297e-02		8.300
1		0.00		7.60		4.538e-02		132.455		1.247e-02		7.942
1		0.00		7.20		4.283e-02		130.664		1.247e-02		8.811
1		0.00		6.80		3.923e-02		130.649		1.215e-02		9.721
1		0.00		6.40		3.612e-02		126.837		1.082e-02		16.252
1		0.00		6.00		3.272e-02		127.163		9.678e-03		18.443
1		0.00		5.60		2.944e-02		126.401		8.669e-03		21.706
1		0.00		5.20		2.573e-02		127.344		7.548e-03		22.190
1		0.00		4.80		2.193e-02		128.493		6.518e-03		18.999
1		0.00		4.40		1.867e-02		133.245		5.430e-03		13.526
1		0.00		4.00		1.396e-02		130.793		3.955e-03		14.353
1		0.00		3.60		9.852e-03		132.194		2.999e-03		12.753
1		0.00		3.20		5.223e-03		126.636		2.017e-03		26.898
1		0.00		2.80		2.089e-03		32.984		1.029e-03		80.020
1		0.00		2.40		3.893e-03		-59.595		1.740e-03		29.534
1		0.00		2.00		9.163e-03		-56.376		2.621e-03		13.581
1		0.00		1.60		1.427e-02		-51.393		3.226e-03		11.514
1		0.00		1.20		1.986e-02		-53.453		4.437e-03		9.557
1		0.00		0.80		2.471e-02		-51.351		5.432e-03		8.811
1		0.00		0.40		2.963e-02		-52.902		7.254e-03		7.911
1		0.00		0.00		3.392e-02		-51.756		8.574e-03		7.601
1		0.00		-0.40		3.765e-02		-53.099		1.043e-02		6.715
1		0.00		-0.80		4.091e-02		-52.319		1.171e-02		7.521
1		0.00		-1.20		4.330e-02		-54.295		1.211e-02		9.975
1		0.00		-1.60		4.477e-02		-52.645		1.273e-02		11.670
1		0.00		-2.00		4.649e-02		-51.975		1.247e-02		10.721
1		0.00		-2.40		4.806e-02		-52.933		1.305e-02		12.100
1		0.00		-2.80		4.974e-02		-52.540		1.365e-02		10.372
1		0.00		-3.20		5.072e-02		-51.466		1.385e-02		9.561
1		0.00		-3.60		5.137e-02		-52.026		1.360e-02		10.469
1		0.00		-4.00		5.289e-02		-52.643		1.444e-02		11.453
1		0.00		-4.40		5.526e-02		-52.426		1.449e-02		9.365
1		0.00		-4.80		5.607e-02		-51.463		1.433e-02		9.503
1		0.00		-5.20		5.510e-02		-50.124		1.507e-02		10.140
1		0.00		-5.60		5.441e-02		-50.949		1.545e-02		11.957
1		0.00		-6.00		5.598e-02		-49.480		1.490e-02		10.503
1		0.00		-6.40		5.702e-02		-49.406		1.565e-02		10.168
1		0.00		-6.80		5.913e-02		-47.372		1.573e-02		8.134
1		0.00		-7.20		5.916e-02		-46.128		1.586e-02		8.371
1		0.00		-7.60		6.100e-02		-45.577		1.571e-02		7.961
1		0.00		-8.00		6.143e-02		-45.869		1.744e-02		7.649
1		0.00		-8.40		5.926e-02		-44.178		1.649e-02		7.549
1		0.00		-8.80		5.774e-02		-41.934		1.629e-02		5.127
1		0.00		-9.20		5.359e-02		-42.491		1.640e-02		8.236
1		0.00		-9.60		4.937e-02		-42.162		1.590e-02		15.536
1		0.00		-10.00		4.266e-02		-43.542		1.348e-02		19.288
1		0.00		-9.60		4.846e-02		-38.170		1.574e-02		24.099
1		0.00		-9.20		5.247e-02		-37.099		1.734e-02		25.728
1		0.00		-8.80		5.427e-02		-41.827		1.692e-02		19.363
1		0.00		-8.40		5.562e-02		-40.126		1.774e-02		22.880
1		0.00		-8.00		5.623e-02		-43.816		1.799e-02		18.977
1		0.00		-7.60		5.444e-02		-46.177		1.810e-02		17.809
1		0.00		-7.20		5.319e-02		-48.769		1.802e-02		12.938
1		0.00		-6.80		4.946e-02		-49.722		1.615e-02		14.398
1		0.00		-6.40		4.763e-02		-49.175		1.470e-02		11.671
1		0.00		-6.00		4.546e-02		-48.095		1.356e-02		11.049
1		0.00		-5.60		4.374e-02		-48.662		1.191e-02		9.431
1		0.00		-5.20		4.064e-02		-48.843		1.052e-02		8.930
1		0.00		-4.80		3.847e-02		-50.097		9.593e-03		8.560
1		0.00		-4.40		3.540e-02		-51.131		8.069e-03		8.898
1		0.00		-4.00		3.212e-02		-51.592		7.233e-03		8.799
1		0.00		-3.60		2.982e-02		-49.698		6.238e-03		9.329
1		0.00		-3.20		2.647e-02		-50.283		5.612e-03		7.568
1		0.00		-2.80		2.304e-02		-49.528		4.852e-03		9.125
1		0.00		-2.40		1.927e-02		-48.107		4.372e-03		9.503
1		0.00		-2.00		1.527e-02		-48.166		3.644e-03		11.289
1		0.00		-1.60		1.097e-02		-47.235		2.894e-03		12.693
1		0.00		-1.20		7.222e-03		-39.994		2.050e-03		15.258
1		0.00		-0.80		3.239e-03		-53.078		1.208e-03		39.143
1		0.00		-0.40		2.415e-03		75.598		1.161e-03		68.319
2		0.00		0.00		5.774e-03		121.595		1.959e-03		23.080
2		0.00		0.40		1.011e-02		125.807		3.169e-03		21.646
2		0.00		0.80		1.382e-02		123.692		4.269e-03		22.328
2		0.00		1.20		1.820e-02		125.708		5.435e-03		21.767
2		0.00		1.60		2.150e-02		127.477		6.582e-03		15.709
2		0.00		2.00		2.553e-02		130.927		7.383e-03		11.869
2		0.00		2.40		2.954e-02		131.042		8.500e-03		9.359
2		0.00		2.80		3.311e-02		130.863		9.353e-03		9.232
2		0.00		3.20		3.740e-02		130.984		9.663e-03		6.999
2		0.00		3.60		4.045e-02		130.637		9.884e-03		7.077
2		0.00		4.00		4.342e-02		131.877		1.018e-02		6.395
2		0.00		4.40		4.603e-02		130.737		1.074e-02		6.946
2		0.00		4.80		4.892e-02		131.246		1.116e-02		6.799
2		0.00		5.20		5.099e-02		132.425		1.158e-02		6.082
2		0.00		5.60		5.356e-02		132.586		1.242e-02		5.934
2		0.00		6.00		5.475e-02		132.975		1.338e-02		6.864
2		0.00		6.40		5.745e-02		132.832		1.478e-02		6.884
2		0.00		6.80		5.751e-02		133.456		1.607e-02		7.822
2		0.00		7.20		5.917e-02		130.327		1.811e-02		17.236
2		0.00		7.60		5.891e-02		127.318		1.992e-02		25.101
2		0.00		8.00		6.006e-02		125.269		2.165e-02		23.051
2		0.00		8.40		5.950e-02		125.150		2.163e-02		26.668
2		0.00		8.80		6.075e-02		123.617		2.225e-02		25.376
2		0.00		9.20		6.155e-02		124.534		2.272e-02		22.829
2		0.00		9.60		5.819e-02		123.447		2.313e-02		24.500
2		0.00		10.00		5.629e-02		128.358		2.197e-02		16.499
2		0.00		9.60		5.736e-02		123.902		2.225e-02		26.792
2		0.00		9.20		5.710e-02		126.997		2.082e-02		20.385
2		0.00		8.80		5.652e-02		130.255		1.854e-02		14.380
2		0.00		8.40		5.425e-02		131.952		1.706e-02		12.764
2		0.00		8.00		5.210e-02		133.239		1.576e-02		9.665
2		0.00		7.60		4.948e-02		133.082		1.482e-02		9.303
2		0.00		7.20		4.628e-02		132.021		1.343e-02		8.511
2		0.00		6.80		4.357e-02		131.704		1.225e-02		8.661
2		0.00		6.40		4.077e-02		132.318		1.113e-02		8.582
2		0.00		6.00		3.793e-02		132.505		1.011e-02		7.923
2		0.00		5.60		3.490e-02		132.560		9.098e-03		8.215
2		0.00		5.20		3.113e-02		133.858		7.790e-03		7.278
2		0.00		4.80		2.695e-02		133.118		6.892e-03		7.753
2		0.00		4.40		2.355e-02		132.737		6.072e-03		8.219
2		0.00		4.00		1.980e-02		133.856		5.136e-03		8.235
2		0.00		3.60		1.554e-02		133.113		4.022e-03		8.728
2		0.00		3.20		1.138e-02		133.600		3.223e-03		10.876
2		0.00		2.80		6.936e-03		125.662		2.455e-03		35.576
2		0.00		2.40		2.323e-03		53.403		1.172e-03		84.250
2		0.00		2.00		3.158e-03		-48.423		1.388e-03		52.948
2		0.00		1.60		8.241e-03		-53.488		2.164e-03		14.901
2		0.00		1.20		1.343e-02		-48.914		2.745e-03		11.148
2		0.00		0.80		1.815e-02		-52.121		3.625e-03		8.859
2		0.00		0.40		2.351e-02		-52.038		4.589e-03		7.767
2		0.00		0.00		2.817e-02		-50.688		5.506e-03		7.410
2		0.00		-0.40		3.293e-02		-50.033		6.858e-03		6.536
2		0.00		-0.80		3.605e-02		-51.584		7.381e-03		6.111
2		0.00		-1.20		3.964e-02		-50.784		8.161e-03		6.638
2		0.00		-1.60		4.219e-02		-51.088		9.080e-03		5.955
2		0.00		-2.00		4.456e-02		-51.940		1.005e-02		5.207
2		0.00		-2.40		4.569e-02		-51.923		1.128e-02		5.458
2		0.00		-2.80		4.583e-02		-52.272		1.204e-02		6.343
2		0.00		-3.20		4.735e-02		-52.576		1.321e-02		6.817
2		0.00		-3.60		4.784e-02		-52.934		1.392e-02		6.802
2		0.00		-4.00		4.910e-02		-53.105		1.457e-02		8.647
2		0.00		-4.40		5.121e-02		-52.192		1.506e-02		8.829
2		0.00		-4.80		5.203e-02		-52.497		1.592e-02		11.509
2		0.00		-5.20		5.246e-02		-47.756		1.597e-02		13.504
2		0.00		-5.60		5.329e-02		-46.020		1.668e-02		20.727
2		0.00		-6.00		5.701e-02		-45.890		1.705e-02		17.748
2		0.00		-6.40		5.774e-02		-45.213		1.667e-02		18.417
2		0.00		-6.80		5.997e-02		-44.684		1.743e-02		18.789
2		0.00		-7.20		6.038e-02		-44.040		1.774e-02		22.500
2		0.00		-7.60		6.261e-02		-43.268		1.829e-02		20.644
2		0.00		-8.00		6.153e-02		-42.308		1.777e-02		21.544
2		0.00		-8.40		6.187e-02		-40.551		1.855e-02		21.788
2		0.00		-8.80		5.933e-02		-42.442		1.810e-02		18.414
2		0.00		-9.20		5.626e-02		-37.654		1.712e-02		18.277
2		0.00		-9.60		5.061e-02		-37.799		1.572e-02		18.519
2		0.00		-10.00		4.463e-02		-43.942		1.393e-02		17.012
2		0.00		-9.60		4.877e-02		-43.355		1.635e-02		14.459
2		0.00		-9.20		5.238e-02		-37.127		1.735e-02		16.599
2		0.00		-8.80		5.564e-02		-42.321		1.792e-02		12.802
2		0.00		-8.40		5.706e-02		-43.196		1.791e-02		18.619
2		0.00		-8.00		5.762e-02		-43.269		1.839e-02		22.848
2		0.00		-7.60		5.722e-02		-49.345		1.780e-02		15.569
2		0.00		-7.20		5.375e-02		-44.911		1.641e-02		15.594
2		0.00		-6.80		5.214e-02		-47.557		1.588e-02		16.446
2		0.00		-6.40		5.071e-02		-48.120		1.431e-02		10.146
2		0.00		-6.00		4.902e-02		-48.050		1.288e-02		7.505
2		0.00		-5.60		4.697e-02		-47.692		1.218e-02		7.980
2		0.00		-5.20		4.459e-02		-49.113		1.102e-02		6.626
2		0.00		-4.80		4.142e-02		-48.769		9.957e-03		6.318
2		0.00		-4.40		3.813e-02		-50.308		8.573e-03		7.001
2		0.00		-4.00		3.539e-02		-50.103		7.675e-03		6.445
2		0.00		-3.60		3.196e-02		-50.017		6.371e-03		6.464
2		0.00		-3.20		2.910e-02		-50.004		5.687e-03		7.278
2		0.00		-2.80		2.532e-02		-48.338		4.743e-03		7.818
2		0.00		-2.40		2.160e-02		-48.178		4.068e-03		8.078
2		0.00		-2.00		1.751e-02		-47.349		3.697e-03		8.895
2		0.00		-1.60		1.330e-02		-49.406		2.885e-03		11.339
2		0.00		-1.20		9.124e-03		-46.388		2.212e-03		13.477
2		0.00		-0.80		5.003e-03		-42.744		1.400e-03		17.500
2		0.00		-0.40		1.772e-03		8.311		8.351e-04		64.546
3		0.00		0.00		4.392e-03		122.306		1.806e-03		24.938
3		0.00		0.40		8.524e-03		130.372		2.489e-03		12.613
3		0.00		0.80		1.272e-02		125.884		3.444e-03		10.142
3		0.00		1.20		1.683e-02		129.708		4.406e-03		8.526
3		0.00		1.60		2.085e-02		131.461		5.017e-03		8.328
3		0.00		2.00		2.482e-02		130.502		6.092e-03		8.993
3		0.00		2.40		2.897e-02		131.541		7.040e-03		8.603
3		0.00		2.80		3.189e-02		131.313		8.186e-03		9.604
3		0.00		3.20		3.573e-02		131.027		9.375e-03		10.887
3		0.00		3.60		3.893e-02		129.694		1.015e-02		14.560
3		0.00		4.00		4.164e-02		129.850		1.134e-02		13.628
3		0.00		4.40		4.481e-02		129.514		1.194e-02		14.268
3		0.00		4.80		4.785e-02		128.449		1.305e-02		14.617
3		0.00		5.20		5.062e-02		128.224		1.381e-02		15.360
3		0.00		5.60		5.250e-02		128.503		1.511e-02		13.627
3		0.00		6.00		5.383e-02		129.143		1.609e-02		13.852
3		0.00		6.40		5.522e-02		129.478		1.682e-02		15.298
3		0.00		6.80		5.787e-02		130.941		1.709e-02		10.516
3		0.00		7.20		6.032e-02		132.589		1.765e-02		7.509
3		0.00		7.60		6.190e-02		133.599		1.778e-02		8.002
3		0.00		8.00		6.344e-02		134.605		1.739e-02		6.953
3		0.00		8.40		6.564e-02		133.947		1.902e-02		7.732
3		0.00		8.80		6.317e-02		136.598		1.721e-02		10.079
3		0.00		9.20		6.510e-02		135.278		1.669e-02		11.452
3		0.00		9.60		6.440e-02		133.900		1.760e-02		10.312
3		0.00		10.00		6.271e-02		134.233		1.723e-02		8.943
3		0.00		9.60		6.326e-02		133.084		1.724e-02		9.885
3		0.00		9.20		6.360e-02		131.132		1.866e-02		14.092
3		0.00		8.80		6.059e-02		132.848		1.735e-02		11.186
3		0.00		8.40		5.804e-02		133.170		1.592e-02		8.968
3		0.00		8.00		5.462e-02		131.760		1.593e-02		10.194
3		0.00		7.60		5.234e-02		132.540		1.509e-02		7.644
3		0.00		7.20		5.036e-02		132.004		1.464e-02		7.524
3		0.00		6.80		4.684e-02		130.182		1.402e-02		13.333
3		0.00		6.40		4.319e-02		130.204		1.338e-02		13.116
3		0.00		6.00		3.999e-02		129.215		1.249e-02		17.050
3		0.00		5.60		3.639e-02		127.726		1.145e-02		18.980
3		0.00		5.20		3.339e-02		127.245		1.052e-02		19.638
3		0.00		4.80		2.959e-02		128.361		9.256e-03		18.588
3		0.00		4.40		2.658e-02		131.143		7.911e-03		10.677
3		0.00		4.00		2.282e-02		134.629		6.247e-03		9.155
3		0.00		3.60		1.889e-02		134.505		5.081e-03		9.740
3		0.00		3.20		1.478e-02		134.820		3.946e-03		10.050
3		0.00		2.80		1.029e-02		135.366		2.860e-03		10.810
3		0.00		2.40		5.853e-03		130.117		1.845e-03		20.801
3		0.00		2.00		2.142e-03		26.536		9.245e-04		82.489
3		0.00		1.60		4.580e-03		-55.479		1.328e-03		21.435
3		0.00		1.20		9.779e-03		-52.001		1.870e-03		14.110
3		0.00		0.80		1.426e-02		-48.131		2.830e-03		11.896
3		0.00		0.40		1.897e-02		-48.302		3.815e-03		11.033
3		0.00		0.00		2.386e-02		-48.797		4.681e-03		8.776
3		0.00		-0.40		2.786e-02		-47.472		5.621e-03		7.556
3		0.00		-0.80		3.169e-02		-47.950		6.515e-03		7.405
3		0.00		-1.20		3.394e-02		-49.115		7.630e-03		8.360
3		0.00		-1.60		3.634e-02		-49.988		9.044e-03		10.008
3		0.00		-2.00		3.852e-02		-50.077		1.045e-02		9.894
3		0.00		-2.40		4.056e-02		-51.163		1.130e-02		11.933
3		0.00		-2.80		4.299e-02		-52.117		1.197e-02		14.223
3		0.00		-3.20		4.432e-02		-52.037		1.270e-02		15.198
3		0.00		-3.60		4.698e-02		-53.278		1.335e-02		14.865
3		0.00		-4.00		4.783e-02		-54.145		1.406e-02		16.031
3		0.00		-4.40		4.917e-02		-53.103		1.423e-02		15.269
3		0.00		-4.80		5.143e-02		-51.482		1.471e-02		14.317
3		0.00		-5.20		5.337e-02		-48.999		1.514e-02		14.388
3		0.00		-5.60		5.491e-02		-48.490		1.491e-02		9.980
3		0.00		-6.00		5.671e-02		-47.036		1.514e-02		11.158
3		0.00		-6.40		5.798e-02		-47.060		1.590e-02		8.720
3		0.00		-6.80		5.918e-02		-47.047		1.600e-02		7.883
3		0.00		-7.20		5.937e-02		-44.644		1.553e-02		6.165
3		0.00		-7.60		6.181e-02		-45.238		1.628e-02		6.012
3		0.00		-8.00		6.257e-02		-44.636		1.707e-02		7.061
3		0.00		-8.40		6.137e-02		-43.311		1.693e-02		8.724
3		0.00		-8.80		6.048e-02		-42.096		1.681e-02		6.942
3		0.00		-9.20		5.580e-02		-39.971		1.720e-02		8.373
3		0.00		-9.60		5.070e-02		-42.972		1.683e-02		6.687
3		0.00		-10.00		4.392e-02		-42.806		1.438e-02		6.657
3		0.00		-9.60		4.928e-02		-43.014		1.590e-02		5.972
3		0.00		-9.20		5.331e-02		-40.949		1.662e-02		5.844
3		0.00		-8.80		5.670e-02		-42.110		1.663e-02		6.612
3		0.00		-8.40		5.773e-02		-43.374		1.578e-02		6.035
3		0.00		-8.00		5.832e-02		-44.746		1.529e-02		6.003
3		0.00		-7.60		5.796e-02		-44.478		1.410e-02		5.484
3		0.00		-7.20		5.571e-02		-45.297		1.332e-02		7.006
3		0.00		-6.80		5.455e-02		-45.935		1.197e-02		6.390
3		0.00		-6.40		5.253e-02		-46.358		1.095e-02		6.444
3		0.00		-6.00		5.053e-02		-46.640		9.911e-03		5.811
3		0.00		-5.60		4.706e-02		-46.460		9.322e-03		6.134
3		0.00		-5.20		4.477e-02		-47.378		9.161e-03		7.302
3		0.00		-4.80		4.174e-02		-48.246		8.141e-03		6.619
3		0.00		-4.40		3.787e-02		-48.828		7.247e-03		6.607
3		0.00		-4.00		3.488e-02		-49.000		6.777e-03		7.233
3		0.00		-3.60		3.222e-02		-48.231		6.061e-03		7.008
3		0.00		-3.20		2.894e-02		-49.603		5.600e-03		8.399
3		0.00		-2.80		2.483e-02		-47.033		5.065e-03		7.508
3		0.00		-2.40		2.132e-02		-49.107		4.339e-03		6.863
3		0.00		-2.00		1.724e-02		-47.772		3.406e-03		8.535
3		0.00		-1.60		1.294e-02		-48.316		2.623e-03		11.293
3		0.00		-1.20		9.449e-03		-45.359		2.184e-03		11.559
3		0.00		-0.80		4.926e-03		-36.313		1.421e-03		22.246
3		0.00		-0.40		1.863e-03		4.732		8.249e-04		68.170
4		0.00		0.00		3.988e-03		108.595		1.476e-03		46.841
4		0.00		0.40		7.780e-03		127.160		2.246e-03		15.506
4		0.00		0.80		1.250e-02		129.350		2.879e-03		8.540
4		0.00		1.20		1.667e-02		128.711		3.665e-03		6.892
4		0.00		1.60		2.077e-02		131.828		3.995e-03		7.111
4		0.00		2.00		2.536e-02		130.773		5.088e-03		6.985
4		0.00		2.40		2.930e-02		131.543		5.672e-03		5.614
4		0.00		2.80		3.319e-02		131.376		6.513e-03		5.663
4		0.00		3.20		3.695e-02		132.094		6.760e-03		5.924
4		0.00		3.60		4.039e-02		132.475		8.029e-03		5.126
4		0.00		4.00		4.398e-02		132.320		8.590e-03		6.044
4		0.00		4.40		4.685e-02		132.213		9.605e-03		5.400
4		0.00		4.80		4.906e-02		133.345		1.117e-02		5.669
4		0.00		5.20		5.160e-02		132.120		1.233e-02		5.270
4		0.00		5.60		5.291e-02		132.927		1.303e-02		6.116
4		0.00		6.00		5.415e-02		133.101		1.322e-02		5.621
4		0.00		6.40		5.662e-02		134.162		1.445e-02		5.700
4		0.00		6.80		5.805e-02		133.895		1.466e-02		6.024
4		0.00		7.20		5.962e-02		133.247		1.626e-02		6.943
4		0.00		7.60		6.083e-02		133.713		1.611e-02		6.390
4		0.00		8.00		6.341e-02		136.669		1.708e-02		7.759
4		0.00		8.40		6.428e-02		135.571		1.698e-02		9.209
4		0.00		8.80		6.640e-02		136.186		1.740e-02		8.129
4		0.00		9.20		6.622e-02		135.722		1.763e-02		10.607
4		0.00		9.60		6.514e-02		135.854		1.718e-02		8.891
4		0.00		10.00		6.312e-02		134.333		1.770e-02		9.398
4		0.00		9.60		6.454e-02		133.042		1.681e-02		8.523
4		0.00		9.20		6.304e-02		135.956		1.561e-02		8.025
4		0.00		8.80		6.166e-02		135.341		1.493e-02		7.612
4		0.00		8.40		6.089e-02		133.476		1.465e-02		6.086
4		0.00		8.00		5.771e-02		133.600		1.345e-02		6.283
4		0.00		7.60		5.484e-02		133.327		1.285e-02		6.645
4		0.00		7.20		5.186e-02		132.863		1.232e-02		5.225
4		0.00		6.80		4.896e-02		133.702		1.153e-02		6.447
4		0.00		6.40		4.608e-02		132.817		1.062e-02		5.992
4		0.00		6.00		4.346e-02		133.758		9.575e-03		5.505
4		0.00		5.60		3.980e-02		132.820		8.908e-03		5.628
4		0.00		5.20		3.590e-02		133.021		7.994e-03		5.665
4		0.00		4.80		3.221e-02		133.630		6.829e-03		5.965
4		0.00		4.40		2.912e-02		135.070		6.331e-03		5.977
4		0.00		4.00		2.499e-02		135.221		5.322e-03		6.298
4		0.00		3.60		2.069e-02		135.386		4.449e-03		7.773
4		0.00		3.20		1.634e-02		134.790		3.373e-03		7.832
4		0.00		2.80		1.138e-02		135.674		2.672e-03		8.908
4		0.00		2.40		6.385e-03		130.087		1.945e-03		24.914
4		0.00		2.00		2.161e-03		32.090		8.790e-04		88.830
4		0.00		1.60		4.216e-03		-75.781		1.254e-03		18.773
4		0.00		1.20		9.300e-03		-52.423		2.115e-03		13.674
4		0.00		0.80		1.444e-02		-48.864		2.452e-03		11.004
4		0.00		0.40		1.992e-02		-51.946		3.537e-03		7.578
4		0.00		0.00		2.418e-02		-49.985		4.291e-03		7.565
4		0.00		-0.40		2.775e-02		-48.640		5.335e-03		6.753
4		0.00		-0.80		3.175e-02		-50.097		6.676e-03		7.461
4		0.00		-1.20		3.522e-02		-49.863		7.451e-03		6.994
4		0.00		-1.60		3.628e-02		-50.276		7.617e-03		7.075
4		0.00		-2.00		3.902e-02		-50.222		8.150e-03		6.520
4		0.00		-2.40		4.099e-02		-50.117		8.571e-03		6.386
4		0.00		-2.80		4.301e-02		-50.984		9.218e-03		6.811
4		0.00		-3.20		4.475e-02		-50.542		9.786e-03		6.813
4		0.00		-3.60		4.694e-02		-51.757		9.998e-03		7.022
4		0.00		-4.00		4.882e-02		-50.070		9.899e-03		6.411
4		0.00		-4.40		4.888e-02		-50.198		9.587e-03		6.842
4		0.00		-4.80		5.078e-02		-49.400		1.050e-02		7.276
4		0.00		-5.20		5.255e-02		-48.212		1.140e-02		7.200
4		0.00		-5.60		5.381e-02		-47.135		1.204e-02		7.316
4		0.00		-6.00		5.532e-02		-47.172		1.316e-02		8.773
4		0.00		-6.40		5.699e-02		-46.649		1.429e-02		9.064
4		0.00		-6.80		5.835e-02		-46.237		1.423e-02		9.591
4		0.00		-7.20		6.004e-02		-46.356		1.499e-02		9.441
4		0.00		-7.60		6.142e-02		-45.688		1.561e-02		8.460
4		0.00		-8.00		5.994e-02		-45.147		1.622e-02		9.404
4		0.00		-8.40		6.016e-02		-43.328		1.630e-02		7.698
4		0.00		-8.80		5.773e-02		-43.499		1.642e-02		8.670
4		0.00		-9.20		5.470e-02		-43.181		1.697e-02		9.602
4		0.00		-9.60		4.928e-02		-42.848		1.490e-02		6.648
4		0.00		-10.00		4.356e-02		-41.837		1.221e-02		5.363
4		0.00		-9.60		4.963e-02		-42.989		1.468e-02		5.576
4		0.00		-9.20		5.377e-02		-43.343		1.575e-02		8.710
4		0.00		-8.80		5.630e-02		-43.258		1.465e-02		8.547
4		0.00		-8.40		5.808e-02		-45.041		1.451e-02		9.984
4		0.00		-8.00		5.935e-02		-45.700		1.448e-02		10.140
4		0.00		-7.60		5.760e-02		-45.281		1.296e-02		8.611
4		0.00		-7.20		5.602e-02		-45.421		1.243e-02		7.453
4		0.00		-6.80		5.469e-02		-45.726		1.214e-02		7.903
4		0.00		-6.40		5.333e-02		-46.359		1.165e-02		7.004
4		0.00		-6.00		5.121e-02		-46.291		1.034e-02		6.742
4		0.00		-5.60		4.900e-02		-47.154		1.013e-02		7.074
4		0.00		-5.20		4.544e-02		-47.698		9.334e-03		6.403
4		0.00		-4.80		4.236e-02		-49.144		8.331e-03		7.029
4		0.00		-4.40		3.850e-02		-47.746		8.207e-03		6.227
4		0.00		-4.00		3.575e-02		-49.496		7.431e-03		6.701
4		0.00		-3.60		3.201e-02		-49.301		6.553e-03		6.497
4		0.00		-3.20		2.899e-02		-49.579		6.098e-03		6.743
4		0.00		-2.80		2.518e-02		-48.496		4.947e-03		7.079
4		0.00		-2.40		2.139e-02		-46.948		4.268e-03		8.518
4		0.00		-2.00		1.721e-02		-47.456		3.404e-03		9.778
4		0.00		-1.60		1.338e-02		-45.682		2.738e-03		11.363
4		0.00		-1.20		9.444e-03		-44.483		2.120e-03		12.451
4		0.00		-0.80		5.044e-03		-44.216		1.293e-03		18.598
4		0.00		-0.40		2.076e-03		-18.276		8.492e-04		63.998
5		0.00		0.00		3.984e-03		117.895		1.448e-03		26.127
5		0.00		0.40		8.088e-03		123.639		1.973e-03		12.763
5		0.00		0.80		1.257e-02		129.735		2.564e-03		9.075
5		0.00		1.20		1.682e-02		129.049		3.239e-03		7.684
5		0.00		1.60		2.116e-02		130.995		3.560e-03		6.491
5		0.00		2.00		2.515e-02		132.825		4.528e-03		6.451
5		0.00		2.40		2.917e-02		131.888		5.605e-03		5.764
5		0.00		2.80		3.329e-02		132.792		6.713e-03		6.229
5		0.00		3.20		3.639e-02		130.833		7.711e-03		5.965
5		0.00		3.60		3.954e-02		132.539		8.623e-03		5.796
5		0.00		4.00		4.280e-02		132.600		9.203e-03		6.228
5		0.00		4.40		4.593e-02		132.484		1.027e-02		5.245
5		0.00		4.80		4.858e-02		132.357		1.065e-02		4.876
5		0.00		5.20		5.116e-02		131.956		1.193e-02		5.831
5		0.00		5.60		5.310e-02		131.850		1.246e-02		5.838
5		0.00		6.00		5.465e-02		131.908		1.379e-02		6.832
5		0.00		6.40		5.614e-02		132.167		1.376e-02		8.189
5		0.00		6.80		5.947e-02		132.495		1.428e-02		7.155
5		0.00		7.20		6.152e-02		131.953		1.507e-02		9.237
5		0.00		7.60		6.382e-02		133.091		1.525e-02		9.789
5		0.00		8.00		6.430e-02		135.013		1.585e-02		11.024
5		0.00		8.40		6.553e-02		137.922		1.443e-02		7.386
5		0.00		8.80		6.597e-02		135.677		1.575e-02		9.976
5		0.00		9.20		6.620e-02		134.547		1.665e-02		19.959
5		0.00		9.60		6.812e-02		133.565		1.772e-02		9.847
5		0.00		10.00		6.525e-02		135.383		1.664e-02		8.387
5		0.00		9.60		6.403e-02		136.274		1.537e-02		8.784
5		0.00		9.20		6.476e-02		134.127		1.657e-02		7.553
5		0.00		8.80		6.197e-02		134.780		1.629e-02		8.422
5		0.00		8.40		6.102e-02		134.861		1.527e-02		6.042
5		0.00		8.00		5.702e-02		134.493		1.466e-02		6.589
5		0.00		7.60		5.605e-02		133.635		1.403e-02		5.764
5		0.00		7.20		5.331e-02		133.665		1.292e-02		5.754
5		0.00		6.80		5.043e-02		133.879		1.181e-02		5.294
5		0.00		6.40		4.713e-02		132.864		1.121e-02		5.598
5		0.00		6.00		4.403e-02		133.680		1.023e-02		5.789
5		0.00		5.60		4.131e-02		133.848		8.778e-03		4.658
5		0.00		5.20		3.759e-02		134.429		8.089e-03		5.279
5		0.00		4.80		3.401e-02		134.702		7.091e-03		5.448
5		0.00		4.40		2.971e-02		135.556		6.102e-03		5.833
5		0.00		4.00		2.537e-02		135.069		5.383e-03		7.063
5		0.00		3.60		2.145e-02		135.591		4.465e-03		7.248
5		0.00		3.20		1.662e-02		137.151		3.477e-03		8.154
5		0.00		2.80		1.173e-02		135.650		2.950e-03		9.594
5		0.00		2.40		6.819e-03		138.201		1.876e-03		12.222
5		0.00		2.00		2.301e-03		59.390		1.052e-03		86.225
5		0.00		1.60		4.122e-03		-55.774		1.522e-03		26.045
5		0.00		1.20		8.390e-03		-49.351		2.333e-03		14.501
5		0.00		0.80		1.373e-02		-51.862		3.552e-03		10.179
5		0.00		0.40		1.852e-02		-52.492		4.654e-03		8.986
5		0.00		0.00		2.292e-02		-49.459		5.850e-03		8.414
5		0.00		-0.40		2.671e-02		-52.135		7.238e-03		11.392
5		0.00		-0.80		3.019e-02		-50.869		7.913e-03		9.680
5		0.00		-1.20		3.290e-02		-50.345		8.604e-03		8.414
5		0.00		-1.60		3.588e-02		-50.900		9.324e-03		10.156
5		0.00		-2.00		3.975e-02		-50.767		1.005e-02		8.556
5		0.00		-2.40		4.181e-02		-51.399		1.030e-02		11.309
5		0.00		-2.80		4.445e-02		-51.431		1.123e-02		9.455
5		0.00		-3.20		4.602e-02		-51.130		1.172e-02		11.344
5		0.00		-3.60		4.761e-02		-51.672		1.221e-02		11.113
5		0.00		-4.00		4.898e-02		-51.821		1.259e-02		11.189
5		0.00		-4.40		5.146e-02		-50.001		1.340e-02		9.641
5		0.00		-4.80		5.221e-02		-50.460		1.416e-02		14.756
5		0.00		-5.20		5.359e-02		-48.996		1.492e-02		12.024
5		0.00		-5.60		5.472e-02		-47.751		1.529e-02		13.819
5		0.00		-6.00		5.476e-02		-46.669		1.677e-02		14.181
5		0.00		-6.40		5.564e-02		-46.870		1.795e-02		16.154
5		0.00		-6.80		5.498e-02		-45.937		1.703e-02		14.155
5		0.00		-7.20		5.627e-02		-46.102		1.775e-02		11.394
5		0.00		-7.60		5.898e-02		-45.497		1.765e-02		11.347
5		0.00		-8.00		5.913e-02		-46.635		1.805e-02		12.586
5		0.00		-8.40		5.848e-02		-43.598		1.761e-02		11.277
5		0.00		-8.80		5.704e-02		-43.673		1.718e-02		8.582
5		0.00		-9.20		5.418e-02		-42.962		1.620e-02		8.718
5		0.00		-9.60		5.002e-02		-42.806		1.462e-02		5.652
5		0.00		-10.00		4.400e-02		-41.387		1.206e-02		6.994
5		0.00		-9.60		4.998e-02		-42.844		1.419e-02		6.716
5		0.00		-9.20		5.468e-02		-42.113		1.528e-02		6.447
5		0.00		-8.80		5.685e-02		-42.407		1.483e-02		8.479
5		0.00		-8.40		6.027e-02		-43.726		1.457e-02		7.664
5		0.00		-8.00		6.030e-02		-44.081		1.389e-02		7.977
5		0.00		-7.60		5.866e-02		-45.423		1.407e-02		9.827
5		0.00		-7.20		5.685e-02		-45.315		1.278e-02		7.601
5		0.00		-6.80		5.531e-02		-45.771		1.187e-02		7.537
5		0.00		-6.40		5.386e-02		-46.302		1.196e-02		7.611
5		0.00		-6.00		5.087e-02		-47.199		1.129e-02		7.499
5		0.00		-5.60		4.866e-02		-47.278		9.979e-03		5.341
5		0.00		-5.20		4.533e-02		-47.273		9.302e-03		5.032
5		0.00		-4.80		4.254e-02		-48.593		8.413e-03		5.698
5		0.00		-4.40		3.945e-02		-49.031		7.850e-03		4.863
5		0.00		-4.00		3.592e-02		-50.037		7.129e-03		5.845
5		0.00		-3.60		3.277e-02		-48.050		6.627e-03		5.789
5		0.00		-3.20		2.886e-02		-48.196		5.765e-03		6.202
5		0.00		-2.80		2.533e-02		-48.206		5.055e-03		6.496
5		0.00		-2.40		2.149e-02		-45.530		4.321e-03		7.521
5		0.00		-2.00		1.741e-02		-47.676		3.657e-03		8.777
5		0.00		-1.60		1.307e-02		-44.497		2.913e-03		10.381
5		0.00		-1.20		9.084e-03		-39.180		2.275e-03		13.011
5		0.00		-0.80		4.705e-03		-31.052		1.425e-03		20.166
5		0.00		-0.40		1.909e-03		-13.028		7.977e-04		67.180
6		0.00		0.00		4.307e-03		117.184		1.561e-03		29.873
6		0.00		0.40		8.583e-03		122.309		2.401e-03		20.762
6		0.00		0.80		1.234e-02		126.196		3.215e-03		18.318
6		0.00		1.20		1.680e-02		127.128		4.378e-03		18.630
6		0.00		1.60		2.051e-02		127.217		5.524e-03		16.624
6		0.00		2.00		2.409e-02		128.283		6.625e-03		16.342
6		0.00		2.40		2.793e-02		129.020		7.695e-03		14.383
6		0.00		2.80		3.185e-02		130.425		8.765e-03		12.047
6		0.00		3.20		3.514e-02		130.523		9.761e-03		9.790
6		0.00		3.60		3.855e-02		131.821		1.077e-02		8.235
6		0.00		4.00		4.174e-02		131.772		1.115e-02		7.039
6		0.00		4.40		4.539e-02		131.841		1.118e-02		5.732
6		0.00		4.80		4.897e-02		132.736		1.102e-02		5.737
6		0.00		5.20		5.214e-02		132.661		1.139e-02		4.930
6		0.00		5.60		5.365e-02		133.295		1.160e-02		7.089
6		0.00		6.00		5.685e-02		132.439		1.251e-02		6.580
6		0.00		6.40		5.902e-02		133.208		1.259e-02		6.809
6		0.00		6.80		6.007e-02		132.708		1.364e-02		8.307
6		0.00		7.20		6.360e-02		133.801		1.369e-02		5.738
6		0.00		7.60		6.511e-02		134.949		1.420e-02		4.667
6		0.00		8.00		6.665e-02		136.516		1.540e-02		6.348
6		0.00		8.40		6.630e-02		134.005		1.694e-02		28.065
6		0.00		8.80		6.541e-02		138.973		1.775e-02		8.770
6		0.00		9.20		6.754e-02		136.265		2.076e-02		12.000
6		0.00		9.60		6.311e-02		135.335		2.043e-02		18.187
6		0.00		10.00		6.196e-02		135.122		2.141e-02		17.342
6		0.00		9.60		6.452e-02		130.373		2.182e-02		24.876
6		0.00		9.20		6.286e-02		130.086		2.036e-02		25.077
6		0.00		8.80		6.288e-02		129.941		1.983e-02		24.087
6		0.00		8.40		5.930e-02		128.923		1.849e-02		27.036
6		0.00		8.00		5.875e-02		128.725		1.753e-02		22.916
6		0.00		7.60		5.636e-02		130.940		1.634e-02		18.384
6		0.00		7.20		5.296e-02		132.500		1.494e-02		12.919
6		0.00		6.80		4.963e-02		133.961		1.397e-02		8.193
6		0.00		6.40		4.671e-02		133.207		1.241e-02		8.544
6		0.00		6.00		4.352e-02		133.371		1.117e-02		7.322
6		0.00		5.60		4.081e-02		134.637		9.685e-03		5.478
6		0.00		5.20		3.724e-02		134.104		8.178e-03		5.262
6		0.00		4.80		3.334e-02		134.459		6.911e-03		6.094
6		0.00		4.40		2.872e-02		133.871		5.933e-03		6.819
6		0.00		4.00		2.460e-02		134.714		4.970e-03		6.345
6		0.00		3.60		1.995e-02		135.265		4.174e-03		8.635
6		0.00		3.20		1.549e-02		135.168		3.289e-03		7.737
6		0.00		2.80		1.091e-02		134.728		2.575e-03		10.139
6		0.00		2.40		6.220e-03		133.048		1.716e-03		17.016
6		0.00		2.00		2.121e-03		36.051		1.005e-03		92.229
6		0.00		1.60		3.697e-03		-71.856		1.513e-03		26.865
6		0.00		1.20		9.093e-03		-52.997		2.334e-03		11.666
6		0.00		0.80		1.371e-02		-53.483		3.275e-03		9.820
6		0.00		0.40		1.898e-02		-50.852		4.265e-03		8.714
6		0.00		0.00		2.336e-02		-49.358		5.276e-03		6.898
6		0.00		-0.40		2.788e-02		-50.148		6.571e-03		7.824
6		0.00		-0.80		3.209e-02		-49.867		7.674e-03		6.620
6		0.00		-1.20		3.555e-02		-51.452		8.719e-03		7.838
6		0.00		-1.60		3.781e-02		-50.948		9.222e-03		9.132
6		0.00		-2.00		3.973e-02		-52.057		9.986e-03		11.823
6		0.00		-2.40		4.215e-02		-52.971		1.068e-02		10.500
6		0.00		-2.80		4.404e-02		-52.554		1.098e-02		11.409
6		0.00		-3.20		4.609e-02		-52.122		1.199e-02		14.794
6		0.00		-3.60		4.708e-02		-52.076		1.279e-02		14.449
6		0.00		-4.00		4.774e-02		-51.932		1.320e-02		15.163
6		0.00		-4.40		5.014e-02		-51.329		1.430e-02		15.307
6		0.00		-4.80		5.088e-02		-50.403		1.478e-02		14.778
6		0.00		-5.20		5.317e-02		-48.450		1.552e-02		11.206
6		0.00		-5.60		5.406e-02		-47.322		1.550e-02		9.611
6		0.00		-6.00		5.435e-02		-46.724		1.593e-02		11.727
6		0.00		-6.40		5.539e-02		-45.838		1.629e-02		9.321
6		0.00		-6.80		5.727e-02		-46.608		1.706e-02		10.061
6		0.00		-7.20		6.006e-02		-46.741		1.666e-02		10.831
6		0.00		-7.60		6.090e-02		-45.150		1.582e-02		8.122
6		0.00		-8.00		6.121e-02		-44.378		1.584e-02		8.583
6		0.00		-8.40		6.101e-02		-44.568		1.615e-02		9.658
6		0.00		-8.80		5.969e-02		-41.511		1.542e-02		8.248
6		0.00		-9.20		5.700e-02		-41.987		1.558e-02		7.081
6		0.00		-9.60		5.240e-02		-42.290		1.447e-02		5.924
6		0.00		-10.00		4.615e-02		-41.660		1.196e-02		5.324
6		0.00		-9.60		5.185e-02		-42.413		1.362e-02		6.191
6		0.00		-9.20		5.624e-02		-40.966		1.532e-02		6.459
6		0.00		-8.80		5.830e-02		-42.032		1.482e-02		6.899
6		0.00		-8.40		6.022e-02		-42.578		1.515e-02		8.018
6		0.00		-8.00		6.016e-02		-44.756		1.499e-02		8.093
6		0.00		-7.60		5.966e-02		-44.499		1.416e-02		6.061
6		0.00		-7.20		5.750e-02		-44.986		1.334e-02		5.364
6		0.00		-6.80		5.624e-02		-44.672		1.355e-02		5.251
6		0.00		-6.40		5.305e-02		-44.890		1.285e-02		5.689
6		0.00		-6.00		5.095e-02		-45.463		1.256e-02		4.727
6		0.00		-5.60		4.889e-02		-46.309		1.187e-02		5.746
6		0.00		-5.20		4.603e-02		-47.808		1.076e-02		5.434
6		0.00		-4.80		4.300e-02		-49.507		1.032e-02		7.670
6		0.00		-4.40		3.923e-02		-49.621		9.778e-03		8.291
6		0.00		-4.00		3.612e-02		-51.112		8.816e-03		11.682
6		0.00		-3.60		3.269e-02		-50.944		7.862e-03		12.111
6		0.00		-3.20		2.946e-02		-49.257		7.020e-03		11.808
6		0.00		-2.80		2.554e-02		-48.724		5.986e-03		11.598
6		0.00		-2.40		2.195e-02		-46.740		5.174e-03		10.815
6		0.00		-2.00		1.809e-02		-44.000		4.115e-03		10.016
6		0.00		-1.60		1.398e-02		-45.038		3.016e-03		11.168
6		0.00		-1.20		9.821e-03		-41.998		2.312e-03		12.626
6		0.00		-0.80		5.507e-03		-34.225		1.598e-03		17.481
6		0.00		-0.40		2.292e-03		-38.331		1.002e-03		57.763
7		0.00		0.00		3.349e-03		105.843		1.227e-03		42.692
7		0.00		0.40		7.256e-03		126.197		2.046e-03		11.900
7		0.00		0.80		1.180e-02		130.979		2.722e-03		9.186
7		0.00		1.20		1.569e-02		132.236		3.628e-03		8.049
7		0.00		1.60		1.999e-02		131.734		4.752e-03		7.882
7		0.00		2.00		2.401e-02		129.928		5.828e-03		7.966
7		0.00		2.40		2.816e-02		130.051		6.875e-03		11.010
7		0.00		2.80		3.215e-02		129.060		8.142e-03		14.860
7		0.00		3.20		3.581e-02		129.304		8.949e-03		13.922
7		0.00		3.60		3.910e-02		131.428		1.004e-02		11.877
7		0.00		4.00		4.234e-02		132.330		1.110e-02		7.380
7		0.00		4.40		4.575e-02		131.836		1.108e-02		5.737
7		0.00		4.80		4.921e-02		132.491		1.100e-02		5.903
7		0.00		5.20		5.248e-02		133.204		1.119e-02		5.658
7		0.00		5.60		5.529e-02		132.664		1.182e-02		6.576
7		0.00		6.00		5.778e-02		133.180		1.319e-02		5.582
7		0.00		6.40		5.870e-02		133.496		1.467e-02		5.797
7		0.00		6.80		5.919e-02		134.188		1.605e-02		6.056
7		0.00		7.20		5.920e-02		134.108		1.831e-02		8.290
7		0.00		7.60		5.984e-02		129.917		1.923e-02		18.433
7		0.00		8.00		6.156e-02		127.618		2.073e-02		19.636
7		0.00		8.40		6.400e-02		127.464		2.225e-02		20.692
7		0.00		8.80		6.143e-02		130.088		2.061e-02		33.853
7		0.00		9.20		6.283e-02		132.080		2.030e-02		30.865
7		0.00		9.60		6.205e-02		131.476		2.142e-02		24.640
7		0.00		10.00		6.203e-02		136.560		1.895e-02		10.396
7		0.00		9.60		6.270e-02		129.935		1.821e-02		36.628
7		0.00		9.20		6.317e-02		135.977		1.678e-02		8.865
7		0.00		8.80		6.326e-02		136.379		1.546e-02		6.522
7		0.00		8.40		6.101e-02		134.559		1.526e-02		5.782
7		0.00		8.00		5.926e-02		135.559		1.433e-02		6.431
7		0.00		7.60		5.775e-02		134.747		1.393e-02		5.447
7		0.00		7.20		5.484e-02		133.681		1.394e-02		6.285
7		0.00		6.80		5.105e-02		131.943		1.404e-02		7.223
7		0.00		6.40		4.714e-02		130.648		1.404e-02		13.680
7		0.00		6.00		4.379e-02		129.054		1.325e-02		17.322
7		0.00		5.60		3.944e-02		129.156		1.167e-02		19.177
7		0.00		5.20		3.569e-02		130.408		1.055e-02		16.029
7		0.00		4.80		3.239e-02		131.587		9.610e-03		13.579
7		0.00		4.40		2.843e-02		132.693		8.195e-03		8.650
7		0.00		4.00		2.450e-02		133.506		6.645e-03		8.491
7		0.00		3.60		2.117e-02		134.941		4.975e-03		7.229
7		0.00		3.20		1.710e-02		133.336		3.871e-03		8.104
7		0.00		2.80		1.306e-02		136.008		2.866e-03		9.293
7		0.00		2.40		8.078e-03		136.142		2.239e-03		12.357
7		0.00		2.00		3.184e-03		94.824		1.556e-03		61.062
7		0.00		1.60		2.811e-03		-69.919		1.177e-03		33.967
7		0.00		1.20		7.782e-03		-47.063		2.121e-03		12.273
7		0.00		0.80		1.268e-02		-48.619		3.125e-03		12.195
7		0.00		0.40		1.744e-02		-48.002		4.103e-03		12.837
7		0.00		0.00		2.241e-02		-49.513		5.400e-03		10.790
7		0.00		-0.40		2.677e-02		-49.315		6.231e-03		9.570
7		0.00		-0.80		3.054e-02		-47.776		7.218e-03		8.959
7		0.00		-1.20		3.432e-02		-48.733		7.951e-03		7.107
7		0.00		-1.60		3.793e-02		-49.012		7.901e-03		5.187
7		0.00		-2.00		4.028e-02		-50.174		7.933e-03		6.142
7		0.00		-2.40		4.239e-02		-49.887		8.191e-03		5.860
7		0.00		-2.80		4.463e-02		-50.271		8.794e-03		5.479
7		0.00		-3.20		4.578e-02		-49.546		1.011e-02		4.624
7		0.00		-3.60		4.736e-02		-50.973		1.224e-02		5.968
7		0.00		-4.00		4.930e-02		-52.047		1.298e-02		10.110
7		0.00		-4.40		5.062e-02		-52.483		1.325e-02		13.648
7		0.00		-4.80		5.297e-02		-49.787		1.420e-02		11.943
7		0.00		-5.20		5.427e-02		-47.387		1.433e-02		7.452
7		0.00		-5.60		5.578e-02		-46.583		1.386e-02		6.446
7		0.00		-6.00		5.683e-02		-45.876		1.287e-02		8.490
7		0.00		-6.40		5.979e-02		-45.625		1.274e-02		7.453
7		0.00		-6.80		6.312e-02		-45.658		1.400e-02		8.092
7		0.00		-7.20		6.588e-02		-43.686		1.461e-02		7.366
7		0.00		-7.60		6.399e-02		-44.194		1.667e-02		6.800
7		0.00		-8.00		6.304e-02		-41.691		1.877e-02		11.986
7		0.00		-8.40		6.198e-02		-44.290		1.967e-02		16.749
7		0.00		-8.80		5.774e-02		-44.681		1.898e-02		17.642
7		0.00		-9.20		5.420e-02		-44.783		1.853e-02		15.977
7		0.00		-9.60		4.969e-02		-44.817		1.681e-02		8.838
7		0.00		-10.00		4.386e-02		-41.903		1.336e-02		7.396
7		0.00		-9.60		4.990e-02		-42.838		1.517e-02		5.616
7		0.00		-9.20		5.505e-02		-41.804		1.603e-02		6.501
7		0.00		-8.80		5.798e-02		-41.164		1.471e-02		6.086
7		0.00		-8.40		6.154e-02		-42.875		1.529e-02		6.397
7		0.00		-8.00		6.209e-02		-44.294		1.621e-02		5.431
7		0.00		-7.60		5.924e-02		-44.047		1.647e-02		8.250
7		0.00		-7.20		5.830e-02		-43.047		1.643e-02		14.402
7		0.00		-6.80		5.579e-02		-47.790		1.550e-02		14.354
7		0.00		-6.40		5.236e-02		-45.893		1.430e-02		9.130
7		0.00		-6.00		5.052e-02		-45.785		1.297e-02		5.837
7		0.00		-5.60		4.902e-02		-46.283		1.159e-02		7.117
7		0.00		-5.20		4.589e-02		-46.513		9.921e-03		5.367
7		0.00		-4.80		4.287e-02		-48.630		9.174e-03		5.952
7		0.00		-4.40		3.960e-02		-48.575		8.335e-03		5.401
7		0.00		-4.00		3.574e-02		-47.970		8.264e-03		5.850
7		0.00		-3.60		3.223e-02		-48.503		8.177e-03		6.285
7		0.00		-3.20		2.829e-02		-50.423		7.637e-03		7.164
7		0.00		-2.80		2.421e-02		-49.733		6.809e-03		12.497
7		0.00		-2.40		2.047e-02		-47.257		5.826e-03		13.910
7		0.00		-2.00		1.738e-02		-48.544		4.634e-03		10.777
7		0.00		-1.60		1.368e-02		-42.530		3.296e-03		10.907
7		0.00		-1.20		9.834e-03		-43.150		2.231e-03		12.155
7		0.00		-0.80		5.835e-03		-41.760		1.754e-03		17.220
7		0.00		-0.40		2.176e-03		-28.101		9.010e-04		52.578
8		0.00		0.00		3.312e-03		101.241		1.304e-03		54.575
8		0.00		0.40		7.701e-03		130.291		1.943e-03		13.453
8		0.00		0.80		1.164e-02		128.738		2.744e-03		9.142
8		0.00		1.20		1.574e-02		130.880		3.835e-03		7.653
8		0.00		1.60		2.009e-02		129.033		5.053e-03		11.218
8		0.00		2.00		2.430e-02		129.596		6.180e-03		13.610
8		0.00		2.40		2.800e-02		127.903		7.627e-03		17.511
8		0.00		2.80		3.148e-02		128.878		8.834e-03		17.506
8		0.00		3.20		3.468e-02		129.304		1.001e-02		13.779
8		0.00		3.60		3.808e-02		131.712		1.098e-02		10.230
8		0.00		4.00		4.150e-02		132.361		1.174e-02		7.129
8		0.00		4.40		4.524e-02		131.545		1.192e-02		5.215
8		0.00		4.80		4.779e-02		132.288		1.274e-02		6.705
8		0.00		5.20		4.993e-02		132.666		1.233e-02		5.553
8		0.00		5.60		5.354e-02		132.673		1.252e-02		5.788
8		0.00		6.00		5.618e-02		132.904		1.266e-02		5.751
8		0.00		6.40		5.911e-02		133.609		1.315e-02		4.868
8		0.00		6.80		6.221e-02		134.004		1.469e-02		5.595
8		0.00		7.20		6.256e-02		135.702		1.530e-02		4.840
8		0.00		7.60		6.270e-02		136.529		1.673e-02		9.510
8		0.00		8.00		6.415e-02		134.930		1.814e-02		12.658
8		0.00		8.40		6.545e-02		135.026		1.901e-02		14.558
8		0.00		8.80		6.701e-02		132.261		2.010e-02		16.370
8		0.00		9.20		6.665e-02		128.582		2.213e-02		26.433
8		0.00		9.60		6.634e-02		127.908		2.347e-02		22.171
8		0.00		10.00		6.159e-02		128.190		2.257e-02		31.325
8		0.00		9.60		6.027e-02		130.780		2.201e-02		25.430
8		0.00		9.20		6.058e-02		128.710		2.125e-02		25.417
8		0.00		8.80		5.982e-02		129.884		2.070e-02		24.976
8		0.00		8.40		5.676e-02		133.923		1.875e-02		11.894
8		0.00		8.00		5.513e-02		132.566		1.711e-02		10.866
8		0.00		7.60		5.350e-02		132.115		1.599e-02		9.883
8		0.00		7.20		5.124e-02		132.216		1.453e-02		8.932
8		0.00		6.80		4.909e-02		132.886		1.269e-02		6.555
8		0.00		6.40		4.715e-02		133.915		1.094e-02		5.139
8		0.00		6.00		4.361e-02		134.091		9.740e-03		6.805
8		0.00		5.60		4.045e-02		134.181		8.630e-03		5.634
8		0.00		5.20		3.718e-02		133.801		7.918e-03		6.837
8		0.00		4.80		3.340e-02		134.967		6.929e-03		6.146
8		0.00		4.40		2.831e-02		135.901		6.176e-03		6.985
8		0.00		4.00		2.386e-02		134.073		5.053e-03		7.154
8		0.00		3.60		1.966e-02		134.750		4.389e-03		7.363
8		0.00		3.20		1.513e-02		136.241		3.527e-03		7.644
8		0.00		2.80		1.004e-02		135.686		2.589e-03		11.439
8		0.00		2.40		5.460e-03		132.633		1.790e-03		28.056
8		0.00		2.00		1.873e-03		-12.226		7.791e-04		78.478
8		0.00		1.60		5.201e-03		-54.813		1.862e-03		19.360
8		0.00		1.20		1.010e-02		-53.203		2.835e-03		16.422
8		0.00		0.80		1.497e-02		-51.634		4.210e-03		16.583
8		0.00		0.40		1.942e-02		-50.493		5.300e-03		14.098
8		0.00		0.00		2.415e-02		-50.215		6.392e-03		14.630
8		0.00		-0.40		2.834e-02		-50.295		7.492e-03		12.620
8		0.00		-0.80		3.222e-02		-48.554		7.805e-03		10.539
8		0.00		-1.20		3.552e-02		-47.940		8.738e-03		9.187
8		0.00		-1.60		3.861e-02		-49.120		9.416e-03		7.562
8		0.00		-2.00		4.150e-02		-48.865		1.028e-02		6.781
8		0.00		-2.40		4.399e-02		-49.305		1.076e-02		5.529
8		0.00		-2.80		4.544e-02		-49.756		1.094e-02		5.808
8		0.00		-3.20		4.659e-02		-49.803		1.088e-02		5.508
8		0.00		-3.60		4.861e-02		-49.314		1.115e-02		6.555
8		0.00		-4.00		4.994e-02		-50.542		1.167e-02		6.095
8		0.00		-4.40		5.110e-02		-49.884		1.191e-02		7.441
8		0.00		-4.80		5.165e-02		-49.717		1.291e-02		8.092
8		0.00		-5.20		5.333e-02		-48.822		1.355e-02		8.131
8		0.00		-5.60		5.473e-02		-47.485		1.472e-02		9.810
8		0.00		-6.00		5.622e-02		-46.629		1.483e-02		7.305
8		0.00		-6.40		5.623e-02		-45.960		1.542e-02		10.329
8		0.00		-6.80		5.647e-02		-46.857		1.598e-02		10.979
8		0.00		-7.20		5.877e-02		-44.509		1.648e-02		9.696
8		0.00		-7.60		5.997e-02		-45.894		1.703e-02		10.924
8		0.00		-8.00		6.015e-02		-44.799		1.761e-02		12.604
8		0.00		-8.40		6.110e-02		-44.516		1.724e-02		10.161
8		0.00		-8.80		5.787e-02		-43.321		1.711e-02		10.476
8		0.00		-9.20		5.396e-02		-41.971		1.595e-02		9.947
8		0.00		-9.60		5.167e-02		-43.626		1.576e-02		8.656
8		0.00		-10.00		4.590e-02		-41.169		1.387e-02		7.870
8		0.00		-9.60		5.235e-02		-42.965		1.628e-02		8.514
8		0.00		-9.20		5.577e-02		-41.215		1.717e-02		8.327
8		0.00		-8.80		5.781e-02		-42.451		1.694e-02		11.612
8		0.00		-8.40		5.943e-02		-43.637		1.739e-02		12.351
8		0.00		-8.00		5.911e-02		-44.572		1.722e-02		11.663
8		0.00		-7.60		5.827e-02		-45.892		1.771e-02		13.593
8		0.00		-7.20		5.737e-02		-46.567		1.778e-02		12.952
8		0.00		-6.80		5.423e-02		-48.324		1.691e-02		14.112
8		0.00		-6.40		5.214e-02		-48.731		1.598e-02		14.004
8		0.00		-6.00		5.065e-02		-48.844		1.538e-02		13.628
8		0.00		-5.60		4.753e-02		-50.607		1.443e-02		14.481
8		0.00		-5.20		4.553e-02		-49.891		1.327e-02		10.952
8		0.00		-4.80		4.166e-02		-49.889		1.221e-02		10.056
8		0.00		-4.40		3.846e-02		-49.215		1.061e-02		6.712
8		0.00		-4.00		3.608e-02		-48.802		8.495e-03		5.094
8		0.00		-3.60		3.320e-02		-47.760		7.203e-03		6.875
8		0.00		-3.20		2.950e-02		-48.392		5.927e-03		6.757
8		0.00		-2.80		2.595e-02		-46.910		4.959e-03		7.797
8		0.00		-2.40		2.215e-02		-45.522		3.964e-03		7.485
8		0.00		-2.00		1.796e-02		-46.999		3.361e-03		8.873
8		0.00		-1.60		1.418e-02		-44.086		2.534e-03		10.760
8		0.00		-1.20		9.982e-03		-42.075		2.204e-03		9.140
8		0.00		-0.80		5.302e-03		-33.638		1.603e-03		19.727
8		0.00		-0.40		2.140e-03		-23.984		9.170e-04		60.548
