# Date of analysis: 2024-03-08 10;59
# Segment other properties: height: -64.9932733313958, diff height: 215.86182909774044, deflection: 36.023715799855566, deflection error: 2.526204245548056, adhesion: 41.329852528728296, phase offset: 0
# 
# Loop index	Read Volt (V)	Write Volt (V)	Amplitude (a.u)	Phase (deg)	Sigma Amp (a.u)	Sigma Pha (deg)	
1		0.00		0.00		1.092e-02		-44.464		3.948e-03		32.009
1		0.00		0.40		7.282e-03		-48.974		1.784e-03		15.011
1		0.00		0.80		2.961e-03		-33.104		1.163e-03		33.152
1		0.00		1.20		2.742e-03		84.402		1.044e-03		58.617
1		0.00		1.60		7.083e-03		125.039		2.044e-03		15.665
1		0.00		2.00		1.172e-02		128.906		2.423e-03		12.369
1		0.00		2.40		1.623e-02		129.540		3.392e-03		11.490
1		0.00		2.80		2.034e-02		128.813		5.041e-03		15.506
1		0.00		3.20		2.423e-02		131.661		5.854e-03		9.490
1		0.00		3.60		2.825e-02		130.366		6.167e-03		9.776
1		0.00		4.00		3.162e-02		129.162		6.536e-03		9.786
1		0.00		4.40		3.521e-02		129.340		6.985e-03		9.579
1		0.00		4.80		3.823e-02		131.285		8.025e-03		11.585
1		0.00		5.20		4.068e-02		130.167		9.818e-03		15.394
1		0.00		5.60		4.384e-02		130.593		1.072e-02		11.195
1		0.00		6.00		4.725e-02		131.129		1.087e-02		8.770
1		0.00		6.40		4.895e-02		131.223		1.038e-02		10.965
1		0.00		6.80		5.047e-02		131.262		1.016e-02		10.226
1		0.00		7.20		5.162e-02		132.371		1.135e-02		12.144
1		0.00		7.60		5.451e-02		130.354		1.459e-02		16.597
1		0.00		8.00		5.723e-02		129.246		1.613e-02		19.450
1		0.00		8.40		5.752e-02		132.982		1.587e-02		12.245
1		0.00		8.80		5.870e-02		130.019		1.517e-02		18.418
1		0.00		9.20		5.857e-02		132.256		1.432e-02		20.292
1		0.00		9.60		5.582e-02		128.545		1.796e-02		22.024
1		0.00		10.00		5.487e-02		126.388		1.905e-02		22.671
1		0.00		9.60		5.789e-02		127.520		1.871e-02		22.267
1		0.00		9.20		5.852e-02		128.117		1.769e-02		12.996
1		0.00		8.80		5.680e-02		129.539		1.441e-02		15.888
1		0.00		8.40		5.301e-02		131.597		1.197e-02		9.199
1		0.00		8.00		4.814e-02		130.019		1.199e-02		13.920
1		0.00		7.60		4.738e-02		130.592		1.191e-02		13.946
1		0.00		7.20		4.472e-02		129.182		1.138e-02		18.208
1		0.00		6.80		4.200e-02		129.773		1.081e-02		16.123
1		0.00		6.40		3.955e-02		132.482		9.305e-03		9.107
1		0.00		6.00		3.705e-02		130.673		7.770e-03		10.002
1		0.00		5.60		3.343e-02		129.950		6.451e-03		9.288
1		0.00		5.20		3.010e-02		131.331		6.109e-03		10.577
1		0.00		4.80		2.617e-02		130.888		5.827e-03		14.551
1		0.00		4.40		2.255e-02		129.960		5.250e-03		17.251
1		0.00		4.00		1.915e-02		131.281		4.381e-03		10.942
1		0.00		3.60		1.501e-02		131.401		3.235e-03		12.270
1		0.00		3.20		1.111e-02		131.509		2.208e-03		12.426
1		0.00		2.80		6.931e-03		132.716		1.713e-03		15.102
1		0.00		2.40		2.601e-03		89.919		9.875e-04		50.498
1		0.00		2.00		2.701e-03		-57.091		1.173e-03		37.577
1		0.00		1.60		6.795e-03		-45.730		2.156e-03		22.367
1		0.00		1.20		1.091e-02		-51.214		2.933e-03		14.112
1		0.00		0.80		1.624e-02		-48.961		3.636e-03		11.004
1		0.00		0.40		2.111e-02		-51.349		4.261e-03		9.476
1		0.00		0.00		2.566e-02		-50.488		4.791e-03		9.223
1		0.00		-0.40		2.977e-02		-51.469		5.768e-03		8.291
1		0.00		-0.80		3.412e-02		-50.060		6.898e-03		9.381
1		0.00		-1.20		3.756e-02		-50.330		8.277e-03		9.178
1		0.00		-1.60		4.181e-02		-51.895		9.674e-03		8.112
1		0.00		-2.00		4.592e-02		-52.448		1.041e-02		9.609
1		0.00		-2.40		5.080e-02		-53.576		1.001e-02		8.704
1		0.00		-2.80		5.350e-02		-52.310		9.520e-03		7.057
1		0.00		-3.20		5.446e-02		-53.031		1.130e-02		9.561
1		0.00		-3.60		5.560e-02		-53.354		1.344e-02		13.717
1		0.00		-4.00		6.079e-02		-53.144		1.500e-02		11.962
1		0.00		-4.40		6.201e-02		-48.376		1.609e-02		12.826
1		0.00		-4.80		6.394e-02		-47.465		1.553e-02		13.699
1		0.00		-5.20		6.589e-02		-50.488		1.602e-02		13.977
1		0.00		-5.60		6.255e-02		-46.714		1.533e-02		18.090
1		0.00		-6.00		6.402e-02		-46.850		1.729e-02		18.711
1		0.00		-6.40		6.594e-02		-47.369		2.075e-02		21.088
1		0.00		-6.80		6.688e-02		-49.749		2.261e-02		22.556
1		0.00		-7.20		6.575e-02		-44.476		2.047e-02		20.465
1		0.00		-7.60		6.604e-02		-44.374		2.105e-02		26.446
1		0.00		-8.00		6.889e-02		-41.715		2.062e-02		23.387
1		0.00		-8.40		6.668e-02		-44.513		2.153e-02		25.102
1		0.00		-8.80		6.871e-02		-41.815		1.731e-02		16.617
1		0.00		-9.20		6.300e-02		-44.594		1.849e-02		18.764
1		0.00		-9.60		5.749e-02		-46.093		1.736e-02		16.591
1		0.00		-10.00		5.230e-02		-45.020		1.483e-02		16.589
1		0.00		-9.60		5.903e-02		-41.453		1.740e-02		20.779
1		0.00		-9.20		6.219e-02		-37.231		1.781e-02		25.726
1		0.00		-8.80		6.453e-02		-43.588		1.542e-02		11.259
1		0.00		-8.40		6.789e-02		-44.989		1.653e-02		11.236
1		0.00		-8.00		6.675e-02		-44.771		1.526e-02		11.844
1		0.00		-7.60		6.483e-02		-47.632		1.474e-02		13.745
1		0.00		-7.20		6.163e-02		-45.737		1.433e-02		12.257
1		0.00		-6.80		5.845e-02		-50.039		1.402e-02		14.956
1		0.00		-6.40		5.775e-02		-49.216		1.439e-02		11.528
1		0.00		-6.00		5.412e-02		-49.163		1.402e-02		10.568
1		0.00		-5.60		5.111e-02		-51.040		1.413e-02		12.898
1		0.00		-5.20		4.776e-02		-50.290		1.278e-02		9.011
1		0.00		-4.80		4.435e-02		-50.671		9.812e-03		7.270
1		0.00		-4.40		4.105e-02		-51.669		8.169e-03		6.868
1		0.00		-4.00		3.756e-02		-52.634		7.117e-03		7.927
1		0.00		-3.60		3.337e-02		-52.254		6.314e-03		9.609
1		0.00		-3.20		2.915e-02		-50.362		5.280e-03		10.170
1		0.00		-2.80		2.488e-02		-50.906		4.581e-03		9.936
1		0.00		-2.40		2.070e-02		-49.162		4.059e-03		11.530
1		0.00		-2.00		1.631e-02		-49.474		3.449e-03		12.170
1		0.00		-1.60		1.240e-02		-43.227		2.638e-03		12.883
1		0.00		-1.20		8.117e-03		-40.189		1.956e-03		14.341
1		0.00		-0.80		4.199e-03		-44.394		1.377e-03		28.216
1		0.00		-0.40		1.776e-03		37.352		7.510e-04		69.896
2		0.00		0.00		4.808e-03		116.108		1.641e-03		28.759
2		0.00		0.40		9.151e-03		126.353		2.315e-03		12.656
2		0.00		0.80		1.284e-02		126.933		3.077e-03		12.437
2		0.00		1.20		1.682e-02		129.190		4.235e-03		13.771
2		0.00		1.60		1.990e-02		127.208		4.980e-03		17.015
2		0.00		2.00		2.333e-02		129.261		6.598e-03		13.691
2		0.00		2.40		2.659e-02		131.056		7.373e-03		10.297
2		0.00		2.80		3.044e-02		129.014		7.557e-03		9.593
2		0.00		3.20		3.352e-02		129.619		7.464e-03		8.339
2		0.00		3.60		3.589e-02		128.963		8.216e-03		9.305
2		0.00		4.00		3.795e-02		130.519		9.107e-03		9.649
2		0.00		4.40		4.022e-02		129.556		1.069e-02		13.104
2		0.00		4.80		4.186e-02		127.197		1.265e-02		18.220
2		0.00		5.20		4.411e-02		128.851		1.337e-02		16.992
2		0.00		5.60		4.708e-02		131.605		1.283e-02		8.640
2		0.00		6.00		5.052e-02		131.534		1.248e-02		8.679
2		0.00		6.40		5.198e-02		133.234		1.167e-02		8.140
2		0.00		6.80		5.397e-02		132.929		1.216e-02		9.846
2		0.00		7.20		5.405e-02		128.541		1.487e-02		16.771
2		0.00		7.60		5.583e-02		127.720		1.634e-02		20.722
2		0.00		8.00		5.919e-02		130.571		1.683e-02		19.447
2		0.00		8.40		6.045e-02		128.413		1.720e-02		19.578
2		0.00		8.80		6.135e-02		127.722		1.648e-02		23.967
2		0.00		9.20		6.543e-02		130.216		1.776e-02		14.174
2		0.00		9.60		6.333e-02		133.863		1.619e-02		11.334
2		0.00		10.00		5.995e-02		131.289		1.702e-02		14.445
2		0.00		9.60		6.042e-02		128.037		1.912e-02		17.998
2		0.00		9.20		5.761e-02		127.812		1.820e-02		26.776
2		0.00		8.80		5.955e-02		128.591		1.855e-02		20.964
2		0.00		8.40		5.754e-02		127.024		1.747e-02		26.552
2		0.00		8.00		5.573e-02		130.876		1.549e-02		14.390
2		0.00		7.60		5.272e-02		131.914		1.267e-02		9.710
2		0.00		7.20		5.019e-02		132.340		1.084e-02		7.742
2		0.00		6.80		4.699e-02		132.143		1.002e-02		8.484
2		0.00		6.40		4.429e-02		130.860		1.034e-02		9.830
2		0.00		6.00		4.067e-02		130.235		1.039e-02		14.155
2		0.00		5.60		3.874e-02		130.181		9.997e-03		18.477
2		0.00		5.20		3.503e-02		132.738		9.281e-03		10.299
2		0.00		4.80		3.227e-02		132.554		7.471e-03		8.105
2		0.00		4.40		2.843e-02		133.312		5.914e-03		9.600
2		0.00		4.00		2.531e-02		132.516		5.156e-03		8.842
2		0.00		3.60		2.107e-02		132.087		4.281e-03		8.813
2		0.00		3.20		1.698e-02		134.912		3.780e-03		12.655
2		0.00		2.80		1.274e-02		129.743		2.979e-03		18.128
2		0.00		2.40		8.853e-03		132.704		2.279e-03		18.205
2		0.00		2.00		5.090e-03		123.814		1.552e-03		27.213
2		0.00		1.60		1.797e-03		27.314		7.706e-04		72.676
2		0.00		1.20		4.136e-03		-64.720		1.349e-03		25.925
2		0.00		0.80		8.260e-03		-52.473		2.281e-03		14.253
2		0.00		0.40		1.229e-02		-50.854		2.825e-03		13.520
2		0.00		0.00		1.662e-02		-48.942		4.495e-03		13.763
2		0.00		-0.40		2.070e-02		-47.061		5.675e-03		9.086
2		0.00		-0.80		2.484e-02		-51.450		6.236e-03		9.429
2		0.00		-1.20		2.920e-02		-53.354		6.171e-03		9.654
2		0.00		-1.60		3.372e-02		-53.462		6.744e-03		9.146
2		0.00		-2.00		3.674e-02		-53.930		8.042e-03		9.488
2		0.00		-2.40		4.048e-02		-52.645		9.163e-03		9.057
2		0.00		-2.80		4.367e-02		-52.878		1.033e-02		12.258
2		0.00		-3.20		4.723e-02		-53.516		1.185e-02		12.353
2		0.00		-3.60		5.164e-02		-52.597		1.274e-02		7.474
2		0.00		-4.00		5.517e-02		-53.693		1.233e-02		8.498
2		0.00		-4.40		5.870e-02		-53.734		1.244e-02		9.901
2		0.00		-4.80		5.824e-02		-52.723		1.282e-02		13.242
2		0.00		-5.20		5.885e-02		-53.520		1.478e-02		17.118
2		0.00		-5.60		6.188e-02		-48.709		1.672e-02		14.609
2		0.00		-6.00		6.463e-02		-46.029		1.765e-02		16.506
2		0.00		-6.40		6.393e-02		-46.713		1.703e-02		13.447
2		0.00		-6.80		6.629e-02		-48.018		1.809e-02		16.096
2		0.00		-7.20		6.718e-02		-44.075		1.697e-02		15.830
2		0.00		-7.60		6.713e-02		-47.797		2.053e-02		22.649
2		0.00		-8.00		6.966e-02		-47.834		1.893e-02		15.801
2		0.00		-8.40		6.384e-02		-43.825		2.134e-02		20.146
2		0.00		-8.80		6.287e-02		-44.890		1.976e-02		20.148
2		0.00		-9.20		6.038e-02		-39.974		1.786e-02		22.819
2		0.00		-9.60		5.744e-02		-43.819		1.600e-02		8.295
2		0.00		-10.00		4.996e-02		-45.300		1.285e-02		10.087
2		0.00		-9.60		5.513e-02		-47.115		1.557e-02		10.016
2		0.00		-9.20		5.771e-02		-49.019		1.771e-02		19.303
2		0.00		-8.80		6.182e-02		-45.491		1.824e-02		17.127
2		0.00		-8.40		6.287e-02		-43.749		1.610e-02		13.051
2		0.00		-8.00		6.571e-02		-46.647		1.555e-02		7.571
2		0.00		-7.60		6.546e-02		-47.671		1.384e-02		8.581
2		0.00		-7.20		5.951e-02		-47.290		1.260e-02		10.294
2		0.00		-6.80		5.689e-02		-47.765		1.243e-02		9.733
2		0.00		-6.40		5.447e-02		-49.401		1.360e-02		15.095
2		0.00		-6.00		5.220e-02		-48.527		1.326e-02		14.039
2		0.00		-5.60		4.994e-02		-50.045		1.254e-02		10.567
2		0.00		-5.20		4.648e-02		-49.767		9.338e-03		8.057
2		0.00		-4.80		4.272e-02		-50.235		7.723e-03		7.200
2		0.00		-4.40		3.770e-02		-50.794		7.393e-03		8.552
2		0.00		-4.00		3.308e-02		-52.998		7.722e-03		11.330
2		0.00		-3.60		2.907e-02		-52.713		7.543e-03		13.240
2		0.00		-3.20		2.565e-02		-51.793		6.929e-03		11.107
2		0.00		-2.80		2.223e-02		-49.631		5.319e-03		10.696
2		0.00		-2.40		1.814e-02		-49.546		3.447e-03		11.414
2		0.00		-2.00		1.418e-02		-46.244		2.437e-03		11.264
2		0.00		-1.60		1.003e-02		-47.735		2.037e-03		13.347
2		0.00		-1.20		5.811e-03		-37.494		1.670e-03		23.543
2		0.00		-0.80		2.952e-03		-41.044		1.081e-03		36.904
2		0.00		-0.40		2.581e-03		75.983		1.058e-03		60.073
3		0.00		0.00		6.274e-03		119.195		1.888e-03		17.067
3		0.00		0.40		1.067e-02		124.337		2.646e-03		12.366
3		0.00		0.80		1.478e-02		128.322		3.271e-03		10.074
3		0.00		1.20		1.796e-02		130.040		4.344e-03		13.007
3		0.00		1.60		2.158e-02		130.040		5.588e-03		13.364
3		0.00		2.00		2.484e-02		130.981		6.203e-03		8.413
3		0.00		2.40		2.903e-02		129.806		5.964e-03		8.309
3		0.00		2.80		3.206e-02		131.148		6.220e-03		7.923
3		0.00		3.20		3.472e-02		130.023		8.011e-03		9.754
3		0.00		3.60		3.693e-02		129.501		9.128e-03		14.135
3		0.00		4.00		3.942e-02		129.728		1.027e-02		14.881
3		0.00		4.40		4.179e-02		130.943		1.080e-02		6.859
3		0.00		4.80		4.373e-02		131.789		1.035e-02		8.803
3		0.00		5.20		4.603e-02		131.731		1.008e-02		7.679
3		0.00		5.60		4.742e-02		130.929		1.177e-02		10.331
3		0.00		6.00		4.983e-02		128.545		1.446e-02		18.122
3		0.00		6.40		5.286e-02		128.379		1.610e-02		20.415
3		0.00		6.80		5.506e-02		132.309		1.505e-02		9.205
3		0.00		7.20		5.693e-02		132.544		1.386e-02		11.337
3		0.00		7.60		5.650e-02		134.180		1.287e-02		11.290
3		0.00		8.00		5.751e-02		127.849		1.750e-02		19.186
3		0.00		8.40		6.001e-02		129.389		1.725e-02		17.921
3		0.00		8.80		6.162e-02		131.016		1.743e-02		19.316
3		0.00		9.20		6.328e-02		131.049		1.680e-02		21.044
3		0.00		9.60		6.515e-02		130.183		1.676e-02		12.581
3		0.00		10.00		6.046e-02		132.419		1.609e-02		14.751
3		0.00		9.60		6.288e-02		127.689		1.819e-02		19.113
3		0.00		9.20		6.112e-02		131.135		1.789e-02		18.748
3		0.00		8.80		6.025e-02		131.023		1.707e-02		19.019
3		0.00		8.40		5.845e-02		130.656		1.563e-02		15.915
3		0.00		8.00		5.741e-02		132.743		1.390e-02		8.622
3		0.00		7.60		5.514e-02		132.232		1.202e-02		8.018
3		0.00		7.20		5.009e-02		130.869		1.255e-02		11.563
3		0.00		6.80		4.615e-02		128.880		1.346e-02		15.520
3		0.00		6.40		4.378e-02		127.821		1.289e-02		19.343
3		0.00		6.00		4.113e-02		129.276		1.245e-02		19.536
3		0.00		5.60		3.838e-02		130.822		1.058e-02		10.420
3		0.00		5.20		3.529e-02		131.096		8.106e-03		10.023
3		0.00		4.80		3.151e-02		130.328		7.131e-03		11.224
3		0.00		4.40		2.824e-02		132.078		6.958e-03		10.311
3		0.00		4.00		2.449e-02		131.018		6.442e-03		15.823
3		0.00		3.60		2.102e-02		130.286		5.411e-03		18.596
3		0.00		3.20		1.798e-02		133.577		4.420e-03		11.276
3		0.00		2.80		1.431e-02		130.876		3.150e-03		11.120
3		0.00		2.40		1.018e-02		132.352		2.095e-03		11.775
3		0.00		2.00		6.411e-03		134.202		1.613e-03		16.040
3		0.00		1.60		2.508e-03		86.149		1.028e-03		62.679
3		0.00		1.20		2.986e-03		-42.675		1.114e-03		33.603
3		0.00		0.80		6.876e-03		-46.661		2.084e-03		20.806
3		0.00		0.40		1.127e-02		-45.667		2.475e-03		12.830
3		0.00		0.00		1.554e-02		-51.042		2.810e-03		10.038
3		0.00		-0.40		1.963e-02		-51.343		3.888e-03		10.153
3		0.00		-0.80		2.363e-02		-46.889		4.928e-03		11.256
3		0.00		-1.20		2.783e-02		-50.590		6.426e-03		10.539
3		0.00		-1.60		3.084e-02		-53.042		8.052e-03		11.279
3		0.00		-2.00		3.468e-02		-53.215		8.386e-03		9.138
3		0.00		-2.40		3.961e-02		-52.751		7.883e-03		7.719
3		0.00		-2.80		4.328e-02		-53.581		8.178e-03		7.475
3		0.00		-3.20		4.665e-02		-52.378		9.849e-03		8.638
3		0.00		-3.60		4.872e-02		-53.331		1.244e-02		11.591
3		0.00		-4.00		5.185e-02		-53.483		1.402e-02		12.149
3		0.00		-4.40		5.417e-02		-52.547		1.364e-02		8.461
3		0.00		-4.80		5.995e-02		-52.507		1.408e-02		11.128
3		0.00		-5.20		6.181e-02		-50.349		1.297e-02		11.151
3		0.00		-5.60		6.291e-02		-52.663		1.712e-02		16.537
3		0.00		-6.00		6.273e-02		-48.709		1.612e-02		14.708
3		0.00		-6.40		6.449e-02		-44.298		1.764e-02		21.384
3		0.00		-6.80		6.376e-02		-43.921		1.596e-02		15.949
3		0.00		-7.20		6.973e-02		-45.420		1.607e-02		14.325
3		0.00		-7.60		6.670e-02		-43.471		1.482e-02		17.608
3		0.00		-8.00		6.883e-02		-42.984		1.791e-02		17.280
3		0.00		-8.40		6.784e-02		-40.472		1.808e-02		14.725
3		0.00		-8.80		6.508e-02		-43.526		1.904e-02		16.422
3		0.00		-9.20		6.313e-02		-40.760		1.862e-02		22.340
3		0.00		-9.60		5.910e-02		-43.954		1.721e-02		10.006
3		0.00		-10.00		5.209e-02		-44.713		1.416e-02		6.615
3		0.00		-9.60		5.532e-02		-43.231		1.550e-02		10.744
3		0.00		-9.20		5.815e-02		-46.453		1.798e-02		14.455
3		0.00		-8.80		5.989e-02		-46.294		1.731e-02		14.383
3		0.00		-8.40		6.020e-02		-48.158		1.976e-02		21.036
3		0.00		-8.00		6.016e-02		-41.564		1.753e-02		22.947
3		0.00		-7.60		6.000e-02		-47.185		1.675e-02		10.987
3		0.00		-7.20		6.114e-02		-48.418		1.398e-02		8.673
3		0.00		-6.80		5.782e-02		-48.517		1.210e-02		9.739
3		0.00		-6.40		5.519e-02		-48.108		1.074e-02		9.012
3		0.00		-6.00		5.172e-02		-48.592		1.041e-02		10.569
3		0.00		-5.60		4.843e-02		-49.227		1.075e-02		11.620
3		0.00		-5.20		4.539e-02		-49.785		1.071e-02		12.517
3		0.00		-4.80		4.146e-02		-50.585		9.980e-03		11.811
3		0.00		-4.40		3.809e-02		-51.511		8.448e-03		8.415
3		0.00		-4.00		3.413e-02		-51.399		6.381e-03		8.193
3		0.00		-3.60		3.056e-02		-49.967		5.078e-03		8.651
3		0.00		-3.20		2.624e-02		-50.429		4.598e-03		9.157
3		0.00		-2.80		2.239e-02		-47.764		4.013e-03		9.290
3		0.00		-2.40		1.864e-02		-46.875		3.876e-03		11.308
3		0.00		-2.00		1.452e-02		-48.430		3.146e-03		13.149
3		0.00		-1.60		9.853e-03		-41.953		2.293e-03		15.942
3		0.00		-1.20		5.942e-03		-43.147		1.658e-03		20.440
3		0.00		-0.80		2.479e-03		-23.787		1.028e-03		47.746
3		0.00		-0.40		3.014e-03		88.911		1.105e-03		37.818
4		0.00		0.00		6.784e-03		119.394		1.595e-03		23.441
4		0.00		0.40		1.079e-02		129.250		2.188e-03		10.800
4		0.00		0.80		1.476e-02		127.408		3.465e-03		10.478
4		0.00		1.20		1.825e-02		124.995		4.583e-03		16.031
4		0.00		1.60		2.202e-02		126.879		5.541e-03		15.690
4		0.00		2.00		2.547e-02		130.403		6.302e-03		9.665
4		0.00		2.40		2.964e-02		130.328		6.350e-03		8.435
4		0.00		2.80		3.336e-02		130.748		6.667e-03		8.140
4		0.00		3.20		3.618e-02		129.887		6.972e-03		7.373
4		0.00		3.60		3.854e-02		131.525		7.855e-03		8.819
4		0.00		4.00		4.100e-02		131.267		9.081e-03		9.697
4		0.00		4.40		4.273e-02		130.003		1.056e-02		15.549
4		0.00		4.80		4.659e-02		129.675		1.202e-02		14.527
4		0.00		5.20		4.851e-02		131.896		1.223e-02		7.898
4		0.00		5.60		5.192e-02		131.698		1.154e-02		8.502
4		0.00		6.00		5.393e-02		132.328		1.049e-02		6.436
4		0.00		6.40		5.336e-02		133.368		1.127e-02		8.071
4		0.00		6.80		5.335e-02		130.150		1.505e-02		15.613
4		0.00		7.20		5.504e-02		132.248		1.638e-02		11.101
4		0.00		7.60		5.863e-02		127.892		1.806e-02		20.423
4		0.00		8.00		5.855e-02		130.789		1.752e-02		17.044
4		0.00		8.40		6.132e-02		134.148		1.670e-02		9.097
4		0.00		8.80		6.209e-02		132.278		1.642e-02		19.812
4		0.00		9.20		6.247e-02		134.563		1.672e-02		13.557
4		0.00		9.60		6.178e-02		128.613		1.986e-02		17.888
4		0.00		10.00		6.054e-02		126.125		2.049e-02		20.609
4		0.00		9.60		6.226e-02		127.858		1.951e-02		18.963
4		0.00		9.20		6.275e-02		125.888		1.781e-02		24.792
4		0.00		8.80		6.391e-02		131.917		1.594e-02		8.551
4		0.00		8.40		6.129e-02		133.288		1.300e-02		8.535
4		0.00		8.00		5.649e-02		133.685		1.168e-02		9.682
4		0.00		7.60		5.343e-02		131.355		1.177e-02		11.171
4		0.00		7.20		5.136e-02		129.653		1.335e-02		16.377
4		0.00		6.80		4.963e-02		129.363		1.277e-02		17.868
4		0.00		6.40		4.677e-02		129.554		1.192e-02		17.031
4		0.00		6.00		4.489e-02		131.101		1.137e-02		10.845
4		0.00		5.60		4.164e-02		131.694		9.090e-03		7.479
4		0.00		5.20		3.781e-02		132.357		7.584e-03		8.533
4		0.00		4.80		3.493e-02		131.209		6.754e-03		9.468
4		0.00		4.40		3.114e-02		131.482		6.269e-03		8.846
4		0.00		4.00		2.712e-02		131.570		6.019e-03		10.109
4		0.00		3.60		2.270e-02		131.383		5.734e-03		14.852
4		0.00		3.20		1.924e-02		131.358		4.848e-03		12.472
4		0.00		2.80		1.547e-02		134.087		3.673e-03		11.337
4		0.00		2.40		1.135e-02		128.784		2.165e-03		11.233
4		0.00		2.00		7.309e-03		132.064		1.329e-03		13.194
4		0.00		1.60		3.116e-03		105.783		1.014e-03		57.267
4		0.00		1.20		2.364e-03		-42.828		8.960e-04		53.416
4		0.00		0.80		6.470e-03		-54.333		1.812e-03		16.871
4		0.00		0.40		1.063e-02		-48.374		2.518e-03		11.604
4		0.00		0.00		1.473e-02		-50.788		3.022e-03		10.928
4		0.00		-0.40		1.968e-02		-49.005		3.566e-03		9.618
4		0.00		-0.80		2.425e-02		-52.257		4.113e-03		9.932
4		0.00		-1.20		2.842e-02		-52.036		4.852e-03		7.221
4		0.00		-1.60		3.240e-02		-50.616		6.244e-03		8.940
4		0.00		-2.00		3.578e-02		-51.191		7.609e-03		9.128
4		0.00		-2.40		3.979e-02		-51.889		8.946e-03		8.861
4		0.00		-2.80		4.357e-02		-51.993		9.800e-03		8.156
4		0.00		-3.20		4.765e-02		-53.559		9.645e-03		7.097
4		0.00		-3.60		5.031e-02		-54.151		1.069e-02		8.938
4		0.00		-4.00		5.167e-02		-53.511		1.179e-02		10.787
4		0.00		-4.40		5.495e-02		-53.953		1.427e-02		12.040
4		0.00		-4.80		5.705e-02		-53.547		1.629e-02		16.130
4		0.00		-5.20		5.919e-02		-48.607		1.667e-02		9.924
4		0.00		-5.60		6.171e-02		-49.599		1.614e-02		10.277
4		0.00		-6.00		6.336e-02		-47.580		1.560e-02		14.153
4		0.00		-6.40		6.419e-02		-50.338		1.670e-02		16.959
4		0.00		-6.80		6.578e-02		-47.143		1.798e-02		15.523
4		0.00		-7.20		6.814e-02		-47.495		1.865e-02		17.929
4		0.00		-7.60		6.696e-02		-44.930		1.816e-02		16.611
4		0.00		-8.00		7.038e-02		-44.483		1.701e-02		14.459
4		0.00		-8.40		6.613e-02		-39.257		1.392e-02		15.558
4		0.00		-8.80		6.697e-02		-44.770		1.617e-02		15.888
4		0.00		-9.20		6.528e-02		-45.668		1.824e-02		17.666
4		0.00		-9.60		5.976e-02		-44.635		1.812e-02		12.881
4		0.00		-10.00		5.384e-02		-39.426		1.514e-02		15.408
4		0.00		-9.60		5.962e-02		-45.505		1.682e-02		7.039
4		0.00		-9.20		6.230e-02		-42.056		1.523e-02		8.120
4		0.00		-8.80		6.349e-02		-45.659		1.516e-02		10.381
4		0.00		-8.40		6.516e-02		-49.381		1.692e-02		16.894
4		0.00		-8.00		6.448e-02		-49.138		1.822e-02		17.697
4		0.00		-7.60		6.221e-02		-47.120		1.684e-02		16.099
4		0.00		-7.20		6.098e-02		-47.692		1.570e-02		9.393
4		0.00		-6.80		5.899e-02		-48.402		1.227e-02		10.762
4		0.00		-6.40		5.707e-02		-48.453		1.041e-02		7.612
4		0.00		-6.00		5.197e-02		-48.343		1.009e-02		8.379
4		0.00		-5.60		4.808e-02		-49.319		1.108e-02		10.335
4		0.00		-5.20		4.523e-02		-50.313		1.188e-02		11.810
4		0.00		-4.80		4.164e-02		-49.487		1.014e-02		7.559
4		0.00		-4.40		3.808e-02		-50.528		6.971e-03		7.472
4		0.00		-4.00		3.461e-02		-52.079		5.522e-03		6.849
4		0.00		-3.60		3.004e-02		-50.144		5.388e-03		7.706
4		0.00		-3.20		2.631e-02		-49.015		5.141e-03		10.413
4		0.00		-2.80		2.190e-02		-50.330		4.695e-03		12.877
4		0.00		-2.40		1.858e-02		-47.301		3.637e-03		9.481
4		0.00		-2.00		1.442e-02		-46.426		2.573e-03		9.938
4		0.00		-1.60		1.000e-02		-40.127		1.816e-03		11.589
4		0.00		-1.20		5.811e-03		-39.829		1.159e-03		16.458
4		0.00		-0.80		2.033e-03		-19.617		7.809e-04		61.965
4		0.00		-0.40		3.281e-03		102.879		1.263e-03		44.564
5		0.00		0.00		7.256e-03		124.446		2.091e-03		19.517
5		0.00		0.40		1.149e-02		127.436		2.680e-03		11.697
5		0.00		0.80		1.563e-02		128.922		3.212e-03		8.328
5		0.00		1.20		1.939e-02		128.603		3.616e-03		8.168
5		0.00		1.60		2.313e-02		130.552		4.743e-03		9.432
5		0.00		2.00		2.679e-02		129.233		6.468e-03		11.476
5		0.00		2.40		2.989e-02		128.503		7.737e-03		11.861
5		0.00		2.80		3.304e-02		130.184		8.752e-03		8.968
5		0.00		3.20		3.589e-02		129.950		8.297e-03		7.725
5		0.00		3.60		3.906e-02		131.668		8.301e-03		7.180
5		0.00		4.00		4.098e-02		131.026		8.569e-03		8.262
5		0.00		4.40		4.332e-02		131.944		8.828e-03		8.250
5		0.00		4.80		4.546e-02		131.766		1.032e-02		12.095
5		0.00		5.20		4.822e-02		130.817		1.157e-02		14.173
5		0.00		5.60		5.088e-02		131.465		1.241e-02		10.317
5		0.00		6.00		5.423e-02		132.722		1.264e-02		7.591
5		0.00		6.40		5.721e-02		131.836		1.151e-02		6.333
5		0.00		6.80		5.734e-02		133.258		1.196e-02		8.821
5		0.00		7.20		5.899e-02		132.476		1.320e-02		12.321
5		0.00		7.60		6.079e-02		130.217		1.531e-02		16.456
5		0.00		8.00		6.167e-02		129.035		1.641e-02		18.797
5		0.00		8.40		6.329e-02		131.172		1.747e-02		19.810
5		0.00		8.80		6.177e-02		128.889		1.695e-02		26.652
5		0.00		9.20		6.330e-02		124.288		1.812e-02		44.078
5		0.00		9.60		6.659e-02		128.648		1.829e-02		32.232
5		0.00		10.00		6.329e-02		132.555		1.686e-02		14.175
5		0.00		9.60		6.288e-02		128.122		1.729e-02		15.861
5		0.00		9.20		6.186e-02		129.293		1.627e-02		16.933
5		0.00		8.80		5.980e-02		128.347		1.733e-02		19.294
5		0.00		8.40		5.829e-02		130.683		1.616e-02		16.428
5		0.00		8.00		5.758e-02		129.176		1.649e-02		16.718
5		0.00		7.60		5.518e-02		130.908		1.558e-02		17.380
5		0.00		7.20		5.412e-02		133.132		1.441e-02		7.807
5		0.00		6.80		5.239e-02		131.667		1.251e-02		9.016
5		0.00		6.40		4.954e-02		132.325		1.044e-02		7.228
5		0.00		6.00		4.634e-02		132.692		8.614e-03		6.129
5		0.00		5.60		4.192e-02		133.684		8.169e-03		7.762
5		0.00		5.20		3.886e-02		131.942		8.041e-03		9.605
5		0.00		4.80		3.538e-02		133.035		7.457e-03		9.251
5		0.00		4.40		3.170e-02		131.733		6.816e-03		11.612
5		0.00		4.00		2.835e-02		132.382		6.298e-03		11.949
5		0.00		3.60		2.379e-02		131.817		5.452e-03		16.521
5		0.00		3.20		2.050e-02		135.267		4.777e-03		10.937
5		0.00		2.80		1.613e-02		131.206		3.608e-03		9.685
5		0.00		2.40		1.177e-02		132.868		2.842e-03		11.395
5		0.00		2.00		7.864e-03		135.113		1.891e-03		11.956
5		0.00		1.60		3.748e-03		116.490		1.308e-03		33.355
5		0.00		1.20		2.077e-03		-32.406		7.705e-04		56.009
5		0.00		0.80		5.647e-03		-50.122		1.467e-03		18.659
5		0.00		0.40		1.008e-02		-52.026		2.528e-03		11.704
5		0.00		0.00		1.411e-02		-51.431		3.103e-03		13.720
5		0.00		-0.40		1.838e-02		-51.067		4.186e-03		13.384
5		0.00		-0.80		2.227e-02		-50.307		5.105e-03		13.149
5		0.00		-1.20		2.637e-02		-49.664		5.645e-03		8.424
5		0.00		-1.60		3.067e-02		-50.474		6.615e-03		9.313
5		0.00		-2.00		3.477e-02		-52.336		6.946e-03		8.196
5		0.00		-2.40		3.857e-02		-52.514		7.254e-03		8.064
5		0.00		-2.80		4.355e-02		-52.914		7.169e-03		7.262
5		0.00		-3.20		4.603e-02		-52.801		7.340e-03		7.604
5		0.00		-3.60		4.922e-02		-53.204		8.894e-03		9.262
5		0.00		-4.00		5.214e-02		-52.797		9.948e-03		10.115
5		0.00		-4.40		5.472e-02		-54.312		1.284e-02		16.062
5		0.00		-4.80		5.767e-02		-51.168		1.428e-02		12.968
5		0.00		-5.20		5.917e-02		-51.216		1.647e-02		17.216
5		0.00		-5.60		6.070e-02		-49.479		1.717e-02		12.210
5		0.00		-6.00		6.392e-02		-48.485		1.654e-02		11.547
5		0.00		-6.40		6.631e-02		-45.557		1.373e-02		10.494
5		0.00		-6.80		6.819e-02		-47.236		1.649e-02		14.437
5		0.00		-7.20		6.752e-02		-45.174		1.558e-02		18.239
5		0.00		-7.60		6.891e-02		-46.048		1.569e-02		16.901
5		0.00		-8.00		7.227e-02		-46.583		1.737e-02		13.599
5		0.00		-8.40		6.785e-02		-42.458		1.769e-02		14.819
5		0.00		-8.80		6.555e-02		-41.814		1.856e-02		14.346
5		0.00		-9.20		6.530e-02		-43.197		1.921e-02		20.028
5		0.00		-9.60		5.942e-02		-38.879		1.732e-02		23.600
5		0.00		-10.00		5.346e-02		-42.479		1.484e-02		15.971
5		0.00		-9.60		5.789e-02		-42.369		1.552e-02		13.488
5		0.00		-9.20		6.341e-02		-44.213		1.657e-02		7.791
5		0.00		-8.80		6.494e-02		-43.832		1.333e-02		8.893
5		0.00		-8.40		6.464e-02		-46.498		1.383e-02		13.004
5		0.00		-8.00		6.201e-02		-51.460		1.585e-02		18.017
5		0.00		-7.60		6.335e-02		-48.485		1.431e-02		13.879
5		0.00		-7.20		5.938e-02		-49.550		1.520e-02		16.769
5		0.00		-6.80		5.680e-02		-48.729		1.565e-02		12.621
5		0.00		-6.40		5.433e-02		-50.387		1.548e-02		14.918
5		0.00		-6.00		5.141e-02		-49.401		1.463e-02		9.987
5		0.00		-5.60		4.866e-02		-48.861		1.345e-02		7.565
5		0.00		-5.20		4.513e-02		-49.587		1.027e-02		5.798
5		0.00		-4.80		4.193e-02		-49.638		8.342e-03		7.738
5		0.00		-4.40		3.716e-02		-50.928		7.005e-03		8.185
5		0.00		-4.00		3.313e-02		-51.066		6.342e-03		8.657
5		0.00		-3.60		2.936e-02		-50.001		6.031e-03		8.227
5		0.00		-3.20		2.560e-02		-49.030		5.122e-03		10.318
5		0.00		-2.80		2.179e-02		-46.803		4.495e-03		11.716
5		0.00		-2.40		1.773e-02		-46.528		3.872e-03		11.038
5		0.00		-2.00		1.390e-02		-46.730		2.869e-03		9.164
5		0.00		-1.60		9.904e-03		-42.757		1.850e-03		11.841
5		0.00		-1.20		5.749e-03		-33.143		1.347e-03		14.788
5		0.00		-0.80		2.084e-03		-29.554		8.876e-04		48.339
5		0.00		-0.40		3.556e-03		110.604		1.120e-03		32.705
6		0.00		0.00		7.299e-03		127.405		1.851e-03		15.180
6		0.00		0.40		1.144e-02		129.530		2.495e-03		10.594
6		0.00		0.80		1.526e-02		129.399		3.438e-03		12.375
6		0.00		1.20		1.848e-02		131.227		4.233e-03		10.183
6		0.00		1.60		2.203e-02		127.433		4.971e-03		9.201
6		0.00		2.00		2.603e-02		128.652		5.021e-03		7.794
6		0.00		2.40		3.005e-02		130.508		5.400e-03		7.625
6		0.00		2.80		3.415e-02		129.452		6.035e-03		7.574
6		0.00		3.20		3.601e-02		130.755		7.330e-03		8.914
6		0.00		3.60		3.811e-02		131.822		8.337e-03		10.286
6		0.00		4.00		3.986e-02		130.084		1.067e-02		13.908
6		0.00		4.40		4.255e-02		130.893		1.172e-02		8.816
6		0.00		4.80		4.528e-02		131.837		1.074e-02		7.669
6		0.00		5.20		4.849e-02		131.650		9.367e-03		6.498
6		0.00		5.60		4.987e-02		132.966		9.428e-03		7.587
6		0.00		6.00		5.195e-02		130.923		1.188e-02		11.657
6		0.00		6.40		5.390e-02		128.559		1.450e-02		19.190
6		0.00		6.80		5.694e-02		131.625		1.480e-02		13.769
6		0.00		7.20		5.828e-02		133.513		1.391e-02		8.603
6		0.00		7.60		6.098e-02		132.411		1.357e-02		9.200
6		0.00		8.00		6.271e-02		132.310		1.503e-02		11.750
6		0.00		8.40		6.087e-02		129.874		1.659e-02		17.738
6		0.00		8.80		6.347e-02		129.445		1.756e-02		19.652
6		0.00		9.20		6.381e-02		127.517		1.733e-02		24.867
6		0.00		9.60		6.434e-02		130.269		1.852e-02		20.406
6		0.00		10.00		6.365e-02		133.814		1.663e-02		10.819
6		0.00		9.60		6.143e-02		127.369		1.662e-02		26.772
6		0.00		9.20		6.058e-02		130.854		1.764e-02		16.872
6		0.00		8.80		5.877e-02		131.024		1.672e-02		16.754
6		0.00		8.40		5.855e-02		129.659		1.787e-02		19.364
6		0.00		8.00		5.733e-02		129.680		1.755e-02		15.580
6		0.00		7.60		5.532e-02		132.408		1.353e-02		8.740
6		0.00		7.20		5.253e-02		133.303		1.114e-02		6.112
6		0.00		6.80		4.860e-02		132.067		1.092e-02		8.760
6		0.00		6.40		4.609e-02		130.428		1.216e-02		14.677
6		0.00		6.00		4.395e-02		129.712		1.094e-02		18.194
6		0.00		5.60		4.134e-02		132.559		9.800e-03		10.383
6		0.00		5.20		3.902e-02		132.033		7.726e-03		7.394
6		0.00		4.80		3.602e-02		132.875		5.944e-03		8.327
6		0.00		4.40		3.192e-02		131.196		5.366e-03		7.814
6		0.00		4.00		2.826e-02		133.320		5.046e-03		7.413
6		0.00		3.60		2.417e-02		131.993		5.266e-03		12.009
6		0.00		3.20		2.087e-02		132.430		4.725e-03		10.362
6		0.00		2.80		1.649e-02		132.855		3.253e-03		7.923
6		0.00		2.40		1.219e-02		133.533		2.208e-03		11.319
6		0.00		2.00		8.488e-03		127.787		1.707e-03		12.022
6		0.00		1.60		3.972e-03		124.085		1.269e-03		33.864
6		0.00		1.20		1.875e-03		3.469		7.795e-04		64.514
6		0.00		0.80		5.017e-03		-54.901		1.542e-03		18.964
6		0.00		0.40		9.137e-03		-48.524		2.185e-03		12.836
6		0.00		0.00		1.384e-02		-50.596		2.528e-03		10.920
6		0.00		-0.40		1.845e-02		-50.584		3.098e-03		8.223
6		0.00		-0.80		2.213e-02		-50.631		4.633e-03		10.379
6		0.00		-1.20		2.505e-02		-51.043		6.196e-03		13.004
6		0.00		-1.60		2.936e-02		-50.172		7.327e-03		9.447
6		0.00		-2.00		3.417e-02		-51.158		6.669e-03		7.784
6		0.00		-2.40		3.813e-02		-52.904		6.377e-03		6.941
6		0.00		-2.80		4.129e-02		-51.571		7.632e-03		7.388
6		0.00		-3.20		4.394e-02		-52.632		9.822e-03		10.603
6		0.00		-3.60		4.730e-02		-52.787		1.166e-02		11.893
6		0.00		-4.00		5.197e-02		-52.767		1.211e-02		8.097
6		0.00		-4.40		5.662e-02		-51.864		1.043e-02		6.126
6		0.00		-4.80		5.846e-02		-52.342		1.191e-02		8.475
6		0.00		-5.20		5.919e-02		-51.699		1.349e-02		13.308
6		0.00		-5.60		6.273e-02		-51.590		1.619e-02		16.725
6		0.00		-6.00		6.188e-02		-45.752		1.561e-02		15.031
6		0.00		-6.40		6.647e-02		-48.094		1.542e-02		13.007
6		0.00		-6.80		6.600e-02		-46.712		1.494e-02		14.751
6		0.00		-7.20		6.484e-02		-47.339		1.745e-02		17.814
6		0.00		-7.60		6.381e-02		-47.570		1.893e-02		17.369
6		0.00		-8.00		6.447e-02		-46.333		2.055e-02		18.396
6		0.00		-8.40		6.593e-02		-42.606		1.873e-02		16.587
6		0.00		-8.80		6.500e-02		-39.935		1.589e-02		13.095
6		0.00		-9.20		5.976e-02		-47.267		1.882e-02		18.627
6		0.00		-9.60		5.609e-02		-48.018		1.881e-02		18.121
6		0.00		-10.00		4.979e-02		-47.727		1.585e-02		20.428
6		0.00		-9.60		5.562e-02		-40.905		1.704e-02		18.576
6		0.00		-9.20		6.211e-02		-45.478		1.651e-02		7.847
6		0.00		-8.80		6.333e-02		-43.942		1.639e-02		13.863
6		0.00		-8.40		6.175e-02		-47.988		1.451e-02		12.704
6		0.00		-8.00		6.255e-02		-50.610		1.618e-02		17.961
6		0.00		-7.60		6.375e-02		-47.966		1.652e-02		12.930
6		0.00		-7.20		6.121e-02		-47.187		1.469e-02		7.581
6		0.00		-6.80		6.042e-02		-47.812		1.184e-02		6.359
6		0.00		-6.40		5.651e-02		-48.308		1.020e-02		7.346
6		0.00		-6.00		5.207e-02		-48.228		1.003e-02		8.475
6		0.00		-5.60		4.918e-02		-48.016		1.100e-02		11.403
6		0.00		-5.20		4.579e-02		-49.362		1.100e-02		10.768
6		0.00		-4.80		4.189e-02		-49.492		8.843e-03		7.844
6		0.00		-4.40		3.895e-02		-50.500		6.492e-03		7.308
6		0.00		-4.00		3.437e-02		-50.815		5.300e-03		7.327
6		0.00		-3.60		3.006e-02		-49.239		5.651e-03		8.307
6		0.00		-3.20		2.582e-02		-51.248		5.946e-03		11.346
6		0.00		-2.80		2.222e-02		-48.705		5.040e-03		10.250
6		0.00		-2.40		1.848e-02		-46.754		3.389e-03		11.100
6		0.00		-2.00		1.448e-02		-44.686		2.061e-03		10.392
6		0.00		-1.60		1.009e-02		-45.982		1.695e-03		13.579
6		0.00		-1.20		5.663e-03		-38.795		1.351e-03		15.560
6		0.00		-0.80		2.053e-03		-22.592		8.540e-04		53.684
6		0.00		-0.40		3.401e-03		100.508		1.226e-03		37.084
7		0.00		0.00		7.103e-03		118.432		2.098e-03		13.998
7		0.00		0.40		1.109e-02		128.421		2.018e-03		12.047
7		0.00		0.80		1.530e-02		126.523		2.969e-03		9.569
7		0.00		1.20		1.876e-02		128.944		4.152e-03		13.305
7		0.00		1.60		2.260e-02		129.601		5.115e-03		14.210
7		0.00		2.00		2.620e-02		130.657		5.547e-03		7.894
7		0.00		2.40		3.049e-02		129.325		5.379e-03		6.909
7		0.00		2.80		3.322e-02		131.197		6.080e-03		7.011
7		0.00		3.20		3.576e-02		130.718		7.118e-03		8.870
7		0.00		3.60		3.875e-02		131.016		8.511e-03		10.386
7		0.00		4.00		4.045e-02		129.773		1.023e-02		12.598
7		0.00		4.40		4.294e-02		132.004		9.604e-03		6.784
7		0.00		4.80		4.509e-02		131.201		1.003e-02		7.882
7		0.00		5.20		4.651e-02		132.169		1.048e-02		7.765
7		0.00		5.60		4.815e-02		129.810		1.322e-02		15.672
7		0.00		6.00		5.031e-02		128.278		1.464e-02		20.188
7		0.00		6.40		5.291e-02		131.856		1.541e-02		9.351
7		0.00		6.80		5.611e-02		132.451		1.321e-02		8.873
7		0.00		7.20		5.751e-02		131.556		1.372e-02		11.002
7		0.00		7.60		5.616e-02		127.624		1.663e-02		18.753
7		0.00		8.00		5.954e-02		129.278		1.731e-02		17.946
7		0.00		8.40		6.099e-02		131.339		1.698e-02		22.714
7		0.00		8.80		6.367e-02		133.720		1.624e-02		10.608
7		0.00		9.20		6.757e-02		131.841		1.567e-02		10.656
7		0.00		9.60		6.325e-02		131.962		1.540e-02		12.759
7		0.00		10.00		6.185e-02		128.830		1.777e-02		18.052
7		0.00		9.60		6.350e-02		125.641		1.880e-02		22.712
7		0.00		9.20		6.375e-02		125.576		1.875e-02		20.804
7		0.00		8.80		6.310e-02		131.407		1.570e-02		10.182
7		0.00		8.40		6.176e-02		133.854		1.287e-02		8.803
7		0.00		8.00		5.643e-02		135.248		1.098e-02		8.766
7		0.00		7.60		5.546e-02		131.848		1.308e-02		11.191
7		0.00		7.20		5.173e-02		128.874		1.376e-02		21.536
7		0.00		6.80		5.056e-02		130.460		1.349e-02		16.921
7		0.00		6.40		4.703e-02		132.201		1.164e-02		8.252
7		0.00		6.00		4.432e-02		132.060		8.900e-03		8.205
7		0.00		5.60		4.102e-02		133.495		7.939e-03		6.988
7		0.00		5.20		3.794e-02		133.159		8.023e-03		9.837
7		0.00		4.80		3.418e-02		130.893		8.474e-03		11.710
7		0.00		4.40		3.034e-02		129.964		7.950e-03		14.603
7		0.00		4.00		2.732e-02		132.152		6.988e-03		8.190
7		0.00		3.60		2.393e-02		132.862		4.943e-03		9.452
7		0.00		3.20		2.093e-02		131.833		3.786e-03		8.704
7		0.00		2.80		1.630e-02		130.703		3.371e-03		10.053
7		0.00		2.40		1.237e-02		131.648		2.575e-03		15.446
7		0.00		2.00		8.373e-03		130.665		2.038e-03		19.224
7		0.00		1.60		4.383e-03		122.111		1.391e-03		41.786
7		0.00		1.20		1.737e-03		-21.091		5.815e-04		73.634
7		0.00		0.80		5.025e-03		-49.160		1.557e-03		16.175
7		0.00		0.40		9.228e-03		-50.313		1.871e-03		12.268
7		0.00		0.00		1.377e-02		-46.937		2.865e-03		10.404
7		0.00		-0.40		1.801e-02		-51.547		4.068e-03		10.681
7		0.00		-0.80		2.204e-02		-49.861		4.675e-03		9.038
7		0.00		-1.20		2.612e-02		-50.088		4.467e-03		7.264
7		0.00		-1.60		3.030e-02		-50.928		5.071e-03		8.262
7		0.00		-2.00		3.352e-02		-51.924		7.051e-03		9.250
7		0.00		-2.40		3.677e-02		-51.505		8.685e-03		12.226
7		0.00		-2.80		3.988e-02		-53.185		1.035e-02		12.966
7		0.00		-3.20		4.339e-02		-53.002		1.099e-02		8.475
7		0.00		-3.60		4.813e-02		-53.547		9.908e-03		6.052
7		0.00		-4.00		5.166e-02		-54.459		1.061e-02		8.873
7		0.00		-4.40		5.150e-02		-53.338		1.233e-02		13.732
7		0.00		-4.80		5.419e-02		-52.827		1.523e-02		16.787
7		0.00		-5.20		5.670e-02		-51.946		1.677e-02		15.396
7		0.00		-5.60		6.187e-02		-49.256		1.588e-02		9.001
7		0.00		-6.00		6.556e-02		-50.807		1.441e-02		10.305
7		0.00		-6.40		6.438e-02		-47.858		1.354e-02		9.810
7		0.00		-6.80		6.512e-02		-48.737		1.571e-02		13.830
7		0.00		-7.20		6.633e-02		-45.632		1.785e-02		15.112
7		0.00		-7.60		6.659e-02		-44.965		1.813e-02		17.569
7		0.00		-8.00		6.647e-02		-42.803		1.618e-02		13.484
7		0.00		-8.40		7.086e-02		-44.045		1.658e-02		8.609
7		0.00		-8.80		6.560e-02		-45.997		1.875e-02		19.686
7		0.00		-9.20		6.457e-02		-45.599		1.816e-02		10.524
7		0.00		-9.60		5.784e-02		-49.180		1.776e-02		20.461
7		0.00		-10.00		5.159e-02		-43.576		1.522e-02		24.511
7		0.00		-9.60		5.734e-02		-43.751		1.678e-02		11.670
7		0.00		-9.20		6.253e-02		-44.026		1.570e-02		6.716
7		0.00		-8.80		6.212e-02		-44.833		1.633e-02		15.732
7		0.00		-8.40		6.233e-02		-47.226		1.627e-02		14.894
7		0.00		-8.00		6.137e-02		-51.056		1.700e-02		16.726
7		0.00		-7.60		6.123e-02		-44.570		1.874e-02		20.697
7		0.00		-7.20		5.921e-02		-48.166		1.586e-02		8.465
7		0.00		-6.80		5.966e-02		-47.462		1.314e-02		6.439
7		0.00		-6.40		5.537e-02		-47.377		1.009e-02		6.362
7		0.00		-6.00		5.068e-02		-49.148		1.011e-02		9.554
7		0.00		-5.60		4.870e-02		-49.136		1.089e-02		10.338
7		0.00		-5.20		4.518e-02		-48.773		1.042e-02		11.240
7		0.00		-4.80		4.136e-02		-49.556		9.225e-03		8.850
7		0.00		-4.40		3.771e-02		-50.670		6.770e-03		7.736
7		0.00		-4.00		3.431e-02		-51.568		5.536e-03		7.589
7		0.00		-3.60		3.003e-02		-49.608		4.989e-03		7.886
7		0.00		-3.20		2.552e-02		-47.381		4.696e-03		8.809
7		0.00		-2.80		2.164e-02		-47.799		4.533e-03		12.503
7		0.00		-2.40		1.749e-02		-45.855		3.499e-03		8.884
7		0.00		-2.00		1.375e-02		-46.857		2.450e-03		10.266
7		0.00		-1.60		9.557e-03		-45.341		1.555e-03		11.442
7		0.00		-1.20		5.683e-03		-41.365		1.298e-03		15.961
7		0.00		-0.80		2.284e-03		-14.868		8.439e-04		52.404
7		0.00		-0.40		3.745e-03		104.657		1.337e-03		42.200
8		0.00		0.00		7.397e-03		119.940		2.206e-03		15.232
8		0.00		0.40		1.111e-02		126.408		2.518e-03		10.971
8		0.00		0.80		1.580e-02		128.273		2.932e-03		7.991
8		0.00		1.20		1.915e-02		127.759		3.885e-03		9.866
8		0.00		1.60		2.281e-02		129.033		4.530e-03		10.421
8		0.00		2.00		2.553e-02		129.156		6.423e-03		15.250
8		0.00		2.40		2.910e-02		130.332		7.401e-03		9.390
8		0.00		2.80		3.283e-02		131.000		6.474e-03		7.282
8		0.00		3.20		3.636e-02		129.639		6.470e-03		7.787
8		0.00		3.60		3.853e-02		132.122		6.915e-03		8.216
8		0.00		4.00		4.052e-02		131.235		8.787e-03		10.523
8		0.00		4.40		4.290e-02		129.553		1.041e-02		13.842
8		0.00		4.80		4.588e-02		131.876		1.084e-02		6.984
8		0.00		5.20		4.909e-02		132.395		1.010e-02		5.676
8		0.00		5.60		5.075e-02		132.184		9.454e-03		6.457
8		0.00		6.00		5.184e-02		130.981		1.119e-02		11.359
8		0.00		6.40		5.382e-02		129.746		1.370e-02		16.788
8		0.00		6.80		5.719e-02		131.647		1.434e-02		14.007
8		0.00		7.20		5.864e-02		133.369		1.462e-02		9.434
8		0.00		7.60		6.125e-02		131.900		1.418e-02		9.097
8		0.00		8.00		6.008e-02		130.952		1.489e-02		14.795
8		0.00		8.40		6.144e-02		130.474		1.605e-02		15.528
8		0.00		8.80		6.359e-02		131.986		1.701e-02		12.707
8		0.00		9.20		6.349e-02		129.821		1.955e-02		21.930
8		0.00		9.60		6.313e-02		133.687		1.800e-02		12.824
8		0.00		10.00		6.388e-02		132.135		1.677e-02		11.625
8		0.00		9.60		6.357e-02		130.133		1.629e-02		14.678
8		0.00		9.20		6.143e-02		128.583		1.754e-02		18.223
8		0.00		8.80		6.097e-02		130.183		1.676e-02		17.411
8		0.00		8.40		6.020e-02		132.638		1.578e-02		11.030
8		0.00		8.00		5.885e-02		132.431		1.497e-02		13.581
8		0.00		7.60		5.870e-02		132.771		1.442e-02		7.477
8		0.00		7.20		5.613e-02		132.568		1.206e-02		7.302
8		0.00		6.80		5.328e-02		132.659		1.022e-02		5.910
8		0.00		6.40		4.789e-02		132.240		9.613e-03		8.580
8		0.00		6.00		4.554e-02		131.397		1.027e-02		13.031
8		0.00		5.60		4.278e-02		130.587		9.910e-03		15.010
8		0.00		5.20		3.880e-02		132.891		9.229e-03		11.880
8		0.00		4.80		3.623e-02		132.489		7.793e-03		8.013
8		0.00		4.40		3.344e-02		132.755		5.937e-03		7.143
8		0.00		4.00		2.950e-02		132.911		5.005e-03		7.761
8		0.00		3.60		2.559e-02		133.530		4.921e-03		9.637
8		0.00		3.20		2.139e-02		131.864		4.802e-03		12.182
8		0.00		2.80		1.695e-02		132.714		4.322e-03		13.289
8		0.00		2.40		1.320e-02		132.980		3.271e-03		10.152
8		0.00		2.00		8.877e-03		131.723		2.222e-03		12.212
8		0.00		1.60		5.157e-03		132.545		1.349e-03		15.787
8		0.00		1.20		1.905e-03		20.409		7.889e-04		89.960
8		0.00		0.80		3.754e-03		-45.088		1.296e-03		26.599
8		0.00		0.40		8.049e-03		-51.793		2.211e-03		16.867
8		0.00		0.00		1.217e-02		-49.737		2.619e-03		10.407
8		0.00		-0.40		1.678e-02		-49.791		3.227e-03		9.449
8		0.00		-0.80		2.154e-02		-49.687		3.689e-03		7.512
8		0.00		-1.20		2.568e-02		-51.272		3.664e-03		7.546
8		0.00		-1.60		2.963e-02		-50.780		4.387e-03		7.359
8		0.00		-2.00		3.373e-02		-49.685		5.876e-03		8.529
8		0.00		-2.40		3.638e-02		-50.586		7.830e-03		10.433
8		0.00		-2.80		4.038e-02		-51.959		8.982e-03		9.206
8		0.00		-3.20		4.451e-02		-52.385		8.651e-03		7.550
8		0.00		-3.60		4.856e-02		-52.502		7.723e-03		6.773
8		0.00		-4.00		5.259e-02		-53.671		9.530e-03		7.835
8		0.00		-4.40		5.442e-02		-52.042		1.061e-02		8.802
8		0.00		-4.80		5.635e-02		-51.932		1.405e-02		11.881
8		0.00		-5.20		5.897e-02		-49.263		1.646e-02		10.664
8		0.00		-5.60		6.129e-02		-48.669		1.474e-02		9.537
8		0.00		-6.00		6.640e-02		-49.237		1.356e-02		8.443
8		0.00		-6.40		6.598e-02		-47.030		1.359e-02		11.872
8		0.00		-6.80		6.685e-02		-46.505		1.531e-02		11.978
8		0.00		-7.20		6.477e-02		-46.437		1.736e-02		13.631
8		0.00		-7.60		6.530e-02		-46.063		1.804e-02		16.642
8		0.00		-8.00		6.683e-02		-39.608		1.673e-02		17.995
8		0.00		-8.40		7.062e-02		-42.426		1.655e-02		14.762
8		0.00		-8.80		6.761e-02		-43.661		1.611e-02		15.399
8		0.00		-9.20		6.466e-02		-44.984		1.578e-02		12.371
8		0.00		-9.60		6.082e-02		-47.279		1.671e-02		15.021
8		0.00		-10.00		5.284e-02		-42.539		1.483e-02		19.368
8		0.00		-9.60		6.004e-02		-43.358		1.682e-02		12.180
8		0.00		-9.20		6.341e-02		-42.883		1.648e-02		9.552
8		0.00		-8.80		6.548e-02		-41.506		1.450e-02		12.634
8		0.00		-8.40		6.573e-02		-42.614		1.355e-02		11.371
8		0.00		-8.00		6.642e-02		-45.154		1.456e-02		11.193
8		0.00		-7.60		6.424e-02		-46.203		1.463e-02		7.825
8		0.00		-7.20		6.134e-02		-48.083		1.577e-02		13.557
8		0.00		-6.80		5.960e-02		-48.138		1.570e-02		9.234
8		0.00		-6.40		5.823e-02		-48.121		1.320e-02		6.423
8		0.00		-6.00		5.432e-02		-48.967		9.845e-03		6.159
8		0.00		-5.60		5.120e-02		-48.633		9.485e-03		7.578
8		0.00		-5.20		4.560e-02		-49.792		9.589e-03		9.536
8		0.00		-4.80		4.146e-02		-50.107		9.634e-03		9.258
8		0.00		-4.40		3.758e-02		-49.766		9.183e-03		9.871
8		0.00		-4.00		3.364e-02		-50.454		7.695e-03		8.840
8		0.00		-3.60		3.060e-02		-51.131		5.323e-03		7.308
8		0.00		-3.20		2.712e-02		-50.806		3.927e-03		7.752
8		0.00		-2.80		2.296e-02		-48.531		3.444e-03		6.819
8		0.00		-2.40		1.841e-02		-46.696		3.200e-03		11.113
8		0.00		-2.00		1.402e-02		-46.469		2.545e-03		10.242
8		0.00		-1.60		1.040e-02		-45.010		2.142e-03		10.157
8		0.00		-1.20		5.711e-03		-42.344		1.338e-03		16.223
8		0.00		-0.80		2.006e-03		-35.096		8.376e-04		54.549
8		0.00		-0.40		3.530e-03		102.091		1.311e-03		32.793
