# Date of analysis: 2024-03-08 10;58
# Segment other properties: height: -51.656608414286865, diff height: 525.1023631880959, deflection: 34.095072357625966, deflection error: 3.140416129286236, adhesion: 44.80448778278657, phase offset: 0
# 
# Loop index	Read Volt (V)	Write Volt (V)	Amplitude (a.u)	Phase (deg)	Sigma Amp (a.u)	Sigma Pha (deg)	
1		0.00		0.00		4.952e-02		-52.551		1.161e-02		8.523
1		0.00		0.40		4.367e-02		-52.465		9.727e-03		8.470
1		0.00		0.80		3.695e-02		-52.764		7.928e-03		7.266
1		0.00		1.20		3.042e-02		-52.526		5.855e-03		7.518
1		0.00		1.60		2.360e-02		-52.935		4.473e-03		8.031
1		0.00		2.00		1.773e-02		-52.822		3.509e-03		8.735
1		0.00		2.40		1.112e-02		-52.444		2.487e-03		10.397
1		0.00		2.80		4.507e-03		-51.954		1.493e-03		23.755
1		0.00		3.20		2.835e-03		80.477		1.132e-03		58.406
1		0.00		3.60		8.363e-03		127.807		2.208e-03		15.268
1		0.00		4.00		1.444e-02		129.077		3.615e-03		13.676
1		0.00		4.40		1.936e-02		129.408		4.543e-03		13.693
1		0.00		4.80		2.529e-02		128.455		6.221e-03		15.596
1		0.00		5.20		3.067e-02		130.544		7.348e-03		14.117
1		0.00		5.60		3.533e-02		127.658		9.128e-03		18.817
1		0.00		6.00		3.990e-02		127.600		1.057e-02		14.153
1		0.00		6.40		4.368e-02		128.264		1.190e-02		10.052
1		0.00		6.80		4.729e-02		128.979		1.209e-02		7.823
1		0.00		7.20		5.178e-02		129.301		1.261e-02		7.385
1		0.00		7.60		5.237e-02		131.849		1.297e-02		8.180
1		0.00		8.00		5.377e-02		132.287		1.258e-02		8.351
1		0.00		8.40		5.729e-02		132.330		1.404e-02		9.045
1		0.00		8.80		5.682e-02		129.796		1.564e-02		12.550
1		0.00		9.20		5.766e-02		130.775		1.749e-02		14.488
1		0.00		9.60		5.637e-02		128.351		1.746e-02		15.178
1		0.00		10.00		5.428e-02		128.752		1.858e-02		16.647
1		0.00		9.60		5.470e-02		128.378		1.840e-02		16.527
1		0.00		9.20		5.427e-02		125.163		1.946e-02		42.284
1		0.00		8.80		5.152e-02		127.313		1.853e-02		22.579
1		0.00		8.40		4.819e-02		124.875		1.752e-02		30.259
1		0.00		8.00		4.581e-02		125.854		1.602e-02		24.156
1		0.00		7.60		4.309e-02		125.931		1.371e-02		19.713
1		0.00		7.20		4.036e-02		126.987		1.227e-02		17.524
1		0.00		6.80		3.688e-02		129.728		1.024e-02		8.858
1		0.00		6.40		3.414e-02		129.102		8.724e-03		7.979
1		0.00		6.00		3.066e-02		129.905		7.338e-03		8.270
1		0.00		5.60		2.684e-02		131.589		6.073e-03		8.169
1		0.00		5.20		2.209e-02		132.435		5.023e-03		9.076
1		0.00		4.80		1.736e-02		128.556		3.953e-03		9.290
1		0.00		4.40		1.260e-02		132.066		3.039e-03		9.646
1		0.00		4.00		8.064e-03		134.750		2.044e-03		13.447
1		0.00		3.60		3.404e-03		104.677		1.283e-03		63.001
1		0.00		3.20		3.013e-03		-64.075		1.389e-03		36.652
1		0.00		2.80		8.311e-03		-57.342		2.582e-03		14.782
1		0.00		2.40		1.376e-02		-54.629		3.953e-03		12.306
1		0.00		2.00		1.911e-02		-53.960		5.460e-03		14.582
1		0.00		1.60		2.453e-02		-53.290		7.007e-03		13.835
1		0.00		1.20		3.020e-02		-54.838		8.775e-03		12.606
1		0.00		0.80		3.596e-02		-52.925		1.012e-02		10.205
1		0.00		0.40		4.097e-02		-53.096		1.148e-02		8.663
1		0.00		0.00		4.634e-02		-51.812		1.167e-02		6.768
1		0.00		-0.40		5.207e-02		-51.378		1.143e-02		5.982
1		0.00		-0.80		5.535e-02		-51.511		1.193e-02		7.705
1		0.00		-1.20		5.836e-02		-53.140		1.305e-02		10.800
1		0.00		-1.60		5.911e-02		-55.313		1.600e-02		15.598
1		0.00		-2.00		5.981e-02		-48.659		1.342e-02		12.340
1		0.00		-2.40		6.356e-02		-47.347		1.664e-02		13.171
1		0.00		-2.80		6.345e-02		-51.469		1.927e-02		18.028
1		0.00		-3.20		6.349e-02		-51.346		1.901e-02		19.489
1		0.00		-3.60		6.242e-02		-48.362		1.887e-02		17.603
1		0.00		-4.00		6.100e-02		-45.092		1.823e-02		23.879
1		0.00		-4.40		6.217e-02		-48.651		1.854e-02		17.403
1		0.00		-4.80		6.322e-02		-53.620		2.033e-02		20.833
1		0.00		-5.20		6.237e-02		-46.758		1.875e-02		16.387
1		0.00		-5.60		6.260e-02		-42.635		1.657e-02		15.751
1		0.00		-6.00		6.625e-02		-44.294		1.803e-02		15.906
1		0.00		-6.40		6.456e-02		-41.999		1.519e-02		18.708
1		0.00		-6.80		6.513e-02		-45.038		1.865e-02		20.892
1		0.00		-7.20		6.121e-02		-42.381		1.947e-02		24.140
1		0.00		-7.60		6.466e-02		-45.889		2.179e-02		26.031
1		0.00		-8.00		6.016e-02		-40.965		2.089e-02		27.353
1		0.00		-8.40		6.405e-02		-46.827		2.386e-02		30.354
1		0.00		-8.80		6.028e-02		-37.390		1.959e-02		20.643
1		0.00		-9.20		6.047e-02		-34.582		1.878e-02		29.346
1		0.00		-9.60		5.890e-02		-45.544		1.956e-02		23.356
1		0.00		-10.00		5.214e-02		-42.889		1.656e-02		19.480
1		0.00		-9.60		5.692e-02		-41.151		1.652e-02		9.828
1		0.00		-9.20		6.037e-02		-35.624		1.665e-02		11.310
1		0.00		-8.80		6.430e-02		-39.346		1.675e-02		13.354
1		0.00		-8.40		6.383e-02		-44.089		1.505e-02		16.070
1		0.00		-8.00		6.300e-02		-43.300		1.733e-02		15.136
1		0.00		-7.60		6.268e-02		-42.701		1.810e-02		14.584
1		0.00		-7.20		6.067e-02		-45.556		1.844e-02		13.257
1		0.00		-6.80		6.014e-02		-44.769		2.021e-02		16.158
1		0.00		-6.40		5.809e-02		-46.960		1.985e-02		20.095
1		0.00		-6.00		5.542e-02		-45.683		1.734e-02		20.279
1		0.00		-5.60		5.467e-02		-51.426		1.660e-02		9.711
1		0.00		-5.20		5.208e-02		-51.225		1.485e-02		7.034
1		0.00		-4.80		4.980e-02		-50.766		1.263e-02		6.303
1		0.00		-4.40		4.554e-02		-52.396		1.040e-02		7.064
1		0.00		-4.00		4.155e-02		-52.335		9.112e-03		6.622
1		0.00		-3.60		3.776e-02		-52.954		8.300e-03		6.860
1		0.00		-3.20		3.406e-02		-51.828		7.756e-03		8.426
1		0.00		-2.80		2.939e-02		-52.172		7.243e-03		10.262
1		0.00		-2.40		2.479e-02		-50.060		6.453e-03		12.213
1		0.00		-2.00		2.019e-02		-50.352		5.231e-03		13.080
1		0.00		-1.60		1.574e-02		-50.167		4.150e-03		10.410
1		0.00		-1.20		1.102e-02		-49.123		2.932e-03		10.097
1		0.00		-0.80		6.388e-03		-49.170		1.803e-03		14.653
1		0.00		-0.40		2.237e-03		-39.580		9.851e-04		62.548
2		0.00		0.00		4.228e-03		115.820		1.486e-03		45.017
2		0.00		0.40		8.714e-03		124.760		2.319e-03		9.971
2		0.00		0.80		1.344e-02		126.901		3.783e-03		13.383
2		0.00		1.20		1.745e-02		126.815		5.440e-03		19.670
2		0.00		1.60		2.213e-02		125.265		6.740e-03		19.375
2		0.00		2.00		2.654e-02		127.701		8.121e-03		10.808
2		0.00		2.40		3.106e-02		130.053		8.669e-03		7.997
2		0.00		2.80		3.523e-02		131.214		8.702e-03		6.708
2		0.00		3.20		3.862e-02		131.216		9.370e-03		5.470
2		0.00		3.60		4.149e-02		130.787		1.087e-02		6.776
2		0.00		4.00		4.371e-02		130.268		1.274e-02		8.273
2		0.00		4.40		4.673e-02		129.294		1.507e-02		11.842
2		0.00		4.80		4.999e-02		129.062		1.569e-02		17.473
2		0.00		5.20		5.343e-02		127.579		1.612e-02		19.581
2		0.00		5.60		5.542e-02		129.572		1.600e-02		15.234
2		0.00		6.00		5.700e-02		132.844		1.516e-02		9.021
2		0.00		6.40		5.962e-02		133.652		1.448e-02		7.863
2		0.00		6.80		6.238e-02		132.511		1.493e-02		9.128
2		0.00		7.20		6.233e-02		132.998		1.581e-02		23.812
2		0.00		7.60		6.327e-02		130.331		1.744e-02		24.918
2		0.00		8.00		6.304e-02		131.945		1.919e-02		14.317
2		0.00		8.40		6.414e-02		128.653		2.277e-02		27.636
2		0.00		8.80		6.362e-02		132.162		2.079e-02		22.735
2		0.00		9.20		6.401e-02		126.422		2.175e-02		35.533
2		0.00		9.60		6.048e-02		128.027		2.130e-02		25.362
2		0.00		10.00		5.800e-02		125.802		1.983e-02		39.292
2		0.00		9.60		5.873e-02		132.409		1.729e-02		13.025
2		0.00		9.20		5.795e-02		131.724		1.759e-02		11.565
2		0.00		8.80		5.691e-02		129.441		1.717e-02		20.563
2		0.00		8.40		5.193e-02		126.446		1.762e-02		29.485
2		0.00		8.00		4.897e-02		130.057		1.658e-02		14.881
2		0.00		7.60		4.658e-02		127.080		1.594e-02		20.209
2		0.00		7.20		4.439e-02		126.753		1.448e-02		16.170
2		0.00		6.80		4.145e-02		129.402		1.229e-02		7.767
2		0.00		6.40		3.848e-02		130.822		9.802e-03		7.158
2		0.00		6.00		3.467e-02		132.378		8.334e-03		6.836
2		0.00		5.60		3.096e-02		131.089		7.008e-03		6.037
2		0.00		5.20		2.684e-02		131.747		6.363e-03		6.708
2		0.00		4.80		2.312e-02		132.499		5.760e-03		8.198
2		0.00		4.40		1.803e-02		130.738		4.917e-03		11.198
2		0.00		4.00		1.346e-02		130.409		3.975e-03		19.291
2		0.00		3.60		8.216e-03		129.917		2.385e-03		24.552
2		0.00		3.20		3.156e-03		117.955		1.107e-03		40.276
2		0.00		2.80		2.983e-03		-67.810		1.285e-03		31.772
2		0.00		2.40		8.786e-03		-66.361		2.331e-03		14.281
2		0.00		2.00		1.428e-02		-55.311		3.498e-03		10.535
2		0.00		1.60		2.038e-02		-52.715		4.522e-03		8.030
2		0.00		1.20		2.564e-02		-52.853		5.269e-03		7.581
2		0.00		0.80		3.093e-02		-52.980		6.524e-03		8.404
2		0.00		0.40		3.599e-02		-51.811		8.064e-03		7.918
2		0.00		0.00		4.101e-02		-50.881		9.696e-03		8.371
2		0.00		-0.40		4.512e-02		-51.490		1.202e-02		10.447
2		0.00		-0.80		4.930e-02		-52.869		1.369e-02		14.457
2		0.00		-1.20		5.333e-02		-51.603		1.399e-02		9.089
2		0.00		-1.60		5.597e-02		-51.007		1.398e-02		9.496
2		0.00		-2.00		5.816e-02		-52.674		1.622e-02		11.489
2		0.00		-2.40		5.937e-02		-52.069		1.529e-02		8.283
2		0.00		-2.80		6.233e-02		-52.550		1.596e-02		8.198
2		0.00		-3.20		6.416e-02		-53.361		1.489e-02		7.876
2		0.00		-3.60		6.341e-02		-48.593		1.464e-02		12.284
2		0.00		-4.00		6.820e-02		-52.228		1.537e-02		10.282
2		0.00		-4.40		6.486e-02		-49.243		1.404e-02		12.652
2		0.00		-4.80		6.524e-02		-45.693		1.381e-02		9.969
2		0.00		-5.20		6.444e-02		-43.535		1.741e-02		16.634
2		0.00		-5.60		6.426e-02		-44.113		1.916e-02		17.949
2		0.00		-6.00		6.449e-02		-41.958		2.056e-02		18.418
2		0.00		-6.40		6.527e-02		-44.304		2.077e-02		24.159
2		0.00		-6.80		6.179e-02		-43.277		1.851e-02		16.549
2		0.00		-7.20		5.976e-02		-39.961		1.742e-02		20.245
2		0.00		-7.60		6.332e-02		-41.767		1.827e-02		20.916
2		0.00		-8.00		6.351e-02		-36.941		2.014e-02		19.886
2		0.00		-8.40		6.364e-02		-42.941		1.869e-02		18.941
2		0.00		-8.80		6.489e-02		-37.443		1.930e-02		14.412
2		0.00		-9.20		6.244e-02		-37.577		1.642e-02		13.026
2		0.00		-9.60		6.069e-02		-41.937		1.707e-02		11.204
2		0.00		-10.00		5.456e-02		-41.811		1.370e-02		6.504
2		0.00		-9.60		6.019e-02		-43.273		1.667e-02		8.785
2		0.00		-9.20		6.352e-02		-40.530		1.604e-02		11.646
2		0.00		-8.80		6.447e-02		-40.010		1.751e-02		14.567
2		0.00		-8.40		6.694e-02		-39.909		1.749e-02		13.522
2		0.00		-8.00		6.600e-02		-41.326		1.932e-02		17.701
2		0.00		-7.60		6.373e-02		-44.687		1.757e-02		15.826
2		0.00		-7.20		6.296e-02		-44.713		1.713e-02		15.185
2		0.00		-6.80		6.039e-02		-43.818		1.830e-02		10.964
2		0.00		-6.40		5.813e-02		-46.524		1.741e-02		16.656
2		0.00		-6.00		5.654e-02		-48.938		1.759e-02		14.053
2		0.00		-5.60		5.413e-02		-49.523		1.603e-02		13.233
2		0.00		-5.20		5.173e-02		-51.443		1.553e-02		14.036
2		0.00		-4.80		4.837e-02		-53.315		1.428e-02		12.208
2		0.00		-4.40		4.459e-02		-52.790		1.234e-02		9.317
2		0.00		-4.00		4.054e-02		-53.180		1.090e-02		7.364
2		0.00		-3.60		3.722e-02		-53.421		9.133e-03		6.515
2		0.00		-3.20		3.359e-02		-52.594		7.468e-03		6.049
2		0.00		-2.80		2.970e-02		-49.924		6.072e-03		7.603
2		0.00		-2.40		2.547e-02		-51.685		4.709e-03		7.073
2		0.00		-2.00		2.071e-02		-50.525		3.792e-03		8.123
2		0.00		-1.60		1.644e-02		-49.324		3.168e-03		9.700
2		0.00		-1.20		1.138e-02		-51.389		2.240e-03		12.161
2		0.00		-0.80		6.909e-03		-51.898		1.837e-03		14.752
2		0.00		-0.40		2.306e-03		-49.488		1.029e-03		45.222
3		0.00		0.00		3.564e-03		107.478		1.223e-03		56.747
3		0.00		0.40		8.400e-03		128.167		1.950e-03		11.802
3		0.00		0.80		1.322e-02		128.396		3.012e-03		10.121
3		0.00		1.20		1.796e-02		130.094		3.839e-03		10.531
3		0.00		1.60		2.246e-02		129.698		5.395e-03		11.742
3		0.00		2.00		2.662e-02		129.338		6.595e-03		11.445
3		0.00		2.40		3.076e-02		130.142		7.982e-03		13.708
3		0.00		2.80		3.481e-02		128.887		8.969e-03		12.436
3		0.00		3.20		3.832e-02		130.244		1.041e-02		13.093
3		0.00		3.60		4.201e-02		129.655		1.166e-02		12.710
3		0.00		4.00		4.540e-02		129.687		1.288e-02		12.978
3		0.00		4.40		4.829e-02		129.427		1.406e-02		10.799
3		0.00		4.80		5.167e-02		130.279		1.457e-02		9.161
3		0.00		5.20		5.565e-02		130.480		1.481e-02		7.907
3		0.00		5.60		5.824e-02		131.855		1.482e-02		6.568
3		0.00		6.00		5.972e-02		132.936		1.448e-02		6.814
3		0.00		6.40		6.214e-02		132.428		1.507e-02		7.812
3		0.00		6.80		6.153e-02		134.743		1.459e-02		8.151
3		0.00		7.20		6.524e-02		134.275		1.522e-02		12.462
3		0.00		7.60		6.584e-02		137.606		1.547e-02		10.555
3		0.00		8.00		6.746e-02		135.731		1.548e-02		10.207
3		0.00		8.40		6.630e-02		131.104		1.580e-02		24.932
3		0.00		8.80		7.030e-02		130.791		1.857e-02		29.092
3		0.00		9.20		6.641e-02		126.167		1.706e-02		45.163
3		0.00		9.60		6.589e-02		128.979		2.011e-02		17.575
3		0.00		10.00		6.299e-02		129.922		1.925e-02		27.727
3		0.00		9.60		6.082e-02		131.052		1.850e-02		17.175
3		0.00		9.20		6.320e-02		131.726		1.806e-02		24.055
3		0.00		8.80		6.054e-02		132.028		1.862e-02		13.658
3		0.00		8.40		5.715e-02		131.179		1.711e-02		21.866
3		0.00		8.00		5.384e-02		128.777		1.672e-02		24.053
3		0.00		7.60		5.104e-02		129.104		1.628e-02		13.177
3		0.00		7.20		4.755e-02		132.312		1.430e-02		9.079
3		0.00		6.80		4.545e-02		131.208		1.292e-02		11.971
3		0.00		6.40		4.159e-02		130.260		1.154e-02		14.184
3		0.00		6.00		3.779e-02		128.757		1.049e-02		17.646
3		0.00		5.60		3.431e-02		130.144		9.144e-03		16.705
3		0.00		5.20		2.985e-02		131.396		8.014e-03		12.517
3		0.00		4.80		2.585e-02		130.817		6.941e-03		12.525
3		0.00		4.40		2.110e-02		132.990		5.375e-03		8.666
3		0.00		4.00		1.632e-02		136.030		4.106e-03		9.703
3		0.00		3.60		1.098e-02		131.881		2.912e-03		10.697
3		0.00		3.20		6.228e-03		133.235		1.949e-03		26.430
3		0.00		2.80		1.880e-03		-21.207		8.066e-04		83.647
3		0.00		2.40		5.435e-03		-68.317		1.369e-03		17.415
3		0.00		2.00		1.094e-02		-59.023		2.048e-03		9.785
3		0.00		1.60		1.653e-02		-52.342		2.964e-03		9.870
3		0.00		1.20		2.243e-02		-52.208		4.067e-03		7.551
3		0.00		0.80		2.813e-02		-52.693		4.821e-03		7.634
3		0.00		0.40		3.341e-02		-52.237		5.607e-03		6.909
3		0.00		0.00		3.903e-02		-52.226		6.879e-03		6.800
3		0.00		-0.40		4.318e-02		-51.754		8.499e-03		6.733
3		0.00		-0.80		4.800e-02		-51.950		9.301e-03		8.057
3		0.00		-1.20		5.242e-02		-52.195		1.121e-02		9.662
3		0.00		-1.60		5.597e-02		-51.777		1.285e-02		10.238
3		0.00		-2.00		5.794e-02		-50.251		1.396e-02		8.956
3		0.00		-2.40		5.991e-02		-48.828		1.582e-02		9.451
3		0.00		-2.80		6.238e-02		-50.192		1.668e-02		18.984
3		0.00		-3.20		6.347e-02		-50.583		1.742e-02		11.319
3		0.00		-3.60		6.169e-02		-50.836		1.638e-02		13.017
3		0.00		-4.00		6.415e-02		-51.788		1.732e-02		13.378
3		0.00		-4.40		6.250e-02		-50.547		1.703e-02		17.043
3		0.00		-4.80		6.134e-02		-46.431		1.788e-02		18.443
3		0.00		-5.20		6.558e-02		-47.175		2.077e-02		16.619
3		0.00		-5.60		6.324e-02		-49.215		1.945e-02		14.904
3		0.00		-6.00		6.214e-02		-44.105		1.920e-02		15.793
3		0.00		-6.40		6.204e-02		-42.337		1.875e-02		14.483
3		0.00		-6.80		6.618e-02		-46.847		2.080e-02		15.360
3		0.00		-7.20		6.484e-02		-44.718		1.884e-02		12.355
3		0.00		-7.60		6.540e-02		-46.918		2.008e-02		14.114
3		0.00		-8.00		6.510e-02		-42.549		1.853e-02		13.909
3		0.00		-8.40		6.548e-02		-41.396		1.831e-02		11.868
3		0.00		-8.80		6.650e-02		-40.702		1.816e-02		12.279
3		0.00		-9.20		6.523e-02		-40.524		1.817e-02		10.206
3		0.00		-9.60		5.975e-02		-42.699		1.598e-02		7.848
3		0.00		-10.00		5.417e-02		-42.597		1.379e-02		4.982
3		0.00		-9.60		6.032e-02		-42.316		1.639e-02		7.026
3		0.00		-9.20		6.577e-02		-41.544		1.719e-02		8.370
3		0.00		-8.80		6.650e-02		-41.563		1.671e-02		9.809
3		0.00		-8.40		6.473e-02		-40.133		1.441e-02		10.640
3		0.00		-8.00		6.548e-02		-41.309		1.477e-02		11.709
3		0.00		-7.60		6.785e-02		-43.079		1.531e-02		10.358
3		0.00		-7.20		6.311e-02		-44.621		1.387e-02		8.923
3		0.00		-6.80		6.313e-02		-46.181		1.413e-02		7.879
3		0.00		-6.40		6.092e-02		-47.944		1.406e-02		8.041
3		0.00		-6.00		5.904e-02		-48.699		1.335e-02		7.203
3		0.00		-5.60		5.702e-02		-48.244		1.212e-02		4.656
3		0.00		-5.20		5.305e-02		-49.577		1.125e-02		4.961
3		0.00		-4.80		4.965e-02		-50.649		1.048e-02		4.774
3		0.00		-4.40		4.510e-02		-50.751		9.381e-03		4.645
3		0.00		-4.00		4.160e-02		-52.338		8.266e-03		5.427
3		0.00		-3.60		3.784e-02		-52.309		7.192e-03		4.902
3		0.00		-3.20		3.388e-02		-50.889		6.334e-03		5.516
3		0.00		-2.80		2.942e-02		-50.836		5.213e-03		7.032
3		0.00		-2.40		2.538e-02		-50.321		4.571e-03		7.710
3		0.00		-2.00		2.046e-02		-50.721		3.745e-03		8.118
3		0.00		-1.60		1.576e-02		-50.714		2.912e-03		9.797
3		0.00		-1.20		1.060e-02		-48.951		2.218e-03		10.095
3		0.00		-0.80		5.901e-03		-40.492		1.609e-03		20.152
3		0.00		-0.40		1.994e-03		-43.681		7.840e-04		66.816
4		0.00		0.00		4.470e-03		122.608		1.527e-03		25.612
4		0.00		0.40		8.872e-03		128.641		2.214e-03		10.368
4		0.00		0.80		1.341e-02		126.938		2.842e-03		9.163
4		0.00		1.20		1.812e-02		129.371		3.693e-03		8.573
4		0.00		1.60		2.276e-02		130.174		4.713e-03		7.394
4		0.00		2.00		2.686e-02		130.366		5.471e-03		6.864
4		0.00		2.40		3.147e-02		131.077		6.425e-03		6.492
4		0.00		2.80		3.548e-02		129.753		7.160e-03		5.845
4		0.00		3.20		3.877e-02		131.490		8.046e-03		5.535
4		0.00		3.60		4.288e-02		131.841		8.911e-03		5.168
4		0.00		4.00		4.621e-02		131.509		9.145e-03		4.638
4		0.00		4.40		4.973e-02		132.344		9.554e-03		5.313
4		0.00		4.80		5.360e-02		132.403		1.068e-02		4.862
4		0.00		5.20		5.535e-02		132.917		1.130e-02		5.557
4		0.00		5.60		5.768e-02		133.174		1.152e-02		5.394
4		0.00		6.00		6.137e-02		132.746		1.297e-02		5.733
4		0.00		6.40		6.249e-02		133.234		1.401e-02		8.575
4		0.00		6.80		6.547e-02		132.142		1.523e-02		7.631
4		0.00		7.20		6.550e-02		136.257		1.411e-02		8.372
4		0.00		7.60		6.678e-02		135.244		1.494e-02		8.496
4		0.00		8.00		6.519e-02		134.700		1.607e-02		14.980
4		0.00		8.40		6.659e-02		137.747		1.656e-02		13.749
4		0.00		8.80		6.574e-02		136.330		1.733e-02		16.512
4		0.00		9.20		6.708e-02		135.574		1.717e-02		20.504
4		0.00		9.60		6.599e-02		127.849		1.911e-02		44.251
4		0.00		10.00		6.189e-02		132.936		1.802e-02		16.478
4		0.00		9.60		6.499e-02		133.040		1.973e-02		12.670
4		0.00		9.20		6.556e-02		132.488		1.968e-02		9.869
4		0.00		8.80		6.247e-02		132.552		1.699e-02		9.953
4		0.00		8.40		6.071e-02		132.543		1.584e-02		7.554
4		0.00		8.00		5.917e-02		131.402		1.483e-02		7.506
4		0.00		7.60		5.492e-02		131.188		1.398e-02		9.536
4		0.00		7.20		5.228e-02		130.637		1.366e-02		11.144
4		0.00		6.80		4.866e-02		129.644		1.287e-02		12.447
4		0.00		6.40		4.470e-02		130.031		1.175e-02		13.164
4		0.00		6.00		4.103e-02		130.726		1.041e-02		13.456
4		0.00		5.60		3.658e-02		131.205		9.231e-03		14.368
4		0.00		5.20		3.247e-02		131.705		8.215e-03		13.202
4		0.00		4.80		2.868e-02		131.368		6.993e-03		12.598
4		0.00		4.40		2.376e-02		133.658		5.825e-03		9.127
4		0.00		4.00		1.897e-02		134.493		4.621e-03		10.842
4		0.00		3.60		1.417e-02		134.140		3.381e-03		10.922
4		0.00		3.20		8.481e-03		137.830		2.050e-03		13.234
4		0.00		2.80		3.814e-03		117.258		1.441e-03		51.859
4		0.00		2.40		2.802e-03		-71.280		1.113e-03		36.062
4		0.00		2.00		8.702e-03		-58.616		1.968e-03		13.227
4		0.00		1.60		1.412e-02		-54.126		2.645e-03		9.804
4		0.00		1.20		1.935e-02		-53.627		3.622e-03		8.884
4		0.00		0.80		2.510e-02		-52.760		4.093e-03		7.874
4		0.00		0.40		3.029e-02		-51.710		4.722e-03		6.457
4		0.00		0.00		3.574e-02		-51.366		6.259e-03		5.419
4		0.00		-0.40		4.099e-02		-51.667		7.232e-03		4.872
4		0.00		-0.80		4.597e-02		-52.284		8.642e-03		4.453
4		0.00		-1.20		4.964e-02		-53.078		1.068e-02		6.735
4		0.00		-1.60		5.325e-02		-52.890		1.244e-02		7.778
4		0.00		-2.00		5.713e-02		-52.130		1.434e-02		7.789
4		0.00		-2.40		5.902e-02		-53.353		1.491e-02		10.065
4		0.00		-2.80		6.032e-02		-52.566		1.566e-02		11.926
4		0.00		-3.20		6.004e-02		-51.717		1.604e-02		10.897
4		0.00		-3.60		6.080e-02		-52.226		1.680e-02		13.612
4		0.00		-4.00		6.185e-02		-51.597		1.720e-02		12.199
4		0.00		-4.40		6.263e-02		-47.219		1.683e-02		8.685
4		0.00		-4.80		6.321e-02		-47.238		1.560e-02		10.995
4		0.00		-5.20		6.376e-02		-46.057		1.483e-02		10.687
4		0.00		-5.60		6.460e-02		-45.734		1.558e-02		12.613
4		0.00		-6.00		6.772e-02		-46.441		1.489e-02		10.456
4		0.00		-6.40		6.773e-02		-43.842		1.526e-02		11.758
4		0.00		-6.80		6.727e-02		-42.036		1.320e-02		11.690
4		0.00		-7.20		7.129e-02		-43.855		1.567e-02		14.192
4		0.00		-7.60		6.789e-02		-38.799		1.496e-02		11.646
4		0.00		-8.00		6.962e-02		-42.116		1.621e-02		13.653
4		0.00		-8.40		6.566e-02		-41.617		1.573e-02		11.805
4		0.00		-8.80		6.474e-02		-39.996		1.785e-02		11.836
4		0.00		-9.20		6.363e-02		-42.153		1.872e-02		14.323
4		0.00		-9.60		5.925e-02		-39.889		1.836e-02		16.374
4		0.00		-10.00		5.166e-02		-38.258		1.552e-02		18.206
4		0.00		-9.60		5.651e-02		-41.915		1.867e-02		21.754
4		0.00		-9.20		5.857e-02		-40.162		2.050e-02		18.341
4		0.00		-8.80		6.130e-02		-42.751		2.057e-02		19.449
4		0.00		-8.40		6.287e-02		-41.656		1.931e-02		15.795
4		0.00		-8.00		6.171e-02		-42.743		1.767e-02		13.740
4		0.00		-7.60		6.163e-02		-45.076		1.656e-02		13.508
4		0.00		-7.20		6.204e-02		-46.017		1.577e-02		10.403
4		0.00		-6.80		6.078e-02		-48.022		1.448e-02		10.335
4		0.00		-6.40		6.018e-02		-48.555		1.377e-02		9.096
4		0.00		-6.00		5.834e-02		-47.277		1.139e-02		5.055
4		0.00		-5.60		5.514e-02		-47.406		1.106e-02		5.026
4		0.00		-5.20		5.219e-02		-50.059		1.108e-02		4.178
4		0.00		-4.80		4.833e-02		-51.259		1.110e-02		5.449
4		0.00		-4.40		4.352e-02		-52.325		1.078e-02		6.826
4		0.00		-4.00		3.925e-02		-52.096		9.828e-03		10.616
4		0.00		-3.60		3.540e-02		-51.581		8.595e-03		11.133
4		0.00		-3.20		3.157e-02		-51.207		7.870e-03		11.077
4		0.00		-2.80		2.737e-02		-48.942		6.172e-03		9.941
4		0.00		-2.40		2.301e-02		-49.994		5.068e-03		11.656
4		0.00		-2.00		1.866e-02		-47.767		3.960e-03		10.331
4		0.00		-1.60		1.392e-02		-49.096		2.956e-03		11.112
4		0.00		-1.20		9.679e-03		-43.251		2.120e-03		13.541
4		0.00		-0.80		5.259e-03		-48.629		1.522e-03		18.435
4		0.00		-0.40		1.724e-03		0.271		6.820e-04		74.694
5		0.00		0.00		5.003e-03		124.655		1.307e-03		16.077
5		0.00		0.40		9.403e-03		129.365		2.339e-03		12.486
5		0.00		0.80		1.407e-02		129.558		2.886e-03		8.531
5		0.00		1.20		1.886e-02		132.060		4.139e-03		7.430
5		0.00		1.60		2.309e-02		129.920		4.808e-03		7.255
5		0.00		2.00		2.776e-02		130.020		6.359e-03		8.142
5		0.00		2.40		3.155e-02		130.220		7.597e-03		9.416
5		0.00		2.80		3.550e-02		130.776		8.757e-03		12.352
5		0.00		3.20		3.954e-02		130.674		9.440e-03		13.573
5		0.00		3.60		4.270e-02		131.557		1.008e-02		11.557
5		0.00		4.00		4.583e-02		132.117		1.089e-02		9.576
5		0.00		4.40		5.000e-02		131.829		1.109e-02		6.398
5		0.00		4.80		5.279e-02		133.129		1.124e-02		5.136
5		0.00		5.20		5.518e-02		131.310		1.181e-02		6.379
5		0.00		5.60		5.733e-02		131.251		1.395e-02		10.021
5		0.00		6.00		6.018e-02		132.507		1.331e-02		7.726
5		0.00		6.40		6.035e-02		134.295		1.403e-02		8.722
5		0.00		6.80		6.135e-02		134.696		1.461e-02		8.279
5		0.00		7.20		6.305e-02		133.164		1.763e-02		8.938
5		0.00		7.60		6.253e-02		131.551		1.959e-02		18.679
5		0.00		8.00		6.273e-02		129.022		2.026e-02		22.150
5		0.00		8.40		6.272e-02		131.855		1.945e-02		23.664
5		0.00		8.80		6.199e-02		133.618		1.875e-02		29.272
5		0.00		9.20		6.576e-02		130.309		1.930e-02		29.612
5		0.00		9.60		6.570e-02		133.673		1.922e-02		16.621
5		0.00		10.00		6.628e-02		134.034		1.668e-02		13.209
5		0.00		9.60		6.209e-02		126.742		1.594e-02		32.905
5		0.00		9.20		6.982e-02		131.176		1.738e-02		11.072
5		0.00		8.80		6.529e-02		134.659		1.487e-02		10.517
5		0.00		8.40		6.272e-02		131.779		1.557e-02		7.775
5		0.00		8.00		5.983e-02		131.433		1.577e-02		6.226
5		0.00		7.60		5.620e-02		129.691		1.558e-02		9.438
5		0.00		7.20		5.174e-02		127.870		1.560e-02		18.494
5		0.00		6.80		4.797e-02		130.051		1.367e-02		14.044
5		0.00		6.40		4.380e-02		131.611		1.179e-02		8.716
5		0.00		6.00		4.022e-02		132.330		9.898e-03		6.762
5		0.00		5.60		3.688e-02		132.410		7.986e-03		7.063
5		0.00		5.20		3.347e-02		133.230		6.659e-03		6.895
5		0.00		4.80		2.928e-02		132.467		5.794e-03		6.545
5		0.00		4.40		2.448e-02		132.955		4.966e-03		6.528
5		0.00		4.00		1.940e-02		134.005		4.346e-03		6.362
5		0.00		3.60		1.446e-02		133.470		3.457e-03		9.623
5		0.00		3.20		9.326e-03		132.635		2.448e-03		15.593
5		0.00		2.80		3.699e-03		118.681		1.233e-03		44.531
5		0.00		2.40		2.347e-03		-57.088		9.577e-04		50.795
5		0.00		2.00		7.076e-03		-55.781		1.924e-03		15.021
5		0.00		1.60		1.264e-02		-50.178		2.522e-03		11.341
5		0.00		1.20		1.813e-02		-53.925		3.399e-03		10.329
5		0.00		0.80		2.429e-02		-49.925		3.456e-03		6.510
5		0.00		0.40		2.912e-02		-52.529		5.035e-03		6.689
5		0.00		0.00		3.492e-02		-51.970		6.411e-03		6.157
5		0.00		-0.40		3.942e-02		-52.448		8.180e-03		6.159
5		0.00		-0.80		4.408e-02		-51.889		1.033e-02		6.854
5		0.00		-1.20		4.800e-02		-53.102		1.303e-02		7.967
5		0.00		-1.60		5.164e-02		-54.083		1.410e-02		13.125
5		0.00		-2.00		5.472e-02		-53.537		1.462e-02		14.763
5		0.00		-2.40		5.769e-02		-51.367		1.496e-02		9.897
5		0.00		-2.80		6.159e-02		-54.151		1.485e-02		12.309
5		0.00		-3.20		6.394e-02		-51.992		1.240e-02		7.465
5		0.00		-3.60		6.454e-02		-52.594		1.329e-02		10.094
5		0.00		-4.00		6.684e-02		-51.260		1.232e-02		7.159
5		0.00		-4.40		6.560e-02		-51.661		1.511e-02		7.781
5		0.00		-4.80		6.524e-02		-47.968		1.593e-02		10.113
5		0.00		-5.20		6.352e-02		-48.871		1.754e-02		12.620
5		0.00		-5.60		6.485e-02		-45.297		1.822e-02		20.390
5		0.00		-6.00		6.446e-02		-42.909		1.763e-02		11.721
5		0.00		-6.40		6.431e-02		-40.749		1.631e-02		10.021
5		0.00		-6.80		6.697e-02		-40.638		1.539e-02		10.175
5		0.00		-7.20		6.806e-02		-41.797		1.512e-02		10.496
5		0.00		-7.60		6.842e-02		-41.332		1.588e-02		13.686
5		0.00		-8.00		6.741e-02		-42.056		1.777e-02		13.138
5		0.00		-8.40		6.340e-02		-41.575		1.772e-02		14.443
5		0.00		-8.80		6.194e-02		-40.787		2.006e-02		16.434
5		0.00		-9.20		5.968e-02		-41.858		1.920e-02		21.054
5		0.00		-9.60		5.679e-02		-43.462		1.910e-02		20.807
5		0.00		-10.00		5.027e-02		-43.375		1.585e-02		8.937
5		0.00		-9.60		5.792e-02		-44.615		1.611e-02		8.136
5		0.00		-9.20		6.292e-02		-42.442		1.568e-02		8.348
5		0.00		-8.80		6.595e-02		-41.948		1.547e-02		9.735
5		0.00		-8.40		6.534e-02		-41.553		1.457e-02		8.276
5		0.00		-8.00		6.645e-02		-43.251		1.641e-02		8.324
5		0.00		-7.60		6.352e-02		-44.274		1.732e-02		11.245
5		0.00		-7.20		6.175e-02		-44.000		1.656e-02		15.230
5		0.00		-6.80		6.102e-02		-44.987		1.646e-02		13.959
5		0.00		-6.40		6.063e-02		-47.006		1.551e-02		7.863
5		0.00		-6.00		5.750e-02		-48.595		1.312e-02		8.199
5		0.00		-5.60		5.449e-02		-48.742		1.124e-02		5.898
5		0.00		-5.20		5.065e-02		-49.948		1.009e-02		5.415
5		0.00		-4.80		4.751e-02		-51.362		9.802e-03		4.961
5		0.00		-4.40		4.235e-02		-51.490		9.928e-03		6.802
5		0.00		-4.00		3.806e-02		-53.155		1.015e-02		9.206
5		0.00		-3.60		3.377e-02		-52.096		8.842e-03		12.140
5		0.00		-3.20		2.992e-02		-51.079		7.452e-03		12.982
5		0.00		-2.80		2.619e-02		-48.881		5.510e-03		7.520
5		0.00		-2.40		2.260e-02		-50.460		3.743e-03		7.944
5		0.00		-2.00		1.821e-02		-48.680		2.853e-03		10.136
5		0.00		-1.60		1.360e-02		-47.995		2.289e-03		9.904
5		0.00		-1.20		8.837e-03		-49.697		2.015e-03		14.944
5		0.00		-0.80		4.189e-03		-42.734		1.535e-03		25.947
5		0.00		-0.40		2.019e-03		14.277		9.371e-04		83.364
6		0.00		0.00		5.296e-03		127.506		1.778e-03		35.935
6		0.00		0.40		9.697e-03		127.482		2.316e-03		17.619
6		0.00		0.80		1.476e-02		130.429		2.890e-03		9.124
6		0.00		1.20		1.920e-02		129.815		3.454e-03		7.773
6		0.00		1.60		2.395e-02		130.583		4.163e-03		6.483
6		0.00		2.00		2.765e-02		131.023		5.270e-03		6.415
6		0.00		2.40		3.126e-02		131.663		6.356e-03		6.470
6		0.00		2.80		3.523e-02		130.239		8.541e-03		6.903
6		0.00		3.20		3.853e-02		130.287		1.036e-02		10.524
6		0.00		3.60		4.139e-02		129.483		1.140e-02		14.207
6		0.00		4.00		4.426e-02		130.024		1.201e-02		12.992
6		0.00		4.40		4.785e-02		131.605		1.162e-02		7.484
6		0.00		4.80		5.137e-02		132.299		1.094e-02		5.645
6		0.00		5.20		5.408e-02		132.281		1.046e-02		5.810
6		0.00		5.60		5.743e-02		132.736		1.105e-02		5.090
6		0.00		6.00		5.969e-02		132.850		1.254e-02		5.803
6		0.00		6.40		6.168e-02		131.315		1.453e-02		6.692
6		0.00		6.80		6.169e-02		131.117		1.675e-02		12.267
6		0.00		7.20		6.277e-02		131.154		1.765e-02		16.786
6		0.00		7.60		6.299e-02		131.872		1.840e-02		16.015
6		0.00		8.00		6.333e-02		128.530		1.896e-02		35.273
6		0.00		8.40		6.725e-02		131.637		1.889e-02		24.003
6		0.00		8.80		6.959e-02		131.909		1.856e-02		24.822
6		0.00		9.20		6.641e-02		136.700		1.728e-02		13.398
6		0.00		9.60		6.366e-02		133.197		1.921e-02		31.257
6		0.00		10.00		6.245e-02		133.375		2.026e-02		11.867
6		0.00		9.60		6.192e-02		126.813		2.165e-02		24.086
6		0.00		9.20		6.169e-02		128.268		2.184e-02		22.540
6		0.00		8.80		5.945e-02		128.099		2.056e-02		29.388
6		0.00		8.40		5.888e-02		131.572		1.832e-02		10.133
6		0.00		8.00		5.690e-02		130.553		1.551e-02		11.461
6		0.00		7.60		5.390e-02		131.754		1.269e-02		9.274
6		0.00		7.20		5.174e-02		132.082		1.083e-02		5.443
6		0.00		6.80		4.871e-02		132.246		1.084e-02		5.474
6		0.00		6.40		4.458e-02		131.224		1.091e-02		6.721
6		0.00		6.00		4.075e-02		130.299		1.080e-02		8.415
6		0.00		5.60		3.658e-02		128.885		9.794e-03		16.331
6		0.00		5.20		3.273e-02		130.244		8.345e-03		14.914
6		0.00		4.80		2.874e-02		132.380		6.824e-03		9.820
6		0.00		4.40		2.414e-02		134.183		5.364e-03		7.776
6		0.00		4.00		1.963e-02		134.502		4.117e-03		7.190
6		0.00		3.60		1.464e-02		131.328		3.194e-03		9.249
6		0.00		3.20		9.719e-03		139.798		2.462e-03		9.748
6		0.00		2.80		4.586e-03		133.036		1.409e-03		39.381
6		0.00		2.40		1.933e-03		-47.193		8.212e-04		61.799
6		0.00		2.00		6.309e-03		-58.311		2.131e-03		15.503
6		0.00		1.60		1.101e-02		-55.485		3.184e-03		12.952
6		0.00		1.20		1.609e-02		-51.020		4.057e-03		12.928
6		0.00		0.80		2.145e-02		-50.865		4.654e-03		9.070
6		0.00		0.40		2.690e-02		-51.640		5.232e-03		8.252
6		0.00		0.00		3.255e-02		-49.281		5.920e-03		7.028
6		0.00		-0.40		3.772e-02		-52.106		6.534e-03		6.620
6		0.00		-0.80		4.276e-02		-51.715		7.100e-03		5.215
6		0.00		-1.20		4.718e-02		-52.556		8.617e-03		4.458
6		0.00		-1.60		5.084e-02		-51.872		1.053e-02		4.417
6		0.00		-2.00		5.344e-02		-53.135		1.270e-02		5.861
6		0.00		-2.40		5.598e-02		-53.076		1.412e-02		8.440
6		0.00		-2.80		5.758e-02		-53.844		1.580e-02		12.085
6		0.00		-3.20		5.672e-02		-51.618		1.622e-02		12.633
6		0.00		-3.60		5.848e-02		-51.351		1.716e-02		9.265
6		0.00		-4.00		5.967e-02		-50.579		1.633e-02		9.627
6		0.00		-4.40		6.067e-02		-48.766		1.594e-02		8.896
6		0.00		-4.80		6.226e-02		-49.300		1.609e-02		10.772
6		0.00		-5.20		6.469e-02		-47.451		1.534e-02		8.741
6		0.00		-5.60		6.412e-02		-47.242		1.467e-02		9.147
6		0.00		-6.00		6.683e-02		-47.061		1.599e-02		8.670
6		0.00		-6.40		6.631e-02		-46.833		1.576e-02		6.543
6		0.00		-6.80		6.643e-02		-45.666		1.625e-02		8.816
6		0.00		-7.20		6.621e-02		-44.793		1.807e-02		11.914
6		0.00		-7.60		6.654e-02		-44.402		1.902e-02		21.624
6		0.00		-8.00		6.418e-02		-46.706		1.814e-02		19.030
6		0.00		-8.40		6.650e-02		-39.924		2.014e-02		19.066
6		0.00		-8.80		6.387e-02		-38.125		1.984e-02		14.450
6		0.00		-9.20		6.191e-02		-40.283		1.877e-02		9.265
6		0.00		-9.60		5.883e-02		-42.829		1.685e-02		6.453
6		0.00		-10.00		5.172e-02		-43.811		1.453e-02		8.961
6		0.00		-9.60		5.576e-02		-42.566		1.594e-02		6.482
6		0.00		-9.20		6.099e-02		-40.578		1.640e-02		5.981
6		0.00		-8.80		6.232e-02		-42.107		1.567e-02		7.740
6		0.00		-8.40		6.431e-02		-43.538		1.615e-02		7.895
6		0.00		-8.00		6.487e-02		-46.228		1.667e-02		6.468
6		0.00		-7.60		6.294e-02		-46.500		1.775e-02		7.967
6		0.00		-7.20		6.062e-02		-46.954		1.741e-02		8.475
6		0.00		-6.80		5.983e-02		-48.560		1.797e-02		10.584
6		0.00		-6.40		5.616e-02		-48.303		1.506e-02		13.603
6		0.00		-6.00		5.528e-02		-48.732		1.419e-02		13.994
6		0.00		-5.60		5.265e-02		-48.200		1.386e-02		11.348
6		0.00		-5.20		4.949e-02		-48.930		1.203e-02		8.107
6		0.00		-4.80		4.618e-02		-49.543		1.042e-02		7.778
6		0.00		-4.40		4.277e-02		-51.033		8.872e-03		6.797
6		0.00		-4.00		3.922e-02		-51.586		7.360e-03		6.630
6		0.00		-3.60		3.513e-02		-49.755		6.436e-03		5.859
6		0.00		-3.20		3.149e-02		-51.115		5.317e-03		6.570
6		0.00		-2.80		2.701e-02		-50.806		4.457e-03		6.833
6		0.00		-2.40		2.286e-02		-51.203		4.013e-03		7.586
6		0.00		-2.00		1.766e-02		-49.755		3.466e-03		8.412
6		0.00		-1.60		1.318e-02		-50.451		2.638e-03		8.997
6		0.00		-1.20		8.598e-03		-48.891		2.121e-03		16.608
6		0.00		-0.80		4.417e-03		-38.991		1.544e-03		23.803
6		0.00		-0.40		1.756e-03		29.769		6.468e-04		82.219
7		0.00		0.00		5.319e-03		117.076		1.815e-03		27.857
7		0.00		0.40		9.143e-03		127.744		2.859e-03		17.920
7		0.00		0.80		1.386e-02		126.921		3.802e-03		17.064
7		0.00		1.20		1.817e-02		128.793		4.619e-03		14.542
7		0.00		1.60		2.241e-02		131.364		5.160e-03		10.597
7		0.00		2.00		2.635e-02		131.627		6.188e-03		10.215
7		0.00		2.40		3.062e-02		131.449		6.504e-03		8.059
7		0.00		2.80		3.463e-02		131.211		7.357e-03		7.191
7		0.00		3.20		3.855e-02		132.977		7.315e-03		5.602
7		0.00		3.60		4.218e-02		131.980		8.136e-03		5.969
7		0.00		4.00		4.544e-02		131.798		8.772e-03		5.438
7		0.00		4.40		4.894e-02		131.926		9.528e-03		4.723
7		0.00		4.80		5.155e-02		133.003		1.031e-02		5.044
7		0.00		5.20		5.369e-02		134.096		1.119e-02		5.933
7		0.00		5.60		5.618e-02		133.550		1.238e-02		5.368
7		0.00		6.00		5.851e-02		132.912		1.358e-02		5.954
7		0.00		6.40		5.954e-02		133.788		1.478e-02		6.423
7		0.00		6.80		6.228e-02		133.785		1.552e-02		6.576
7		0.00		7.20		6.360e-02		133.254		1.749e-02		7.835
7		0.00		7.60		6.395e-02		134.694		1.779e-02		8.694
7		0.00		8.00		6.342e-02		136.487		1.881e-02		10.856
7		0.00		8.40		6.557e-02		131.685		1.844e-02		23.745
7		0.00		8.80		6.854e-02		131.883		1.978e-02		23.055
7		0.00		9.20		6.808e-02		129.194		2.025e-02		27.333
7		0.00		9.60		6.457e-02		126.026		2.001e-02		38.113
7		0.00		10.00		6.403e-02		134.154		2.008e-02		25.132
7		0.00		9.60		6.224e-02		128.441		1.961e-02		25.823
7		0.00		9.20		6.294e-02		130.244		1.975e-02		25.254
7		0.00		8.80		6.402e-02		130.349		1.954e-02		17.746
7		0.00		8.40		6.176e-02		129.063		1.830e-02		22.922
7		0.00		8.00		5.797e-02		133.590		1.619e-02		7.271
7		0.00		7.60		5.635e-02		132.097		1.515e-02		6.209
7		0.00		7.20		5.218e-02		130.613		1.383e-02		9.566
7		0.00		6.80		4.966e-02		130.923		1.266e-02		6.528
7		0.00		6.40		4.550e-02		131.916		1.098e-02		6.799
7		0.00		6.00		4.176e-02		132.821		9.446e-03		6.190
7		0.00		5.60		3.799e-02		132.384		8.059e-03		5.753
7		0.00		5.20		3.403e-02		132.027		7.844e-03		6.737
7		0.00		4.80		3.017e-02		133.616		6.271e-03		6.233
7		0.00		4.40		2.561e-02		133.442		5.581e-03		6.481
7		0.00		4.00		2.115e-02		135.590		4.392e-03		6.560
7		0.00		3.60		1.649e-02		135.963		3.454e-03		7.432
7		0.00		3.20		1.148e-02		135.616		2.838e-03		9.944
7		0.00		2.80		6.530e-03		131.997		1.958e-03		27.921
7		0.00		2.40		2.103e-03		45.609		9.711e-04		92.226
7		0.00		2.00		4.056e-03		-65.729		1.220e-03		22.980
7		0.00		1.60		9.867e-03		-53.216		2.498e-03		9.795
7		0.00		1.20		1.467e-02		-52.251		3.941e-03		10.819
7		0.00		0.80		1.975e-02		-53.116		4.905e-03		14.457
7		0.00		0.40		2.502e-02		-50.014		6.000e-03		10.094
7		0.00		0.00		2.984e-02		-49.421		7.294e-03		11.517
7		0.00		-0.40		3.430e-02		-50.902		8.559e-03		8.719
7		0.00		-0.80		3.927e-02		-50.823		8.857e-03		8.701
7		0.00		-1.20		4.367e-02		-50.901		1.024e-02		8.505
7		0.00		-1.60		4.854e-02		-51.796		1.069e-02		8.340
7		0.00		-2.00		5.232e-02		-52.101		1.094e-02		8.236
7		0.00		-2.40		5.532e-02		-52.363		1.149e-02		5.690
7		0.00		-2.80		5.759e-02		-51.977		1.164e-02		5.414
7		0.00		-3.20		5.951e-02		-53.049		1.202e-02		6.430
7		0.00		-3.60		6.091e-02		-53.722		1.282e-02		9.104
7		0.00		-4.00		6.341e-02		-53.035		1.274e-02		7.727
7		0.00		-4.40		6.522e-02		-53.269		1.373e-02		8.589
7		0.00		-4.80		6.390e-02		-50.424		1.361e-02		9.897
7		0.00		-5.20		6.428e-02		-48.450		1.235e-02		7.520
7		0.00		-5.60		6.764e-02		-48.538		1.413e-02		7.423
7		0.00		-6.00		6.568e-02		-47.066		1.459e-02		9.589
7		0.00		-6.40		6.707e-02		-46.720		1.651e-02		8.497
7		0.00		-6.80		6.569e-02		-45.153		1.590e-02		8.153
7		0.00		-7.20		6.426e-02		-43.624		1.664e-02		10.006
7		0.00		-7.60		6.393e-02		-44.762		1.769e-02		9.531
7		0.00		-8.00		6.356e-02		-41.811		1.921e-02		11.976
7		0.00		-8.40		6.311e-02		-45.631		1.956e-02		14.038
7		0.00		-8.80		6.161e-02		-43.501		2.014e-02		16.362
7		0.00		-9.20		5.926e-02		-45.304		2.044e-02		23.317
7		0.00		-9.60		5.341e-02		-40.867		1.873e-02		21.017
7		0.00		-10.00		4.729e-02		-43.513		1.714e-02		20.885
7		0.00		-9.60		5.347e-02		-44.198		1.932e-02		20.551
7		0.00		-9.20		5.852e-02		-43.366		1.913e-02		14.570
7		0.00		-8.80		5.938e-02		-42.021		1.786e-02		16.515
7		0.00		-8.40		6.134e-02		-40.856		1.776e-02		14.167
7		0.00		-8.00		6.257e-02		-42.901		1.718e-02		12.537
7		0.00		-7.60		6.261e-02		-44.289		1.534e-02		8.658
7		0.00		-7.20		6.190e-02		-44.776		1.402e-02		5.655
7		0.00		-6.80		5.916e-02		-47.563		1.352e-02		8.209
7		0.00		-6.40		5.787e-02		-47.941		1.172e-02		6.524
7		0.00		-6.00		5.507e-02		-47.356		1.065e-02		6.287
7		0.00		-5.60		5.235e-02		-48.149		9.794e-03		4.594
7		0.00		-5.20		4.841e-02		-48.976		9.715e-03		4.926
7		0.00		-4.80		4.401e-02		-50.441		9.942e-03		5.668
7		0.00		-4.40		3.986e-02		-51.577		9.537e-03		6.614
7		0.00		-4.00		3.585e-02		-52.828		9.389e-03		7.439
7		0.00		-3.60		3.176e-02		-52.506		8.544e-03		9.912
7		0.00		-3.20		2.838e-02		-52.113		7.432e-03		10.553
7		0.00		-2.80		2.424e-02		-49.247		6.350e-03		11.204
7		0.00		-2.40		2.008e-02		-50.587		5.151e-03		13.762
7		0.00		-2.00		1.589e-02		-46.741		3.987e-03		14.180
7		0.00		-1.60		1.158e-02		-46.492		2.694e-03		12.958
7		0.00		-1.20		7.833e-03		-44.231		2.126e-03		12.704
7		0.00		-0.80		3.479e-03		-52.530		1.461e-03		30.047
7		0.00		-0.40		2.037e-03		62.487		8.311e-04		74.249
8		0.00		0.00		6.591e-03		134.224		1.653e-03		14.838
8		0.00		0.40		1.059e-02		128.933		1.964e-03		11.590
8		0.00		0.80		1.561e-02		130.941		2.828e-03		7.458
8		0.00		1.20		1.973e-02		130.758		3.555e-03		6.532
8		0.00		1.60		2.415e-02		130.560		4.516e-03		6.285
8		0.00		2.00		2.798e-02		131.686		5.548e-03		6.027
8		0.00		2.40		3.179e-02		131.060		7.225e-03		6.100
8		0.00		2.80		3.496e-02		131.196		8.700e-03		6.084
8		0.00		3.20		3.805e-02		130.062		1.025e-02		7.084
8		0.00		3.60		4.099e-02		130.023		1.160e-02		9.101
8		0.00		4.00		4.356e-02		129.503		1.255e-02		10.466
8		0.00		4.40		4.615e-02		128.038		1.375e-02		15.523
8		0.00		4.80		4.932e-02		129.721		1.432e-02		14.372
8		0.00		5.20		5.165e-02		128.947		1.570e-02		18.063
8		0.00		5.60		5.376e-02		131.331		1.543e-02		11.459
8		0.00		6.00		5.718e-02		132.015		1.551e-02		10.419
8		0.00		6.40		5.936e-02		132.296		1.576e-02		9.793
8		0.00		6.80		6.074e-02		133.796		1.590e-02		8.391
8		0.00		7.20		6.290e-02		131.986		1.677e-02		23.752
8		0.00		7.60		6.489e-02		133.289		1.635e-02		21.406
8		0.00		8.00		6.650e-02		133.141		1.608e-02		22.278
8		0.00		8.40		6.790e-02		134.655		1.669e-02		12.666
8		0.00		8.80		7.119e-02		133.931		1.813e-02		11.043
8		0.00		9.20		6.954e-02		137.317		1.667e-02		11.767
8		0.00		9.60		6.872e-02		134.640		1.748e-02		11.580
8		0.00		10.00		6.614e-02		133.768		1.889e-02		18.096
8		0.00		9.60		6.644e-02		134.336		1.908e-02		10.789
8		0.00		9.20		6.642e-02		136.132		1.916e-02		8.529
8		0.00		8.80		6.165e-02		133.941		1.817e-02		9.343
8		0.00		8.40		6.079e-02		132.050		1.793e-02		7.496
8		0.00		8.00		5.801e-02		130.841		1.746e-02		11.128
8		0.00		7.60		5.463e-02		130.019		1.640e-02		12.863
8		0.00		7.20		5.215e-02		128.476		1.603e-02		15.614
8		0.00		6.80		4.938e-02		128.724		1.414e-02		16.845
8		0.00		6.40		4.636e-02		128.824		1.279e-02		17.574
8		0.00		6.00		4.287e-02		130.176		1.155e-02		18.654
8		0.00		5.60		3.868e-02		130.886		9.980e-03		16.530
8		0.00		5.20		3.452e-02		131.444		8.947e-03		15.834
8		0.00		4.80		3.068e-02		131.521		7.892e-03		14.515
8		0.00		4.40		2.682e-02		132.453		6.409e-03		11.981
8		0.00		4.00		2.206e-02		133.939		5.299e-03		11.399
8		0.00		3.60		1.756e-02		133.336		4.122e-03		11.907
8		0.00		3.20		1.230e-02		133.828		3.017e-03		13.866
8		0.00		2.80		6.986e-03		126.861		1.859e-03		26.518
8		0.00		2.40		2.250e-03		41.138		9.685e-04		95.718
8		0.00		2.00		3.843e-03		-64.093		1.332e-03		28.888
8		0.00		1.60		9.010e-03		-56.860		2.312e-03		13.192
8		0.00		1.20		1.395e-02		-50.669		2.999e-03		14.206
8		0.00		0.80		1.877e-02		-52.318		4.015e-03		9.321
8		0.00		0.40		2.407e-02		-52.270		4.778e-03		9.436
8		0.00		0.00		2.936e-02		-51.630		5.831e-03		7.368
8		0.00		-0.40		3.378e-02		-51.289		6.130e-03		6.651
8		0.00		-0.80		3.868e-02		-51.161		6.942e-03		6.400
8		0.00		-1.20		4.380e-02		-51.894		7.735e-03		6.167
8		0.00		-1.60		4.858e-02		-52.127		8.426e-03		5.814
8		0.00		-2.00		5.207e-02		-53.318		9.632e-03		6.728
8		0.00		-2.40		5.520e-02		-52.475		1.030e-02		6.212
8		0.00		-2.80		5.807e-02		-52.557		1.109e-02		6.354
8		0.00		-3.20		6.015e-02		-53.278		1.157e-02		6.021
8		0.00		-3.60		6.095e-02		-51.312		1.196e-02		6.538
8		0.00		-4.00		6.392e-02		-51.760		1.282e-02		5.798
8		0.00		-4.40		6.460e-02		-51.008		1.367e-02		7.045
8		0.00		-4.80		6.251e-02		-49.430		1.419e-02		6.047
8		0.00		-5.20		6.591e-02		-50.060		1.778e-02		7.550
8		0.00		-5.60		6.675e-02		-48.527		1.768e-02		6.527
8		0.00		-6.00		6.555e-02		-46.883		1.764e-02		8.252
8		0.00		-6.40		6.397e-02		-45.642		1.814e-02		7.675
8		0.00		-6.80		6.436e-02		-46.716		1.945e-02		9.589
8		0.00		-7.20		6.423e-02		-44.843		1.923e-02		10.895
8		0.00		-7.60		6.428e-02		-42.309		1.982e-02		17.555
8		0.00		-8.00		6.614e-02		-47.832		2.016e-02		14.181
8		0.00		-8.40		6.344e-02		-46.607		1.862e-02		16.309
8		0.00		-8.80		6.352e-02		-43.339		1.952e-02		19.074
8		0.00		-9.20		6.074e-02		-42.080		1.882e-02		21.480
8		0.00		-9.60		5.643e-02		-44.904		1.888e-02		16.595
8		0.00		-10.00		5.021e-02		-42.801		1.575e-02		14.078
8		0.00		-9.60		5.603e-02		-44.007		1.781e-02		10.149
8		0.00		-9.20		6.056e-02		-42.367		1.837e-02		11.261
8		0.00		-8.80		6.152e-02		-41.554		1.687e-02		12.667
8		0.00		-8.40		6.374e-02		-40.200		1.761e-02		12.901
8		0.00		-8.00		6.256e-02		-41.922		1.620e-02		14.055
8		0.00		-7.60		6.314e-02		-43.914		1.598e-02		10.467
8		0.00		-7.20		6.256e-02		-45.814		1.519e-02		7.475
8		0.00		-6.80		5.925e-02		-47.295		1.406e-02		7.457
8		0.00		-6.40		5.667e-02		-47.664		1.281e-02		5.766
8		0.00		-6.00		5.474e-02		-47.623		1.276e-02		5.273
8		0.00		-5.60		5.076e-02		-48.022		1.189e-02		6.442
8		0.00		-5.20		4.790e-02		-49.208		1.170e-02		5.921
8		0.00		-4.80		4.379e-02		-51.714		1.158e-02		6.799
8		0.00		-4.40		4.017e-02		-52.048		1.033e-02		7.444
8		0.00		-4.00		3.627e-02		-52.323		9.221e-03		10.037
8		0.00		-3.60		3.234e-02		-51.790		7.955e-03		11.049
8		0.00		-3.20		2.876e-02		-51.508		6.864e-03		11.636
8		0.00		-2.80		2.461e-02		-49.777		6.079e-03		12.030
8		0.00		-2.40		2.048e-02		-48.051		4.950e-03		12.532
8		0.00		-2.00		1.620e-02		-49.302		3.534e-03		9.210
8		0.00		-1.60		1.238e-02		-45.479		2.723e-03		11.632
8		0.00		-1.20		8.035e-03		-52.808		1.918e-03		14.803
8		0.00		-0.80		3.480e-03		-46.981		1.371e-03		31.173
8		0.00		-0.40		1.975e-03		71.728		8.357e-04		71.602
