# Date of analysis: 2024-03-08 10;58
# Segment other properties: height: -35.27947977327193, diff height: 230.19333912783088, deflection: 36.10716814541626, deflection error: 3.5399189527845802, adhesion: 37.15376511737895, phase offset: 0
# 
# Loop index	Read Volt (V)	Write Volt (V)	Amplitude (a.u)	Phase (deg)	Sigma Amp (a.u)	Sigma Pha (deg)	
1		0.00		0.00		1.311e-02		-48.747		6.012e-03		36.531
1		0.00		0.40		8.955e-03		-54.104		2.794e-03		18.388
1		0.00		0.80		3.641e-03		-55.780		1.315e-03		33.365
1		0.00		1.20		2.549e-03		57.112		1.000e-03		92.204
1		0.00		1.60		6.635e-03		122.503		2.229e-03		29.230
1		0.00		2.00		1.052e-02		128.154		3.405e-03		17.613
1		0.00		2.40		1.488e-02		127.664		4.618e-03		15.344
1		0.00		2.80		1.867e-02		129.597		5.291e-03		14.316
1		0.00		3.20		2.278e-02		127.233		6.443e-03		13.533
1		0.00		3.60		2.669e-02		128.940		7.125e-03		14.245
1		0.00		4.00		3.036e-02		128.308		7.739e-03		14.479
1		0.00		4.40		3.318e-02		126.955		8.763e-03		14.976
1		0.00		4.80		3.573e-02		126.408		9.346e-03		15.511
1		0.00		5.20		3.920e-02		126.193		1.023e-02		14.713
1		0.00		5.60		4.235e-02		125.439		1.166e-02		16.345
1		0.00		6.00		4.559e-02		125.542		1.178e-02		14.033
1		0.00		6.40		4.764e-02		124.953		1.328e-02		16.563
1		0.00		6.80		5.132e-02		124.623		1.461e-02		17.085
1		0.00		7.20		5.207e-02		124.003		1.501e-02		19.428
1		0.00		7.60		5.320e-02		125.636		1.515e-02		18.160
1		0.00		8.00		5.366e-02		124.655		1.645e-02		18.682
1		0.00		8.40		5.079e-02		124.633		1.637e-02		22.857
1		0.00		8.80		5.158e-02		121.348		1.738e-02		21.765
1		0.00		9.20		4.975e-02		121.614		1.595e-02		22.228
1		0.00		9.60		4.508e-02		120.189		1.497e-02		23.286
1		0.00		10.00		4.149e-02		121.832		1.336e-02		22.312
1		0.00		9.60		4.158e-02		120.677		1.304e-02		22.599
1		0.00		9.20		4.159e-02		122.591		1.264e-02		20.032
1		0.00		8.80		4.013e-02		123.859		1.165e-02		20.700
1		0.00		8.40		3.760e-02		124.536		1.017e-02		19.636
1		0.00		8.00		3.612e-02		124.401		9.638e-03		18.227
1		0.00		7.60		3.385e-02		124.243		8.863e-03		18.602
1		0.00		7.20		3.226e-02		124.555		8.017e-03		18.467
1		0.00		6.80		2.986e-02		126.079		7.560e-03		16.276
1		0.00		6.40		2.730e-02		125.875		6.751e-03		16.813
1		0.00		6.00		2.473e-02		125.982		6.383e-03		14.800
1		0.00		5.60		2.133e-02		126.793		5.363e-03		14.875
1		0.00		5.20		1.876e-02		125.849		4.911e-03		15.917
1		0.00		4.80		1.559e-02		124.863		4.056e-03		14.743
1		0.00		4.40		1.272e-02		126.536		3.855e-03		13.740
1		0.00		4.00		8.796e-03		124.997		2.907e-03		15.627
1		0.00		3.60		5.697e-03		123.262		1.868e-03		28.947
1		0.00		3.20		2.479e-03		69.834		1.039e-03		58.408
1		0.00		2.80		3.000e-03		-55.827		1.169e-03		31.721
1		0.00		2.40		6.555e-03		-53.623		2.281e-03		20.907
1		0.00		2.00		1.047e-02		-45.835		3.283e-03		14.639
1		0.00		1.60		1.508e-02		-48.024		4.725e-03		15.618
1		0.00		1.20		1.975e-02		-50.101		5.822e-03		13.783
1		0.00		0.80		2.406e-02		-49.204		6.885e-03		13.399
1		0.00		0.40		2.805e-02		-47.129		8.100e-03		22.576
1		0.00		0.00		3.202e-02		-47.092		8.962e-03		18.315
1		0.00		-0.40		3.622e-02		-47.949		1.009e-02		17.098
1		0.00		-0.80		3.889e-02		-49.455		1.078e-02		17.626
1		0.00		-1.20		4.143e-02		-51.779		1.102e-02		13.832
1		0.00		-1.60		4.268e-02		-51.253		1.210e-02		15.761
1		0.00		-2.00		4.517e-02		-54.278		1.179e-02		14.716
1		0.00		-2.40		4.587e-02		-55.052		1.221e-02		15.470
1		0.00		-2.80		4.634e-02		-55.540		1.299e-02		17.257
1		0.00		-3.20		4.521e-02		-57.308		1.323e-02		17.800
1		0.00		-3.60		4.522e-02		-57.879		1.285e-02		17.611
1		0.00		-4.00		4.411e-02		-58.035		1.235e-02		17.425
1		0.00		-4.40		4.388e-02		-59.371		1.257e-02		17.945
1		0.00		-4.80		4.590e-02		-56.768		1.178e-02		15.314
1		0.00		-5.20		4.567e-02		-54.822		1.138e-02		15.580
1		0.00		-5.60		4.625e-02		-53.255		1.163e-02		14.378
1		0.00		-6.00		4.764e-02		-52.061		1.173e-02		13.259
1		0.00		-6.40		4.933e-02		-51.431		1.270e-02		12.136
1		0.00		-6.80		4.955e-02		-48.963		1.236e-02		12.172
1		0.00		-7.20		4.969e-02		-48.420		1.316e-02		12.142
1		0.00		-7.60		5.048e-02		-45.810		1.513e-02		12.129
1		0.00		-8.00		5.008e-02		-47.036		1.615e-02		15.133
1		0.00		-8.40		4.981e-02		-41.424		1.648e-02		22.565
1		0.00		-8.80		4.687e-02		-35.979		1.541e-02		27.014
1		0.00		-9.20		4.414e-02		-35.193		1.449e-02		30.187
1		0.00		-9.60		3.899e-02		-38.159		1.318e-02		35.552
1		0.00		-10.00		3.404e-02		-41.842		1.135e-02		23.042
1		0.00		-9.60		3.789e-02		-47.795		1.357e-02		21.892
1		0.00		-9.20		4.064e-02		-48.857		1.414e-02		21.071
1		0.00		-8.80		4.181e-02		-49.198		1.374e-02		20.318
1		0.00		-8.40		4.241e-02		-49.750		1.350e-02		18.519
1		0.00		-8.00		4.248e-02		-51.402		1.337e-02		19.019
1		0.00		-7.60		4.161e-02		-52.283		1.241e-02		18.664
1		0.00		-7.20		4.026e-02		-52.217		1.137e-02		18.986
1		0.00		-6.80		3.947e-02		-52.122		9.941e-03		16.374
1		0.00		-6.40		3.755e-02		-52.865		8.884e-03		16.302
1		0.00		-6.00		3.564e-02		-51.882		7.744e-03		14.120
1		0.00		-5.60		3.409e-02		-50.274		7.339e-03		11.802
1		0.00		-5.20		3.087e-02		-49.635		6.648e-03		12.933
1		0.00		-4.80		2.822e-02		-51.012		6.492e-03		12.255
1		0.00		-4.40		2.490e-02		-51.428		5.755e-03		13.154
1		0.00		-4.00		2.180e-02		-51.652		5.395e-03		13.013
1		0.00		-3.60		1.860e-02		-49.640		4.598e-03		12.310
1		0.00		-3.20		1.526e-02		-48.733		4.042e-03		12.318
1		0.00		-2.80		1.211e-02		-43.535		3.377e-03		16.313
1		0.00		-2.40		8.607e-03		-42.202		2.396e-03		19.574
1		0.00		-2.00		4.699e-03		-35.753		1.616e-03		25.009
1		0.00		-1.60		2.018e-03		-24.257		8.967e-04		61.174
1		0.00		-1.20		3.729e-03		90.027		1.491e-03		43.374
1		0.00		-0.80		6.892e-03		111.827		2.575e-03		27.616
1		0.00		-0.40		1.112e-02		116.906		3.646e-03		25.007
2		0.00		0.00		1.490e-02		120.819		4.448e-03		25.210
2		0.00		0.40		1.869e-02		124.069		5.578e-03		22.010
2		0.00		0.80		2.254e-02		123.989		6.418e-03		20.864
2		0.00		1.20		2.599e-02		126.048		6.797e-03		17.279
2		0.00		1.60		2.926e-02		126.188		7.341e-03		15.938
2		0.00		2.00		3.241e-02		126.701		8.451e-03		17.890
2		0.00		2.40		3.532e-02		127.111		9.076e-03		15.172
2		0.00		2.80		3.882e-02		128.412		9.871e-03		15.634
2		0.00		3.20		4.121e-02		127.841		9.820e-03		14.168
2		0.00		3.60		4.252e-02		127.316		1.054e-02		14.954
2		0.00		4.00		4.467e-02		127.176		1.137e-02		14.441
2		0.00		4.40		4.629e-02		128.258		1.107e-02		14.393
2		0.00		4.80		4.900e-02		127.174		1.207e-02		15.579
2		0.00		5.20		5.045e-02		125.462		1.389e-02		17.147
2		0.00		5.60		5.152e-02		126.011		1.376e-02		16.572
2		0.00		6.00		5.122e-02		122.323		1.545e-02		19.365
2		0.00		6.40		5.282e-02		124.068		1.449e-02		18.626
2		0.00		6.80		5.215e-02		124.065		1.626e-02		20.230
2		0.00		7.20		5.168e-02		124.230		1.451e-02		18.084
2		0.00		7.60		5.193e-02		124.973		1.388e-02		16.854
2		0.00		8.00		5.215e-02		126.258		1.436e-02		16.824
2		0.00		8.40		5.188e-02		128.489		1.315e-02		13.964
2		0.00		8.80		5.331e-02		127.840		1.399e-02		13.874
2		0.00		9.20		5.454e-02		126.890		1.455e-02		12.860
2		0.00		9.60		5.176e-02		126.799		1.458e-02		13.199
2		0.00		10.00		4.866e-02		129.617		1.407e-02		11.072
2		0.00		9.60		4.986e-02		128.779		1.422e-02		10.031
2		0.00		9.20		5.036e-02		129.018		1.491e-02		9.062
2		0.00		8.80		4.849e-02		131.013		1.467e-02		16.152
2		0.00		8.40		4.630e-02		128.878		1.389e-02		22.981
2		0.00		8.00		4.342e-02		129.153		1.404e-02		22.514
2		0.00		7.60		4.179e-02		128.242		1.341e-02		27.307
2		0.00		7.20		3.786e-02		124.685		1.243e-02		33.336
2		0.00		6.80		3.492e-02		124.540		1.151e-02		33.323
2		0.00		6.40		3.182e-02		123.338		1.041e-02		30.974
2		0.00		6.00		2.880e-02		124.100		9.078e-03		31.119
2		0.00		5.60		2.587e-02		124.829		8.002e-03		28.263
2		0.00		5.20		2.314e-02		126.914		6.861e-03		23.713
2		0.00		4.80		2.040e-02		126.303		5.828e-03		21.162
2		0.00		4.40		1.735e-02		130.923		4.556e-03		16.499
2		0.00		4.00		1.429e-02		128.809		3.644e-03		15.547
2		0.00		3.60		1.129e-02		128.988		2.808e-03		14.242
2		0.00		3.20		7.194e-03		130.990		1.914e-03		14.926
2		0.00		2.80		4.154e-03		116.252		1.520e-03		40.140
2		0.00		2.40		2.142e-03		-20.212		9.033e-04		57.201
2		0.00		2.00		6.010e-03		-58.557		1.597e-03		17.758
2		0.00		1.60		1.060e-02		-55.353		2.428e-03		15.806
2		0.00		1.20		1.448e-02		-54.738		2.807e-03		13.729
2		0.00		0.80		1.938e-02		-52.179		3.881e-03		12.987
2		0.00		0.40		2.423e-02		-52.643		4.967e-03		11.739
2		0.00		0.00		2.806e-02		-52.423		5.677e-03		12.277
2		0.00		-0.40		3.223e-02		-52.703		7.197e-03		10.742
2		0.00		-0.80		3.520e-02		-51.060		8.941e-03		10.748
2		0.00		-1.20		3.834e-02		-51.699		9.761e-03		10.030
2		0.00		-1.60		4.057e-02		-52.182		1.119e-02		9.973
2		0.00		-2.00		4.145e-02		-50.906		1.200e-02		11.456
2		0.00		-2.40		4.286e-02		-50.687		1.284e-02		12.207
2		0.00		-2.80		4.277e-02		-51.050		1.313e-02		12.055
2		0.00		-3.20		4.313e-02		-48.426		1.330e-02		15.548
2		0.00		-3.60		4.389e-02		-46.579		1.340e-02		16.706
2		0.00		-4.00		4.456e-02		-47.014		1.281e-02		15.164
2		0.00		-4.40		4.676e-02		-45.820		1.341e-02		17.668
2		0.00		-4.80		4.866e-02		-46.691		1.405e-02		17.003
2		0.00		-5.20		4.926e-02		-46.148		1.369e-02		17.236
2		0.00		-5.60		4.944e-02		-46.137		1.401e-02		18.960
2		0.00		-6.00		4.975e-02		-46.741		1.418e-02		21.980
2		0.00		-6.40		5.101e-02		-47.859		1.447e-02		18.283
2		0.00		-6.80		5.187e-02		-47.302		1.439e-02		15.771
2		0.00		-7.20		5.353e-02		-48.624		1.415e-02		16.666
2		0.00		-7.60		5.301e-02		-48.834		1.546e-02		18.123
2		0.00		-8.00		5.252e-02		-50.999		1.704e-02		18.374
2		0.00		-8.40		5.146e-02		-49.015		1.586e-02		16.036
2		0.00		-8.80		4.806e-02		-47.977		1.476e-02		16.158
2		0.00		-9.20		4.468e-02		-48.516		1.427e-02		16.596
2		0.00		-9.60		4.081e-02		-50.167		1.309e-02		18.013
2		0.00		-10.00		3.478e-02		-48.620		1.072e-02		17.023
2		0.00		-9.60		3.972e-02		-49.521		1.226e-02		17.717
2		0.00		-9.20		4.273e-02		-49.389		1.259e-02		17.665
2		0.00		-8.80		4.667e-02		-48.655		1.256e-02		16.732
2		0.00		-8.40		4.956e-02		-49.736		1.128e-02		14.420
2		0.00		-8.00		5.024e-02		-48.499		1.103e-02		12.392
2		0.00		-7.60		5.059e-02		-47.569		1.050e-02		10.304
2		0.00		-7.20		4.942e-02		-46.328		1.109e-02		10.559
2		0.00		-6.80		4.691e-02		-46.688		1.128e-02		10.394
2		0.00		-6.40		4.435e-02		-46.279		1.109e-02		9.618
2		0.00		-6.00		4.231e-02		-45.024		1.139e-02		11.064
2		0.00		-5.60		3.941e-02		-43.695		1.087e-02		16.404
2		0.00		-5.20		3.695e-02		-43.942		1.036e-02		16.671
2		0.00		-4.80		3.404e-02		-44.452		9.240e-03		15.177
2		0.00		-4.40		3.088e-02		-48.621		8.626e-03		14.863
2		0.00		-4.00		2.797e-02		-50.604		7.153e-03		15.932
2		0.00		-3.60		2.525e-02		-51.110		6.091e-03		15.610
2		0.00		-3.20		2.207e-02		-49.535		4.988e-03		13.700
2		0.00		-2.80		1.931e-02		-49.272		4.130e-03		14.070
2		0.00		-2.40		1.584e-02		-52.343		3.455e-03		15.225
2		0.00		-2.00		1.204e-02		-47.525		2.526e-03		17.452
2		0.00		-1.60		8.096e-03		-41.425		1.709e-03		16.397
2		0.00		-1.20		4.530e-03		-37.518		1.082e-03		27.068
2		0.00		-0.80		1.851e-03		24.508		8.027e-04		68.466
2		0.00		-0.40		4.718e-03		114.702		1.523e-03		33.534
3		0.00		0.00		8.448e-03		126.755		2.374e-03		14.585
3		0.00		0.40		1.239e-02		123.134		3.248e-03		10.065
3		0.00		0.80		1.637e-02		129.328		3.978e-03		11.281
3		0.00		1.20		2.031e-02		130.227		5.278e-03		9.368
3		0.00		1.60		2.364e-02		130.165		6.150e-03		10.686
3		0.00		2.00		2.704e-02		129.536		7.279e-03		11.868
3		0.00		2.40		3.096e-02		128.224		8.540e-03		23.176
3		0.00		2.80		3.343e-02		126.829		9.850e-03		27.580
3		0.00		3.20		3.536e-02		124.544		1.100e-02		28.871
3		0.00		3.60		3.762e-02		126.384		1.164e-02		29.946
3		0.00		4.00		3.962e-02		124.842		1.263e-02		31.736
3		0.00		4.40		4.199e-02		124.307		1.291e-02		29.653
3		0.00		4.80		4.293e-02		124.602		1.328e-02		27.177
3		0.00		5.20		4.160e-02		124.704		1.272e-02		26.773
3		0.00		5.60		4.205e-02		124.449		1.334e-02		26.860
3		0.00		6.00		4.325e-02		126.289		1.282e-02		22.391
3		0.00		6.40		4.492e-02		126.834		1.311e-02		20.122
3		0.00		6.80		4.516e-02		128.671		1.245e-02		16.445
3		0.00		7.20		4.528e-02		128.037		1.286e-02		18.260
3		0.00		7.60		4.643e-02		128.465		1.295e-02		16.595
3		0.00		8.00		4.739e-02		127.695		1.355e-02		15.987
3		0.00		8.40		4.846e-02		128.993		1.319e-02		14.738
3		0.00		8.80		5.082e-02		127.739		1.350e-02		15.335
3		0.00		9.20		5.075e-02		126.478		1.461e-02		18.090
3		0.00		9.60		4.999e-02		124.362		1.526e-02		19.430
3		0.00		10.00		4.814e-02		125.877		1.491e-02		18.852
3		0.00		9.60		4.755e-02		124.818		1.488e-02		19.722
3		0.00		9.20		4.767e-02		124.388		1.567e-02		19.471
3		0.00		8.80		4.605e-02		126.772		1.538e-02		18.953
3		0.00		8.40		4.420e-02		126.709		1.442e-02		18.526
3		0.00		8.00		4.235e-02		129.612		1.269e-02		15.887
3		0.00		7.60		4.108e-02		129.280		1.199e-02		16.127
3		0.00		7.20		3.913e-02		130.298		1.146e-02		14.712
3		0.00		6.80		3.682e-02		130.223		1.054e-02		14.127
3		0.00		6.40		3.465e-02		129.635		9.236e-03		13.913
3		0.00		6.00		3.228e-02		129.894		8.727e-03		13.663
3		0.00		5.60		2.975e-02		132.183		7.496e-03		13.215
3		0.00		5.20		2.674e-02		132.336		6.476e-03		12.330
3		0.00		4.80		2.386e-02		131.388		5.909e-03		12.397
3		0.00		4.40		2.003e-02		132.370		4.886e-03		12.477
3		0.00		4.00		1.695e-02		132.107		4.127e-03		12.515
3		0.00		3.60		1.355e-02		132.050		3.111e-03		12.599
3		0.00		3.20		1.026e-02		131.917		2.585e-03		13.122
3		0.00		2.80		6.318e-03		132.864		1.884e-03		19.059
3		0.00		2.40		2.346e-03		61.901		8.496e-04		79.248
3		0.00		2.00		3.176e-03		-51.280		1.118e-03		42.605
3		0.00		1.60		7.008e-03		-51.661		1.776e-03		21.662
3		0.00		1.20		1.152e-02		-52.070		2.483e-03		16.693
3		0.00		0.80		1.549e-02		-52.366		3.610e-03		16.449
3		0.00		0.40		1.989e-02		-50.625		4.330e-03		14.913
3		0.00		0.00		2.455e-02		-53.177		5.240e-03		14.989
3		0.00		-0.40		2.763e-02		-51.781		6.266e-03		15.268
3		0.00		-0.80		3.024e-02		-51.989		6.424e-03		14.580
3		0.00		-1.20		3.313e-02		-53.491		7.169e-03		14.001
3		0.00		-1.60		3.603e-02		-52.862		7.233e-03		12.388
3		0.00		-2.00		3.852e-02		-53.322		7.637e-03		12.734
3		0.00		-2.40		3.976e-02		-53.892		7.849e-03		13.008
3		0.00		-2.80		4.108e-02		-54.515		8.177e-03		12.805
3		0.00		-3.20		4.261e-02		-54.088		8.143e-03		13.078
3		0.00		-3.60		4.450e-02		-54.034		8.747e-03		12.442
3		0.00		-4.00		4.475e-02		-52.836		9.312e-03		12.757
3		0.00		-4.40		4.534e-02		-53.343		9.682e-03		13.624
3		0.00		-4.80		4.854e-02		-52.847		1.017e-02		12.699
3		0.00		-5.20		4.759e-02		-50.412		9.915e-03		14.431
3		0.00		-5.60		4.925e-02		-50.228		1.050e-02		13.462
3		0.00		-6.00		5.003e-02		-50.274		1.196e-02		15.000
3		0.00		-6.40		5.005e-02		-51.258		1.268e-02		15.781
3		0.00		-6.80		5.116e-02		-50.088		1.215e-02		14.815
3		0.00		-7.20		5.222e-02		-49.643		1.281e-02		15.393
3		0.00		-7.60		5.163e-02		-51.946		1.357e-02		17.645
3		0.00		-8.00		5.004e-02		-50.686		1.192e-02		17.050
3		0.00		-8.40		4.927e-02		-50.559		1.390e-02		19.502
3		0.00		-8.80		4.751e-02		-47.157		1.350e-02		16.288
3		0.00		-9.20		4.536e-02		-47.148		1.286e-02		17.175
3		0.00		-9.60		4.172e-02		-47.819		1.188e-02		15.809
3		0.00		-10.00		3.644e-02		-45.919		1.024e-02		15.691
3		0.00		-9.60		4.148e-02		-46.856		1.187e-02		14.933
3		0.00		-9.20		4.439e-02		-46.755		1.272e-02		16.229
3		0.00		-8.80		4.733e-02		-47.053		1.327e-02		18.136
3		0.00		-8.40		4.889e-02		-48.224		1.325e-02		17.129
3		0.00		-8.00		4.949e-02		-49.594		1.349e-02		17.279
3		0.00		-7.60		4.910e-02		-48.967		1.304e-02		16.521
3		0.00		-7.20		4.768e-02		-48.826		1.284e-02		14.807
3		0.00		-6.80		4.637e-02		-48.249		1.321e-02		15.364
3		0.00		-6.40		4.330e-02		-48.082		1.245e-02		13.978
3		0.00		-6.00		4.111e-02		-49.257		1.217e-02		14.815
3		0.00		-5.60		3.907e-02		-48.236		1.155e-02		14.989
3		0.00		-5.20		3.669e-02		-49.781		1.121e-02		16.500
3		0.00		-4.80		3.437e-02		-51.928		1.080e-02		18.540
3		0.00		-4.40		3.142e-02		-52.224		9.365e-03		20.575
3		0.00		-4.00		2.845e-02		-52.095		8.816e-03		22.759
3		0.00		-3.60		2.618e-02		-48.308		8.112e-03		20.984
3		0.00		-3.20		2.330e-02		-44.349		6.802e-03		17.680
3		0.00		-2.80		2.042e-02		-46.208		5.752e-03		17.408
3		0.00		-2.40		1.763e-02		-45.413		5.019e-03		13.051
3		0.00		-2.00		1.413e-02		-48.609		3.953e-03		13.610
3		0.00		-1.60		1.053e-02		-44.321		2.796e-03		14.873
3		0.00		-1.20		6.834e-03		-38.826		2.143e-03		20.244
3		0.00		-0.80		3.656e-03		-31.958		1.626e-03		29.205
3		0.00		-0.40		2.259e-03		47.339		1.041e-03		65.595
4		0.00		0.00		5.821e-03		115.492		2.068e-03		32.032
4		0.00		0.40		9.505e-03		127.180		2.813e-03		17.606
4		0.00		0.80		1.323e-02		123.124		3.618e-03		13.560
4		0.00		1.20		1.690e-02		127.981		4.396e-03		12.487
4		0.00		1.60		2.001e-02		128.007		5.162e-03		13.338
4		0.00		2.00		2.281e-02		126.277		5.870e-03		12.710
4		0.00		2.40		2.570e-02		129.643		6.763e-03		12.869
4		0.00		2.80		2.891e-02		129.693		7.985e-03		13.372
4		0.00		3.20		3.206e-02		129.468		8.906e-03		13.444
4		0.00		3.60		3.423e-02		128.021		9.897e-03		16.883
4		0.00		4.00		3.706e-02		126.917		1.137e-02		22.958
4		0.00		4.40		3.957e-02		125.828		1.251e-02		26.751
4		0.00		4.80		4.169e-02		126.568		1.330e-02		30.153
4		0.00		5.20		4.346e-02		128.296		1.388e-02		30.367
4		0.00		5.60		4.524e-02		131.937		1.421e-02		21.911
4		0.00		6.00		4.629e-02		134.172		1.402e-02		10.646
4		0.00		6.40		4.684e-02		131.837		1.316e-02		9.939
4		0.00		6.80		4.716e-02		131.240		1.276e-02		11.937
4		0.00		7.20		4.744e-02		129.881		1.281e-02		14.310
4		0.00		7.60		4.814e-02		129.268		1.309e-02		15.597
4		0.00		8.00		4.928e-02		129.004		1.361e-02		16.749
4		0.00		8.40		4.904e-02		129.687		1.448e-02		18.622
4		0.00		8.80		5.051e-02		128.862		1.473e-02		17.858
4		0.00		9.20		5.021e-02		126.292		1.546e-02		19.132
4		0.00		9.60		4.891e-02		125.845		1.634e-02		20.375
4		0.00		10.00		4.572e-02		128.440		1.684e-02		24.798
4		0.00		9.60		4.824e-02		124.145		1.880e-02		33.295
4		0.00		9.20		4.833e-02		123.460		1.843e-02		37.154
4		0.00		8.80		4.760e-02		125.159		1.800e-02		36.175
4		0.00		8.40		4.543e-02		128.627		1.717e-02		30.958
4		0.00		8.00		4.298e-02		133.215		1.549e-02		12.629
4		0.00		7.60		4.124e-02		132.245		1.386e-02		13.473
4		0.00		7.20		3.964e-02		131.570		1.183e-02		14.020
4		0.00		6.80		3.734e-02		131.366		1.014e-02		14.151
4		0.00		6.40		3.521e-02		130.364		9.134e-03		14.870
4		0.00		6.00		3.237e-02		132.096		8.245e-03		14.355
4		0.00		5.60		3.006e-02		132.292		7.189e-03		12.777
4		0.00		5.20		2.718e-02		133.836		7.009e-03		12.790
4		0.00		4.80		2.475e-02		132.514		6.322e-03		13.806
4		0.00		4.40		2.163e-02		132.428		6.247e-03		18.835
4		0.00		4.00		1.850e-02		129.274		5.240e-03		23.483
4		0.00		3.60		1.513e-02		129.821		4.273e-03		27.289
4		0.00		3.20		1.154e-02		128.700		3.688e-03		27.875
4		0.00		2.80		7.681e-03		130.581		2.772e-03		42.244
4		0.00		2.40		3.831e-03		95.227		1.639e-03		74.055
4		0.00		2.00		2.628e-03		-37.378		9.909e-04		55.031
4		0.00		1.60		6.651e-03		-59.622		1.723e-03		20.781
4		0.00		1.20		1.082e-02		-54.221		2.141e-03		14.533
4		0.00		0.80		1.464e-02		-51.823		2.909e-03		14.453
4		0.00		0.40		1.819e-02		-50.770		3.893e-03		14.487
4		0.00		0.00		2.155e-02		-49.349		4.869e-03		14.504
4		0.00		-0.40		2.500e-02		-51.449		6.345e-03		15.558
4		0.00		-0.80		2.826e-02		-51.308		7.200e-03		16.673
4		0.00		-1.20		3.139e-02		-48.126		8.298e-03		17.554
4		0.00		-1.60		3.369e-02		-46.810		9.555e-03		15.653
4		0.00		-2.00		3.572e-02		-45.592		1.007e-02		11.493
4		0.00		-2.40		3.826e-02		-49.850		9.802e-03		9.815
4		0.00		-2.80		4.041e-02		-52.164		8.976e-03		8.997
4		0.00		-3.20		4.223e-02		-52.347		8.832e-03		11.872
4		0.00		-3.60		4.274e-02		-53.746		9.357e-03		13.424
4		0.00		-4.00		4.302e-02		-51.746		9.885e-03		13.353
4		0.00		-4.40		4.582e-02		-50.322		1.085e-02		12.662
4		0.00		-4.80		4.701e-02		-49.281		1.218e-02		12.861
4		0.00		-5.20		4.871e-02		-49.999		1.407e-02		19.431
4		0.00		-5.60		5.002e-02		-43.282		1.594e-02		22.591
4		0.00		-6.00		5.125e-02		-41.197		1.763e-02		19.548
4		0.00		-6.40		5.168e-02		-45.808		1.459e-02		10.290
4		0.00		-6.80		5.407e-02		-48.428		1.467e-02		10.824
4		0.00		-7.20		5.313e-02		-49.104		1.352e-02		13.353
4		0.00		-7.60		5.268e-02		-50.642		1.473e-02		18.089
4		0.00		-8.00		5.242e-02		-48.783		1.528e-02		16.601
4		0.00		-8.40		5.258e-02		-48.307		1.640e-02		21.302
4		0.00		-8.80		5.085e-02		-40.012		1.664e-02		24.888
4		0.00		-9.20		4.968e-02		-34.195		1.697e-02		33.141
4		0.00		-9.60		4.419e-02		-42.430		1.464e-02		17.279
4		0.00		-10.00		3.784e-02		-41.788		1.104e-02		12.287
4		0.00		-9.60		4.306e-02		-46.040		1.218e-02		14.487
4		0.00		-9.20		4.648e-02		-46.240		1.294e-02		17.217
4		0.00		-8.80		5.009e-02		-44.899		1.248e-02		14.098
4		0.00		-8.40		5.192e-02		-46.522		1.358e-02		15.775
4		0.00		-8.00		5.303e-02		-46.191		1.504e-02		21.415
4		0.00		-7.60		5.409e-02		-41.315		1.662e-02		16.522
4		0.00		-7.20		5.102e-02		-44.752		1.423e-02		9.972
4		0.00		-6.80		5.002e-02		-46.219		1.166e-02		9.596
4		0.00		-6.40		4.672e-02		-47.930		1.056e-02		12.074
4		0.00		-6.00		4.402e-02		-47.466		1.028e-02		12.647
4		0.00		-5.60		4.218e-02		-47.137		1.036e-02		11.186
4		0.00		-5.20		3.943e-02		-48.494		1.076e-02		15.566
4		0.00		-4.80		3.678e-02		-49.396		1.046e-02		18.268
4		0.00		-4.40		3.389e-02		-47.097		9.971e-03		16.115
4		0.00		-4.00		3.178e-02		-49.471		8.435e-03		8.855
4		0.00		-3.60		2.913e-02		-49.948		6.326e-03		9.028
4		0.00		-3.20		2.566e-02		-48.801		4.766e-03		11.308
4		0.00		-2.80		2.262e-02		-48.217		4.297e-03		12.453
4		0.00		-2.40		1.887e-02		-47.787		3.575e-03		13.004
4		0.00		-2.00		1.512e-02		-43.673		3.324e-03		14.861
4		0.00		-1.60		1.147e-02		-43.833		2.784e-03		17.239
4		0.00		-1.20		7.361e-03		-39.748		2.001e-03		17.474
4		0.00		-0.80		3.377e-03		-21.666		1.372e-03		38.620
4		0.00		-0.40		2.522e-03		53.578		9.502e-04		67.443
5		0.00		0.00		5.846e-03		118.732		1.731e-03		27.752
5		0.00		0.40		9.455e-03		125.307		2.049e-03		11.866
5		0.00		0.80		1.341e-02		127.804		2.889e-03		10.766
5		0.00		1.20		1.770e-02		129.886		3.573e-03		12.103
5		0.00		1.60		2.110e-02		128.891		5.043e-03		17.708
5		0.00		2.00		2.494e-02		127.356		6.750e-03		21.323
5		0.00		2.40		2.786e-02		132.032		8.458e-03		10.528
5		0.00		2.80		3.121e-02		130.785		8.167e-03		9.601
5		0.00		3.20		3.402e-02		129.741		7.982e-03		9.592
5		0.00		3.60		3.658e-02		130.074		8.547e-03		11.368
5		0.00		4.00		3.868e-02		130.154		9.607e-03		11.788
5		0.00		4.40		4.096e-02		129.054		1.110e-02		15.645
5		0.00		4.80		4.308e-02		126.440		1.295e-02		25.452
5		0.00		5.20		4.562e-02		127.404		1.535e-02		27.432
5		0.00		5.60		4.760e-02		132.857		1.436e-02		9.075
5		0.00		6.00		4.945e-02		131.559		1.238e-02		8.642
5		0.00		6.40		4.962e-02		128.815		1.242e-02		11.328
5		0.00		6.80		5.028e-02		130.177		1.218e-02		12.915
5		0.00		7.20		4.954e-02		130.477		1.281e-02		13.692
5		0.00		7.60		5.114e-02		129.640		1.433e-02		20.009
5		0.00		8.00		5.401e-02		128.519		1.611e-02		29.519
5		0.00		8.40		5.595e-02		129.101		1.715e-02		31.059
5		0.00		8.80		5.639e-02		132.559		1.696e-02		11.189
5		0.00		9.20		5.570e-02		130.028		1.530e-02		12.343
5		0.00		9.60		5.569e-02		128.513		1.507e-02		13.736
5		0.00		10.00		5.014e-02		131.397		1.419e-02		16.364
5		0.00		9.60		5.030e-02		129.321		1.554e-02		18.705
5		0.00		9.20		5.187e-02		128.023		1.626e-02		21.217
5		0.00		8.80		5.120e-02		127.083		1.730e-02		28.456
5		0.00		8.40		5.007e-02		128.867		1.744e-02		29.613
5		0.00		8.00		4.877e-02		133.764		1.631e-02		12.402
5		0.00		7.60		4.601e-02		133.528		1.292e-02		10.114
5		0.00		7.20		4.288e-02		131.225		1.102e-02		11.903
5		0.00		6.80		3.983e-02		130.725		1.053e-02		13.483
5		0.00		6.40		3.689e-02		132.432		9.832e-03		12.850
5		0.00		6.00		3.592e-02		131.672		9.722e-03		12.884
5		0.00		5.60		3.302e-02		130.183		8.984e-03		21.520
5		0.00		5.20		3.016e-02		130.384		8.615e-03		22.323
5		0.00		4.80		2.752e-02		134.690		7.761e-03		14.882
5		0.00		4.40		2.395e-02		133.577		6.072e-03		9.124
5		0.00		4.00		2.040e-02		132.948		4.874e-03		11.640
5		0.00		3.60		1.645e-02		133.475		3.608e-03		11.499
5		0.00		3.20		1.225e-02		135.230		3.069e-03		11.376
5		0.00		2.80		8.144e-03		135.403		2.440e-03		22.172
5		0.00		2.40		3.998e-03		102.221		1.437e-03		65.275
5		0.00		2.00		2.507e-03		-38.725		1.149e-03		57.194
5		0.00		1.60		6.153e-03		-52.621		1.918e-03		21.871
5		0.00		1.20		1.090e-02		-53.182		2.461e-03		13.581
5		0.00		0.80		1.547e-02		-48.853		3.084e-03		12.155
5		0.00		0.40		1.947e-02		-52.450		3.587e-03		13.105
5		0.00		0.00		2.311e-02		-52.621		4.914e-03		14.325
5		0.00		-0.40		2.569e-02		-49.492		6.222e-03		14.585
5		0.00		-0.80		2.897e-02		-52.149		7.699e-03		19.023
5		0.00		-1.20		3.221e-02		-45.883		9.278e-03		21.193
5		0.00		-1.60		3.449e-02		-50.521		9.846e-03		11.389
5		0.00		-2.00		3.703e-02		-51.351		8.839e-03		9.034
5		0.00		-2.40		3.969e-02		-51.037		7.928e-03		8.426
5		0.00		-2.80		4.053e-02		-51.585		7.365e-03		10.745
5		0.00		-3.20		4.122e-02		-51.099		8.340e-03		11.995
5		0.00		-3.60		4.269e-02		-50.066		9.443e-03		10.618
5		0.00		-4.00		4.511e-02		-50.480		1.116e-02		13.847
5		0.00		-4.40		4.626e-02		-49.008		1.262e-02		14.687
5		0.00		-4.80		4.844e-02		-48.428		1.364e-02		9.147
5		0.00		-5.20		5.008e-02		-48.386		1.215e-02		9.187
5		0.00		-5.60		5.060e-02		-48.817		1.138e-02		9.591
5		0.00		-6.00		5.127e-02		-48.506		1.151e-02		12.851
5		0.00		-6.40		5.139e-02		-48.090		1.231e-02		13.728
5		0.00		-6.80		5.234e-02		-47.577		1.304e-02		12.561
5		0.00		-7.20		5.346e-02		-47.753		1.568e-02		19.343
5		0.00		-7.60		5.387e-02		-44.633		1.697e-02		25.071
5		0.00		-8.00		5.493e-02		-43.053		1.846e-02		22.554
5		0.00		-8.40		5.348e-02		-44.046		1.612e-02		10.496
5		0.00		-8.80		5.053e-02		-44.579		1.433e-02		11.876
5		0.00		-9.20		4.691e-02		-45.269		1.376e-02		13.767
5		0.00		-9.60		4.264e-02		-46.730		1.284e-02		14.989
5		0.00		-10.00		3.637e-02		-45.276		1.058e-02		14.084
5		0.00		-9.60		4.295e-02		-45.633		1.313e-02		13.901
5		0.00		-9.20		4.788e-02		-42.543		1.468e-02		25.325
5		0.00		-8.80		5.144e-02		-43.053		1.540e-02		23.383
5		0.00		-8.40		5.399e-02		-38.722		1.695e-02		25.817
5		0.00		-8.00		5.348e-02		-44.672		1.540e-02		10.198
5		0.00		-7.60		5.256e-02		-46.524		1.321e-02		10.314
5		0.00		-7.20		5.103e-02		-47.219		1.154e-02		11.247
5		0.00		-6.80		4.840e-02		-48.087		1.067e-02		13.513
5		0.00		-6.40		4.542e-02		-46.583		9.350e-03		12.439
5		0.00		-6.00		4.457e-02		-45.283		1.003e-02		11.726
5		0.00		-5.60		4.171e-02		-46.236		1.051e-02		12.421
5		0.00		-5.20		3.948e-02		-47.812		9.967e-03		15.551
5		0.00		-4.80		3.650e-02		-47.430		1.066e-02		14.036
5		0.00		-4.40		3.335e-02		-47.643		1.017e-02		10.191
5		0.00		-4.00		3.023e-02		-48.378		8.189e-03		9.533
5		0.00		-3.60		2.776e-02		-50.376		6.634e-03		9.359
5		0.00		-3.20		2.450e-02		-48.829		4.831e-03		10.427
5		0.00		-2.80		2.104e-02		-49.037		4.096e-03		13.622
5		0.00		-2.40		1.789e-02		-46.536		3.752e-03		12.574
5		0.00		-2.00		1.371e-02		-46.782		3.139e-03		14.888
5		0.00		-1.60		1.038e-02		-45.285		2.686e-03		15.387
5		0.00		-1.20		6.433e-03		-36.021		1.995e-03		18.096
5		0.00		-0.80		2.755e-03		-25.695		1.423e-03		43.508
5		0.00		-0.40		2.998e-03		71.997		1.275e-03		48.661
6		0.00		0.00		6.264e-03		114.875		2.020e-03		29.688
6		0.00		0.40		1.013e-02		126.665		2.894e-03		17.189
6		0.00		0.80		1.444e-02		128.876		3.147e-03		11.232
6		0.00		1.20		1.810e-02		127.132		3.901e-03		10.377
6		0.00		1.60		2.139e-02		128.846		4.398e-03		11.535
6		0.00		2.00		2.518e-02		131.554		5.520e-03		10.985
6		0.00		2.40		2.832e-02		129.499		6.835e-03		18.512
6		0.00		2.80		3.179e-02		129.071		8.004e-03		23.162
6		0.00		3.20		3.482e-02		132.194		9.574e-03		19.621
6		0.00		3.60		3.794e-02		132.919		1.081e-02		8.873
6		0.00		4.00		4.004e-02		132.839		1.048e-02		9.416
6		0.00		4.40		4.255e-02		130.721		1.022e-02		10.774
6		0.00		4.80		4.360e-02		130.006		1.098e-02		13.199
6		0.00		5.20		4.546e-02		130.405		1.104e-02		12.596
6		0.00		5.60		4.501e-02		130.989		1.202e-02		13.019
6		0.00		6.00		4.748e-02		130.096		1.387e-02		17.796
6		0.00		6.40		4.916e-02		128.588		1.565e-02		28.761
6		0.00		6.80		4.993e-02		130.316		1.661e-02		28.935
6		0.00		7.20		5.081e-02		134.610		1.589e-02		10.285
6		0.00		7.60		5.216e-02		133.708		1.388e-02		9.421
6		0.00		8.00		5.319e-02		131.595		1.352e-02		12.680
6		0.00		8.40		5.304e-02		129.685		1.456e-02		17.274
6		0.00		8.80		5.202e-02		127.854		1.427e-02		20.011
6		0.00		9.20		5.359e-02		129.119		1.539e-02		17.897
6		0.00		9.60		5.298e-02		129.224		1.652e-02		21.299
6		0.00		10.00		5.342e-02		129.159		1.800e-02		26.796
6		0.00		9.60		5.477e-02		128.621		1.870e-02		23.939
6		0.00		9.20		5.504e-02		129.694		1.762e-02		21.866
6		0.00		8.80		5.321e-02		132.568		1.529e-02		10.960
6		0.00		8.40		4.983e-02		132.163		1.358e-02		12.206
6		0.00		8.00		4.771e-02		131.706		1.368e-02		13.988
6		0.00		7.60		4.479e-02		131.795		1.255e-02		13.626
6		0.00		7.20		4.290e-02		132.879		1.220e-02		12.349
6		0.00		6.80		4.055e-02		131.327		1.244e-02		16.288
6		0.00		6.40		3.794e-02		128.618		1.213e-02		27.457
6		0.00		6.00		3.581e-02		129.747		1.190e-02		27.941
6		0.00		5.60		3.265e-02		132.778		1.104e-02		20.276
6		0.00		5.20		3.002e-02		133.287		8.897e-03		9.368
6		0.00		4.80		2.654e-02		133.711		7.260e-03		11.532
6		0.00		4.40		2.309e-02		132.657		5.768e-03		11.259
6		0.00		4.00		1.928e-02		132.827		4.686e-03		11.027
6		0.00		3.60		1.594e-02		134.155		3.918e-03		11.919
6		0.00		3.20		1.178e-02		134.252		3.048e-03		16.868
6		0.00		2.80		8.066e-03		130.434		2.609e-03		29.246
6		0.00		2.40		3.773e-03		88.361		1.380e-03		81.283
6		0.00		2.00		2.538e-03		-39.896		1.046e-03		58.415
6		0.00		1.60		6.098e-03		-56.422		1.781e-03		21.989
6		0.00		1.20		1.116e-02		-48.815		2.466e-03		14.476
6		0.00		0.80		1.586e-02		-53.099		2.983e-03		13.175
6		0.00		0.40		1.968e-02		-52.222		3.839e-03		12.469
6		0.00		0.00		2.356e-02		-50.299		4.795e-03		12.685
6		0.00		-0.40		2.653e-02		-48.343		5.932e-03		13.087
6		0.00		-0.80		2.936e-02		-51.646		7.713e-03		16.105
6		0.00		-1.20		3.159e-02		-49.122		8.578e-03		15.804
6		0.00		-1.60		3.271e-02		-48.965		9.638e-03		13.918
6		0.00		-2.00		3.526e-02		-50.657		9.716e-03		10.050
6		0.00		-2.40		3.743e-02		-51.564		8.430e-03		9.385
6		0.00		-2.80		3.977e-02		-53.579		8.107e-03		10.630
6		0.00		-3.20		3.910e-02		-52.497		8.028e-03		11.966
6		0.00		-3.60		4.044e-02		-50.601		9.278e-03		13.133
6		0.00		-4.00		4.284e-02		-50.363		1.049e-02		12.539
6		0.00		-4.40		4.411e-02		-48.878		1.181e-02		15.166
6		0.00		-4.80		4.566e-02		-44.413		1.295e-02		17.042
6		0.00		-5.20		4.825e-02		-47.162		1.395e-02		12.423
6		0.00		-5.60		4.956e-02		-46.625		1.281e-02		9.111
6		0.00		-6.00		5.037e-02		-47.537		1.133e-02		11.072
6		0.00		-6.40		5.196e-02		-48.547		1.236e-02		13.039
6		0.00		-6.80		5.152e-02		-48.669		1.309e-02		14.303
6		0.00		-7.20		5.311e-02		-47.636		1.387e-02		13.663
6		0.00		-7.60		5.429e-02		-48.718		1.498e-02		16.593
6		0.00		-8.00		5.553e-02		-45.737		1.703e-02		23.235
6		0.00		-8.40		5.460e-02		-40.692		1.903e-02		25.848
6		0.00		-8.80		5.210e-02		-42.977		1.831e-02		16.344
6		0.00		-9.20		4.828e-02		-43.874		1.655e-02		12.809
6		0.00		-9.60		4.295e-02		-44.869		1.387e-02		13.547
6		0.00		-10.00		3.753e-02		-44.605		1.076e-02		13.941
6		0.00		-9.60		4.178e-02		-47.454		1.256e-02		14.857
6		0.00		-9.20		4.522e-02		-45.356		1.373e-02		15.368
6		0.00		-8.80		4.765e-02		-45.882		1.530e-02		27.150
6		0.00		-8.40		5.082e-02		-41.451		1.706e-02		27.178
6		0.00		-8.00		5.267e-02		-43.577		1.747e-02		22.273
6		0.00		-7.60		5.171e-02		-46.472		1.423e-02		9.961
6		0.00		-7.20		4.943e-02		-46.737		1.143e-02		11.714
6		0.00		-6.80		4.671e-02		-47.298		1.056e-02		13.792
6		0.00		-6.40		4.487e-02		-47.329		9.497e-03		12.860
6		0.00		-6.00		4.316e-02		-44.622		9.555e-03		11.797
6		0.00		-5.60		4.113e-02		-46.626		1.052e-02		12.350
6		0.00		-5.20		3.873e-02		-48.030		1.016e-02		18.474
6		0.00		-4.80		3.622e-02		-46.760		1.017e-02		14.484
6		0.00		-4.40		3.380e-02		-48.806		9.269e-03		10.656
6		0.00		-4.00		3.117e-02		-48.683		7.470e-03		8.688
6		0.00		-3.60		2.774e-02		-49.285		5.829e-03		10.530
6		0.00		-3.20		2.476e-02		-49.887		5.178e-03		12.236
6		0.00		-2.80		2.115e-02		-48.224		4.744e-03		13.249
6		0.00		-2.40		1.756e-02		-47.519		4.040e-03		12.906
6		0.00		-2.00		1.422e-02		-46.378		3.766e-03		17.117
6		0.00		-1.60		1.070e-02		-43.103		2.961e-03		14.485
6		0.00		-1.20		6.988e-03		-38.336		2.195e-03		24.870
6		0.00		-0.80		3.131e-03		-26.640		1.370e-03		37.101
6		0.00		-0.40		2.510e-03		61.512		1.000e-03		53.836
7		0.00		0.00		5.636e-03		111.619		1.743e-03		29.974
7		0.00		0.40		9.743e-03		125.611		2.302e-03		13.693
7		0.00		0.80		1.362e-02		128.133		3.338e-03		11.659
7		0.00		1.20		1.770e-02		129.702		4.341e-03		15.265
7		0.00		1.60		2.130e-02		126.609		5.259e-03		21.816
7		0.00		2.00		2.458e-02		129.613		6.623e-03		23.451
7		0.00		2.40		2.885e-02		132.749		7.842e-03		9.875
7		0.00		2.80		3.188e-02		131.948		7.623e-03		9.173
7		0.00		3.20		3.467e-02		130.855		7.438e-03		9.500
7		0.00		3.60		3.773e-02		131.315		7.966e-03		10.973
7		0.00		4.00		3.925e-02		131.367		8.683e-03		12.411
7		0.00		4.40		4.192e-02		132.018		1.030e-02		12.185
7		0.00		4.80		4.338e-02		129.852		1.262e-02		18.430
7		0.00		5.20		4.640e-02		126.145		1.521e-02		29.061
7		0.00		5.60		4.783e-02		129.883		1.679e-02		25.728
7		0.00		6.00		4.912e-02		133.267		1.573e-02		9.341
7		0.00		6.40		5.079e-02		131.774		1.436e-02		10.943
7		0.00		6.80		4.954e-02		130.319		1.402e-02		13.216
7		0.00		7.20		4.744e-02		128.661		1.364e-02		15.588
7		0.00		7.60		4.864e-02		130.626		1.456e-02		16.531
7		0.00		8.00		4.919e-02		130.337		1.586e-02		18.965
7		0.00		8.40		5.220e-02		128.335		1.736e-02		30.330
7		0.00		8.80		5.469e-02		128.271		1.875e-02		28.165
7		0.00		9.20		5.486e-02		131.940		1.759e-02		9.544
7		0.00		9.60		5.464e-02		130.944		1.677e-02		12.110
7		0.00		10.00		5.097e-02		131.141		1.542e-02		14.406
7		0.00		9.60		5.202e-02		129.001		1.493e-02		15.818
7		0.00		9.20		5.166e-02		130.899		1.476e-02		16.336
7		0.00		8.80		5.110e-02		130.824		1.477e-02		17.704
7		0.00		8.40		5.102e-02		130.075		1.551e-02		27.445
7		0.00		8.00		5.036e-02		128.724		1.594e-02		31.195
7		0.00		7.60		4.875e-02		134.188		1.532e-02		12.892
7		0.00		7.20		4.614e-02		134.799		1.253e-02		10.484
7		0.00		6.80		4.282e-02		132.939		1.065e-02		12.073
7		0.00		6.40		3.907e-02		131.556		9.531e-03		12.531
7		0.00		6.00		3.648e-02		133.166		9.015e-03		13.220
7		0.00		5.60		3.334e-02		133.635		8.328e-03		12.489
7		0.00		5.20		3.083e-02		133.090		8.093e-03		13.432
7		0.00		4.80		2.713e-02		132.457		7.318e-03		17.346
7		0.00		4.40		2.347e-02		129.845		6.866e-03		24.390
7		0.00		4.00		1.937e-02		130.508		6.250e-03		27.412
7		0.00		3.60		1.575e-02		138.651		4.789e-03		9.826
7		0.00		3.20		1.229e-02		134.385		3.326e-03		14.573
7		0.00		2.80		8.503e-03		136.244		2.462e-03		14.932
7		0.00		2.40		3.966e-03		107.792		1.535e-03		65.924
7		0.00		2.00		2.132e-03		-17.305		8.533e-04		69.182
7		0.00		1.60		5.216e-03		-57.052		1.614e-03		25.699
7		0.00		1.20		9.440e-03		-51.552		2.710e-03		21.928
7		0.00		0.80		1.422e-02		-50.645		3.885e-03		16.452
7		0.00		0.40		1.863e-02		-49.540		5.118e-03		15.494
7		0.00		0.00		2.287e-02		-51.252		5.674e-03		10.750
7		0.00		-0.40		2.687e-02		-51.837		5.897e-03		8.760
7		0.00		-0.80		3.017e-02		-51.293		5.640e-03		10.510
7		0.00		-1.20		3.321e-02		-52.185		6.596e-03		11.063
7		0.00		-1.60		3.429e-02		-51.472		7.199e-03		11.796
7		0.00		-2.00		3.620e-02		-49.722		8.914e-03		12.044
7		0.00		-2.40		3.805e-02		-50.751		1.074e-02		14.999
7		0.00		-2.80		3.958e-02		-47.987		1.172e-02		23.219
7		0.00		-3.20		4.130e-02		-49.932		1.285e-02		18.742
7		0.00		-3.60		4.289e-02		-50.480		1.226e-02		9.257
7		0.00		-4.00		4.497e-02		-51.887		1.080e-02		9.065
7		0.00		-4.40		4.525e-02		-52.720		1.031e-02		10.992
7		0.00		-4.80		4.578e-02		-50.862		1.018e-02		12.031
7		0.00		-5.20		4.664e-02		-49.012		1.090e-02		13.478
7		0.00		-5.60		4.881e-02		-48.383		1.224e-02		13.668
7		0.00		-6.00		4.982e-02		-46.829		1.335e-02		20.652
7		0.00		-6.40		5.317e-02		-47.292		1.489e-02		22.480
7		0.00		-6.80		5.421e-02		-41.054		1.630e-02		22.330
7		0.00		-7.20		5.526e-02		-45.555		1.450e-02		10.451
7		0.00		-7.60		5.670e-02		-47.456		1.328e-02		10.685
7		0.00		-8.00		5.733e-02		-48.158		1.295e-02		12.555
7		0.00		-8.40		5.391e-02		-47.831		1.363e-02		16.671
7		0.00		-8.80		5.144e-02		-44.530		1.264e-02		13.036
7		0.00		-9.20		4.863e-02		-44.522		1.414e-02		15.534
7		0.00		-9.60		4.518e-02		-39.850		1.511e-02		20.414
7		0.00		-10.00		3.968e-02		-31.043		1.401e-02		26.977
7		0.00		-9.60		4.480e-02		-39.498		1.576e-02		18.010
7		0.00		-9.20		4.867e-02		-41.815		1.557e-02		9.643
7		0.00		-8.80		5.090e-02		-43.384		1.407e-02		9.473
7		0.00		-8.40		5.267e-02		-47.846		1.370e-02		12.428
7		0.00		-8.00		5.108e-02		-48.356		1.211e-02		13.991
7		0.00		-7.60		5.065e-02		-48.128		1.208e-02		12.447
7		0.00		-7.20		4.993e-02		-46.494		1.344e-02		12.009
7		0.00		-6.80		4.847e-02		-47.638		1.363e-02		15.612
7		0.00		-6.40		4.791e-02		-44.434		1.314e-02		16.671
7		0.00		-6.00		4.642e-02		-39.511		1.313e-02		13.554
7		0.00		-5.60		4.410e-02		-45.747		1.109e-02		8.388
7		0.00		-5.20		4.098e-02		-47.437		9.158e-03		8.266
7		0.00		-4.80		3.764e-02		-48.718		7.570e-03		9.703
7		0.00		-4.40		3.477e-02		-49.333		6.750e-03		11.296
7		0.00		-4.00		3.161e-02		-49.728		6.376e-03		11.334
7		0.00		-3.60		2.819e-02		-48.704		5.885e-03		12.373
7		0.00		-3.20		2.488e-02		-47.360		5.814e-03		13.489
7		0.00		-2.80		2.199e-02		-49.922		5.279e-03		20.613
7		0.00		-2.40		1.821e-02		-44.433		4.533e-03		15.499
7		0.00		-2.00		1.488e-02		-48.514		3.842e-03		11.683
7		0.00		-1.60		1.108e-02		-41.671		2.631e-03		12.897
7		0.00		-1.20		7.679e-03		-45.655		1.998e-03		15.585
7		0.00		-0.80		3.406e-03		-37.339		1.264e-03		34.811
7		0.00		-0.40		2.437e-03		54.502		9.431e-04		51.260
8		0.00		0.00		5.128e-03		118.023		1.827e-03		25.080
8		0.00		0.40		9.589e-03		127.908		2.601e-03		19.028
8		0.00		0.80		1.276e-02		123.586		3.762e-03		24.234
8		0.00		1.20		1.677e-02		126.180		5.099e-03		26.993
8		0.00		1.60		2.066e-02		129.430		5.934e-03		11.364
8		0.00		2.00		2.445e-02		130.868		6.313e-03		9.284
8		0.00		2.40		2.904e-02		131.505		6.510e-03		8.496
8		0.00		2.80		3.201e-02		130.487		6.683e-03		10.206
8		0.00		3.20		3.444e-02		130.047		7.265e-03		11.189
8		0.00		3.60		3.781e-02		132.931		8.271e-03		10.901
8		0.00		4.00		4.083e-02		132.449		9.870e-03		11.034
8		0.00		4.40		4.328e-02		130.110		1.159e-02		17.772
8		0.00		4.80		4.653e-02		129.416		1.328e-02		24.032
8		0.00		5.20		4.816e-02		131.273		1.492e-02		15.973
8		0.00		5.60		5.002e-02		133.775		1.403e-02		8.120
8		0.00		6.00		5.040e-02		132.502		1.306e-02		9.819
8		0.00		6.40		5.029e-02		130.965		1.323e-02		11.633
8		0.00		6.80		4.926e-02		130.046		1.399e-02		14.285
8		0.00		7.20		4.612e-02		130.651		1.395e-02		14.936
8		0.00		7.60		4.796e-02		130.751		1.485e-02		15.193
8		0.00		8.00		5.011e-02		128.262		1.673e-02		27.755
8		0.00		8.40		5.259e-02		127.930		1.855e-02		31.974
8		0.00		8.80		5.432e-02		132.313		1.892e-02		19.371
8		0.00		9.20		5.492e-02		132.374		1.826e-02		10.378
8		0.00		9.60		5.344e-02		129.983		1.693e-02		14.784
8		0.00		10.00		5.143e-02		131.656		1.561e-02		13.779
8		0.00		9.60		5.261e-02		129.364		1.484e-02		15.618
8		0.00		9.20		5.336e-02		131.257		1.528e-02		15.607
8		0.00		8.80		5.226e-02		131.636		1.559e-02		20.719
8		0.00		8.40		5.152e-02		131.189		1.589e-02		28.208
8		0.00		8.00		5.075e-02		132.348		1.638e-02		25.270
8		0.00		7.60		4.865e-02		133.133		1.445e-02		11.373
8		0.00		7.20		4.641e-02		133.251		1.162e-02		10.515
8		0.00		6.80		4.384e-02		132.998		1.044e-02		12.172
8		0.00		6.40		4.137e-02		133.224		9.560e-03		12.378
8		0.00		6.00		3.814e-02		134.359		8.968e-03		10.828
8		0.00		5.60		3.476e-02		132.444		9.497e-03		14.358
8		0.00		5.20		3.161e-02		129.248		9.493e-03		24.322
8		0.00		4.80		2.782e-02		129.495		8.945e-03		25.711
8		0.00		4.40		2.470e-02		133.582		7.732e-03		11.428
8		0.00		4.00		2.085e-02		134.776		5.705e-03		10.404
8		0.00		3.60		1.687e-02		132.924		4.187e-03		12.246
8		0.00		3.20		1.280e-02		135.687		3.539e-03		9.191
8		0.00		2.80		8.274e-03		136.777		2.223e-03		14.826
8		0.00		2.40		3.881e-03		100.859		1.568e-03		66.637
8		0.00		2.00		2.479e-03		-46.153		1.046e-03		56.572
8		0.00		1.60		6.488e-03		-59.830		2.081e-03		18.222
8		0.00		1.20		1.127e-02		-54.296		2.923e-03		12.905
8		0.00		0.80		1.674e-02		-53.462		3.805e-03		11.222
8		0.00		0.40		2.146e-02		-51.474		4.080e-03		10.526
8		0.00		0.00		2.576e-02		-51.327		4.484e-03		11.687
8		0.00		-0.40		2.870e-02		-48.935		5.439e-03		11.463
8		0.00		-0.80		3.231e-02		-49.856		7.034e-03		13.071
8		0.00		-1.20		3.527e-02		-50.521		8.173e-03		17.228
8		0.00		-1.60		3.796e-02		-46.358		9.829e-03		21.120
8		0.00		-2.00		3.999e-02		-48.686		1.009e-02		10.164
8		0.00		-2.40		4.095e-02		-50.711		8.980e-03		9.313
8		0.00		-2.80		4.346e-02		-51.623		8.394e-03		9.726
8		0.00		-3.20		4.409e-02		-51.913		8.857e-03		10.675
8		0.00		-3.60		4.461e-02		-51.945		9.637e-03		12.226
8		0.00		-4.00		4.540e-02		-50.905		1.060e-02		11.627
8		0.00		-4.40		4.617e-02		-50.140		1.282e-02		14.445
8		0.00		-4.80		4.863e-02		-50.194		1.446e-02		19.577
8		0.00		-5.20		5.028e-02		-44.955		1.633e-02		17.837
8		0.00		-5.60		5.112e-02		-46.682		1.425e-02		8.288
8		0.00		-6.00		5.246e-02		-46.677		1.245e-02		8.769
8		0.00		-6.40		5.160e-02		-49.003		1.185e-02		12.230
8		0.00		-6.80		5.262e-02		-50.007		1.235e-02		13.894
8		0.00		-7.20		5.432e-02		-48.217		1.324e-02		13.935
8		0.00		-7.60		5.520e-02		-47.606		1.505e-02		13.879
8		0.00		-8.00		5.686e-02		-48.246		1.675e-02		21.418
8		0.00		-8.40		5.672e-02		-45.746		1.797e-02		21.255
8		0.00		-8.80		5.506e-02		-42.490		1.658e-02		12.141
8		0.00		-9.20		5.152e-02		-42.089		1.500e-02		9.367
8		0.00		-9.60		4.603e-02		-44.306		1.319e-02		12.527
8		0.00		-10.00		3.983e-02		-42.073		1.041e-02		12.087
8		0.00		-9.60		4.495e-02		-44.835		1.220e-02		13.015
8		0.00		-9.20		4.945e-02		-43.820		1.496e-02		14.906
8		0.00		-8.80		5.186e-02		-46.248		1.627e-02		23.745
8		0.00		-8.40		5.358e-02		-40.745		1.801e-02		28.238
8		0.00		-8.00		5.460e-02		-41.028		1.964e-02		23.847
8		0.00		-7.60		5.519e-02		-46.671		1.776e-02		11.833
8		0.00		-7.20		5.246e-02		-46.176		1.447e-02		10.136
8		0.00		-6.80		5.042e-02		-47.180		1.231e-02		11.069
8		0.00		-6.40		4.746e-02		-47.975		1.106e-02		12.452
8		0.00		-6.00		4.415e-02		-47.759		9.923e-03		12.399
8		0.00		-5.60		4.311e-02		-47.527		1.063e-02		12.286
8		0.00		-5.20		4.040e-02		-46.685		1.040e-02		13.651
8		0.00		-4.80		3.828e-02		-48.495		9.676e-03		19.826
8		0.00		-4.40		3.555e-02		-48.063		9.454e-03		14.736
8		0.00		-4.00		3.216e-02		-47.907		8.208e-03		8.716
8		0.00		-3.60		2.889e-02		-48.453		6.109e-03		10.097
8		0.00		-3.20		2.567e-02		-48.725		4.717e-03		10.916
8		0.00		-2.80		2.314e-02		-47.275		3.745e-03		10.760
8		0.00		-2.40		1.903e-02		-46.642		3.420e-03		12.553
8		0.00		-2.00		1.516e-02		-44.861		2.902e-03		11.963
8		0.00		-1.60		1.076e-02		-40.728		2.608e-03		14.512
8		0.00		-1.20		6.714e-03		-41.285		2.074e-03		20.856
8		0.00		-0.80		2.919e-03		-38.183		1.462e-03		39.060
8		0.00		-0.40		2.695e-03		66.912		1.114e-03		61.495
