# Date of analysis: 2024-03-08 10;58
# Segment other properties: height: -26.831629400235652, diff height: 239.22999340647706, deflection: 35.875662596264235, deflection error: 6.123833649024465, adhesion: 24.749908706848995, phase offset: 0
# 
# Loop index	Read Volt (V)	Write Volt (V)	Amplitude (a.u)	Phase (deg)	Sigma Amp (a.u)	Sigma Pha (deg)	
1		0.00		0.00		2.468e-02		-63.027		1.333e-02		31.523
1		0.00		0.40		1.453e-02		-61.521		6.365e-03		23.677
1		0.00		0.80		8.315e-03		-53.462		4.646e-03		46.549
1		0.00		1.20		5.728e-03		11.208		2.714e-03		84.775
1		0.00		1.60		7.213e-03		54.539		3.882e-03		83.211
1		0.00		2.00		1.200e-02		101.122		6.238e-03		62.170
1		0.00		2.40		1.688e-02		110.114		8.435e-03		50.407
1		0.00		2.80		2.010e-02		108.973		1.008e-02		59.367
1		0.00		3.20		2.507e-02		109.984		1.221e-02		58.710
1		0.00		3.60		2.863e-02		120.497		1.234e-02		45.883
1		0.00		4.00		3.361e-02		126.377		1.423e-02		36.732
1		0.00		4.40		3.507e-02		123.321		1.359e-02		40.605
1		0.00		4.80		3.733e-02		126.271		1.387e-02		25.564
1		0.00		5.20		3.905e-02		125.920		1.383e-02		28.871
1		0.00		5.60		3.918e-02		120.577		1.311e-02		43.521
1		0.00		6.00		4.136e-02		121.678		1.301e-02		41.319
1		0.00		6.40		4.139e-02		113.812		1.258e-02		56.085
1		0.00		6.80		4.163e-02		112.007		1.431e-02		54.943
1		0.00		7.20		4.371e-02		118.721		1.741e-02		56.403
1		0.00		7.60		4.369e-02		122.362		1.917e-02		46.953
1		0.00		8.00		4.748e-02		125.979		2.256e-02		37.633
1		0.00		8.40		4.901e-02		99.312		2.411e-02		61.637
1		0.00		8.80		4.609e-02		94.053		2.215e-02		67.437
1		0.00		9.20		5.125e-02		106.376		2.358e-02		56.492
1		0.00		9.60		5.055e-02		104.214		2.312e-02		60.507
1		0.00		10.00		5.134e-02		115.833		2.216e-02		48.417
1		0.00		9.60		5.215e-02		110.082		2.192e-02		63.818
1		0.00		9.20		5.518e-02		120.055		1.988e-02		42.818
1		0.00		8.80		5.299e-02		120.211		2.001e-02		49.566
1		0.00		8.40		4.950e-02		106.322		1.860e-02		64.393
1		0.00		8.00		4.710e-02		106.668		1.665e-02		64.755
1		0.00		7.60		4.749e-02		100.519		1.667e-02		78.835
1		0.00		7.20		4.529e-02		119.357		1.506e-02		63.650
1		0.00		6.80		4.538e-02		123.283		1.549e-02		58.942
1		0.00		6.40		4.484e-02		119.258		1.703e-02		66.550
1		0.00		6.00		4.570e-02		126.185		1.863e-02		44.437
1		0.00		5.60		4.506e-02		132.108		1.841e-02		20.398
1		0.00		5.20		4.208e-02		120.402		1.850e-02		46.598
1		0.00		4.80		3.888e-02		116.692		1.755e-02		47.011
1		0.00		4.40		3.528e-02		123.434		1.501e-02		37.403
1		0.00		4.00		3.243e-02		128.838		1.387e-02		32.905
1		0.00		3.60		2.813e-02		128.387		1.165e-02		33.869
1		0.00		3.20		2.466e-02		129.456		9.908e-03		27.424
1		0.00		2.80		1.891e-02		128.417		8.070e-03		30.185
1		0.00		2.40		1.439e-02		122.836		6.415e-03		51.257
1		0.00		2.00		9.398e-03		107.543		4.646e-03		68.806
1		0.00		1.60		5.710e-03		54.862		2.651e-03		89.499
1		0.00		1.20		4.645e-03		-17.950		2.328e-03		74.610
1		0.00		0.80		8.194e-03		-64.299		3.165e-03		28.264
1		0.00		0.40		1.414e-02		-55.450		3.676e-03		18.845
1		0.00		0.00		1.921e-02		-52.305		4.744e-03		17.367
1		0.00		-0.40		2.398e-02		-50.214		6.581e-03		14.681
1		0.00		-0.80		2.668e-02		-47.824		8.160e-03		15.224
1		0.00		-1.20		2.923e-02		-47.687		9.964e-03		17.936
1		0.00		-1.60		2.954e-02		-42.477		1.112e-02		30.988
1		0.00		-2.00		3.154e-02		-41.064		1.179e-02		41.142
1		0.00		-2.40		3.246e-02		-44.851		1.169e-02		38.369
1		0.00		-2.80		3.323e-02		-50.671		1.202e-02		26.454
1		0.00		-3.20		3.452e-02		-50.550		1.240e-02		20.598
1		0.00		-3.60		3.591e-02		-52.441		1.212e-02		15.013
1		0.00		-4.00		3.682e-02		-53.072		1.140e-02		16.667
1		0.00		-4.40		3.549e-02		-57.114		1.016e-02		17.131
1		0.00		-4.80		3.630e-02		-55.136		1.027e-02		19.605
1		0.00		-5.20		3.534e-02		-52.397		1.015e-02		20.777
1		0.00		-5.60		3.609e-02		-48.844		1.090e-02		19.288
1		0.00		-6.00		3.979e-02		-44.436		1.363e-02		18.202
1		0.00		-6.40		4.037e-02		-42.406		1.531e-02		19.127
1		0.00		-6.80		4.222e-02		-41.249		1.683e-02		20.054
1		0.00		-7.20		4.581e-02		-35.154		1.786e-02		30.499
1		0.00		-7.60		4.875e-02		-31.786		1.892e-02		35.638
1		0.00		-8.00		4.651e-02		-28.298		1.778e-02		36.593
1		0.00		-8.40		4.611e-02		-29.168		1.720e-02		26.572
1		0.00		-8.80		4.508e-02		-39.183		1.603e-02		30.790
1		0.00		-9.20		4.240e-02		-41.607		1.582e-02		22.734
1		0.00		-9.60		3.742e-02		-46.199		1.438e-02		19.778
1		0.00		-10.00		3.262e-02		-47.879		1.142e-02		19.331
1		0.00		-9.60		3.558e-02		-55.372		1.342e-02		25.353
1		0.00		-9.20		3.834e-02		-51.058		1.467e-02		26.271
1		0.00		-8.80		4.088e-02		-46.863		1.445e-02		21.526
1		0.00		-8.40		4.328e-02		-45.738		1.697e-02		20.832
1		0.00		-8.00		4.546e-02		-38.438		1.907e-02		17.341
1		0.00		-7.60		4.612e-02		-39.431		1.932e-02		16.552
1		0.00		-7.20		4.588e-02		-38.758		1.879e-02		24.976
1		0.00		-6.80		4.598e-02		-33.225		1.802e-02		32.722
1		0.00		-6.40		4.479e-02		-33.177		1.730e-02		34.258
1		0.00		-6.00		4.275e-02		-33.029		1.588e-02		32.160
1		0.00		-5.60		4.117e-02		-43.413		1.443e-02		27.684
1		0.00		-5.20		3.990e-02		-47.201		1.375e-02		25.572
1		0.00		-4.80		3.698e-02		-47.992		1.189e-02		16.871
1		0.00		-4.40		3.451e-02		-48.575		1.064e-02		14.571
1		0.00		-4.00		3.228e-02		-52.367		9.217e-03		14.217
1		0.00		-3.60		2.882e-02		-52.540		8.338e-03		14.083
1		0.00		-3.20		2.523e-02		-51.181		7.668e-03		15.014
1		0.00		-2.80		2.208e-02		-50.510		6.681e-03		14.338
1		0.00		-2.40		1.793e-02		-50.093		5.791e-03		14.900
1		0.00		-2.00		1.487e-02		-49.066		5.019e-03		14.335
1		0.00		-1.60		1.058e-02		-50.001		3.803e-03		15.361
1		0.00		-1.20		6.935e-03		-55.209		3.071e-03		18.577
1		0.00		-0.80		3.152e-03		-33.692		1.751e-03		63.471
1		0.00		-0.40		4.536e-03		88.834		2.087e-03		63.781
2		0.00		0.00		9.815e-03		113.097		4.263e-03		44.163
2		0.00		0.40		1.564e-02		123.468		6.294e-03		34.884
2		0.00		0.80		2.193e-02		126.938		7.670e-03		28.849
2		0.00		1.20		2.722e-02		131.140		9.577e-03		21.472
2		0.00		1.60		3.170e-02		129.084		1.056e-02		20.499
2		0.00		2.00		3.542e-02		129.585		1.160e-02		18.485
2		0.00		2.40		3.807e-02		127.085		1.169e-02		26.699
2		0.00		2.80		4.091e-02		127.951		1.183e-02		30.018
2		0.00		3.20		4.283e-02		118.653		1.290e-02		37.931
2		0.00		3.60		4.515e-02		119.849		1.438e-02		45.225
2		0.00		4.00		4.656e-02		123.144		1.603e-02		37.716
2		0.00		4.40		4.936e-02		130.613		1.857e-02		42.129
2		0.00		4.80		4.758e-02		126.988		1.877e-02		47.250
2		0.00		5.20		5.067e-02		131.291		2.175e-02		31.940
2		0.00		5.60		5.471e-02		129.502		2.478e-02		25.577
2		0.00		6.00		5.432e-02		126.459		2.354e-02		29.516
2		0.00		6.40		5.719e-02		109.488		2.505e-02		46.740
2		0.00		6.80		5.914e-02		107.866		2.613e-02		51.966
2		0.00		7.20		6.169e-02		107.268		2.544e-02		55.919
2		0.00		7.60		5.909e-02		97.790		2.561e-02		71.484
2		0.00		8.00		6.253e-02		110.728		2.117e-02		62.045
2		0.00		8.40		6.275e-02		100.276		2.450e-02		72.203
2		0.00		8.80		6.168e-02		101.386		2.248e-02		67.679
2		0.00		9.20		6.013e-02		85.811		2.485e-02		88.972
2		0.00		9.60		5.531e-02		83.234		2.226e-02		78.671
2		0.00		10.00		5.426e-02		90.294		2.214e-02		84.908
2		0.00		9.60		6.212e-02		89.940		2.682e-02		91.718
2		0.00		9.20		6.303e-02		113.531		2.603e-02		67.117
2		0.00		8.80		6.255e-02		117.803		2.661e-02		45.893
2		0.00		8.40		5.993e-02		118.645		2.609e-02		48.008
2		0.00		8.00		5.788e-02		108.801		2.578e-02		46.845
2		0.00		7.60		5.688e-02		109.176		2.464e-02		56.668
2		0.00		7.20		5.536e-02		117.974		2.367e-02		44.741
2		0.00		6.80		5.362e-02		127.737		2.188e-02		40.732
2		0.00		6.40		5.175e-02		127.496		2.020e-02		49.113
2		0.00		6.00		5.156e-02		112.035		1.979e-02		59.753
2		0.00		5.60		4.790e-02		122.599		1.749e-02		49.018
2		0.00		5.20		4.459e-02		118.797		1.496e-02		53.591
2		0.00		4.80		4.432e-02		133.829		1.514e-02		42.822
2		0.00		4.40		4.282e-02		135.677		1.514e-02		14.483
2		0.00		4.00		3.747e-02		130.539		1.379e-02		25.470
2		0.00		3.60		3.398e-02		129.506		1.307e-02		25.022
2		0.00		3.20		2.832e-02		126.377		1.136e-02		32.150
2		0.00		2.80		2.336e-02		129.547		9.203e-03		30.560
2		0.00		2.40		1.740e-02		130.186		6.919e-03		33.532
2		0.00		2.00		1.089e-02		129.168		4.810e-03		51.983
2		0.00		1.60		6.022e-03		55.153		2.925e-03		98.236
2		0.00		1.20		4.834e-03		-52.940		2.163e-03		61.894
2		0.00		0.80		1.046e-02		-67.777		3.424e-03		16.797
2		0.00		0.40		1.566e-02		-57.485		4.125e-03		15.574
2		0.00		0.00		2.036e-02		-56.391		5.251e-03		15.090
2		0.00		-0.40		2.468e-02		-52.222		6.924e-03		12.906
2		0.00		-0.80		2.755e-02		-51.237		8.648e-03		12.068
2		0.00		-1.20		2.794e-02		-49.828		1.002e-02		19.060
2		0.00		-1.60		3.099e-02		-53.896		1.158e-02		25.232
2		0.00		-2.00		3.384e-02		-48.869		1.136e-02		31.059
2		0.00		-2.40		3.621e-02		-53.983		1.198e-02		27.198
2		0.00		-2.80		3.894e-02		-51.328		1.247e-02		19.114
2		0.00		-3.20		4.098e-02		-51.886		1.259e-02		13.993
2		0.00		-3.60		4.280e-02		-54.547		1.212e-02		13.972
2		0.00		-4.00		4.347e-02		-53.338		1.132e-02		15.088
2		0.00		-4.40		4.336e-02		-52.758		1.149e-02		15.066
2		0.00		-4.80		4.515e-02		-51.410		1.198e-02		13.237
2		0.00		-5.20		4.652e-02		-48.937		1.371e-02		15.062
2		0.00		-5.60		4.911e-02		-46.494		1.593e-02		13.478
2		0.00		-6.00		4.753e-02		-43.653		1.774e-02		15.133
2		0.00		-6.40		5.042e-02		-43.301		2.073e-02		18.876
2		0.00		-6.80		5.177e-02		-36.299		2.272e-02		30.279
2		0.00		-7.20		5.266e-02		-42.284		2.223e-02		33.505
2		0.00		-7.60		5.273e-02		-39.677		2.099e-02		32.828
2		0.00		-8.00		5.140e-02		-43.248		2.067e-02		24.400
2		0.00		-8.40		5.155e-02		-42.831		1.963e-02		26.119
2		0.00		-8.80		4.990e-02		-38.035		1.774e-02		18.046
2		0.00		-9.20		4.699e-02		-46.685		1.586e-02		24.802
2		0.00		-9.60		4.184e-02		-50.813		1.313e-02		25.260
2		0.00		-10.00		3.684e-02		-46.051		1.214e-02		20.043
2		0.00		-9.60		4.487e-02		-43.454		1.432e-02		18.198
2		0.00		-9.20		4.978e-02		-38.713		1.870e-02		16.133
2		0.00		-8.80		5.096e-02		-40.189		1.902e-02		15.197
2		0.00		-8.40		5.408e-02		-44.591		2.098e-02		18.948
2		0.00		-8.00		5.433e-02		-46.775		2.002e-02		21.887
2		0.00		-7.60		5.479e-02		-37.979		2.030e-02		31.364
2		0.00		-7.20		5.368e-02		-38.627		1.914e-02		22.669
2		0.00		-6.80		4.920e-02		-46.579		1.613e-02		20.546
2		0.00		-6.40		4.827e-02		-48.987		1.366e-02		14.588
2		0.00		-6.00		4.577e-02		-48.303		1.235e-02		13.140
2		0.00		-5.60		4.492e-02		-47.041		1.261e-02		12.932
2		0.00		-5.20		4.264e-02		-47.511		1.310e-02		11.096
2		0.00		-4.80		4.074e-02		-47.422		1.364e-02		10.278
2		0.00		-4.40		3.792e-02		-50.916		1.421e-02		12.899
2		0.00		-4.00		3.589e-02		-52.953		1.312e-02		22.675
2		0.00		-3.60		3.386e-02		-52.053		1.113e-02		22.168
2		0.00		-3.20		3.123e-02		-50.656		9.094e-03		12.970
2		0.00		-2.80		2.747e-02		-53.439		7.101e-03		12.576
2		0.00		-2.40		2.300e-02		-52.218		5.866e-03		12.583
2		0.00		-2.00		1.824e-02		-54.571		4.453e-03		12.516
2		0.00		-1.60		1.350e-02		-51.694		3.340e-03		13.054
2		0.00		-1.20		8.390e-03		-55.541		2.880e-03		15.631
2		0.00		-0.80		3.312e-03		-62.642		1.878e-03		46.978
2		0.00		-0.40		4.348e-03		94.760		1.951e-03		64.161
3		0.00		0.00		1.007e-02		124.058		3.884e-03		31.789
3		0.00		0.40		1.622e-02		127.006		5.594e-03		20.665
3		0.00		0.80		2.177e-02		131.486		6.883e-03		11.404
3		0.00		1.20		2.706e-02		132.583		7.784e-03		10.490
3		0.00		1.60		3.113e-02		132.389		9.379e-03		9.772
3		0.00		2.00		3.618e-02		131.586		1.226e-02		11.138
3		0.00		2.40		3.991e-02		131.571		1.538e-02		14.764
3		0.00		2.80		4.473e-02		123.960		1.786e-02		31.945
3		0.00		3.20		4.651e-02		127.600		1.703e-02		35.216
3		0.00		3.60		5.093e-02		125.080		1.838e-02		38.285
3		0.00		4.00		5.355e-02		123.873		1.852e-02		38.142
3		0.00		4.40		5.435e-02		116.805		1.839e-02		51.970
3		0.00		4.80		5.473e-02		115.482		1.728e-02		56.621
3		0.00		5.20		5.433e-02		110.088		1.732e-02		58.161
3		0.00		5.60		5.775e-02		111.958		2.202e-02		60.850
3		0.00		6.00		5.555e-02		97.872		2.280e-02		80.471
3		0.00		6.40		6.036e-02		111.287		2.410e-02		50.346
3		0.00		6.80		6.111e-02		103.744		2.562e-02		70.614
3		0.00		7.20		6.025e-02		108.327		2.216e-02		61.691
3		0.00		7.60		6.271e-02		106.722		2.487e-02		63.573
3		0.00		8.00		6.135e-02		96.865		2.349e-02		76.734
3		0.00		8.40		5.842e-02		87.225		2.211e-02		84.184
3		0.00		8.80		5.905e-02		79.132		2.174e-02		93.343
3		0.00		9.20		6.134e-02		99.501		2.492e-02		72.645
3		0.00		9.60		5.925e-02		99.613		2.657e-02		77.566
3		0.00		10.00		5.762e-02		97.084		2.723e-02		77.378
3		0.00		9.60		5.467e-02		80.796		2.683e-02		85.615
3		0.00		9.20		5.613e-02		72.441		2.709e-02		91.043
3		0.00		8.80		6.558e-02		110.964		2.516e-02		64.479
3		0.00		8.40		5.754e-02		100.720		2.282e-02		70.859
3		0.00		8.00		5.841e-02		92.692		2.173e-02		64.984
3		0.00		7.60		5.687e-02		101.990		1.948e-02		70.274
3		0.00		7.20		6.033e-02		117.260		2.096e-02		58.586
3		0.00		6.80		6.220e-02		125.867		2.403e-02		39.619
3		0.00		6.40		5.504e-02		121.064		2.172e-02		48.464
3		0.00		6.00		5.575e-02		122.006		2.246e-02		41.970
3		0.00		5.60		5.273e-02		116.897		2.054e-02		56.402
3		0.00		5.20		5.040e-02		125.270		2.011e-02		38.959
3		0.00		4.80		4.769e-02		131.241		1.782e-02		26.902
3		0.00		4.40		4.262e-02		125.522		1.600e-02		35.227
3		0.00		4.00		3.809e-02		132.918		1.353e-02		26.991
3		0.00		3.60		3.529e-02		137.133		1.272e-02		11.066
3		0.00		3.20		3.034e-02		137.199		1.188e-02		12.854
3		0.00		2.80		2.513e-02		130.560		1.071e-02		28.719
3		0.00		2.40		1.977e-02		124.891		8.780e-03		41.667
3		0.00		2.00		1.411e-02		122.669		6.252e-03		47.558
3		0.00		1.60		8.156e-03		109.316		3.726e-03		79.531
3		0.00		1.20		4.748e-03		-8.440		1.888e-03		100.658
3		0.00		0.80		8.161e-03		-64.899		3.750e-03		20.675
3		0.00		0.40		1.474e-02		-58.835		4.291e-03		15.990
3		0.00		0.00		2.051e-02		-53.532		4.979e-03		14.522
3		0.00		-0.40		2.557e-02		-51.867		6.500e-03		12.357
3		0.00		-0.80		2.763e-02		-50.659		7.271e-03		13.022
3		0.00		-1.20		3.126e-02		-48.865		9.498e-03		14.195
3		0.00		-1.60		3.384e-02		-49.521		1.195e-02		15.491
3		0.00		-2.00		3.671e-02		-49.823		1.329e-02		28.386
3		0.00		-2.40		3.826e-02		-50.909		1.366e-02		27.808
3		0.00		-2.80		4.006e-02		-51.274		1.375e-02		17.125
3		0.00		-3.20		4.078e-02		-53.291		1.277e-02		12.857
3		0.00		-3.60		4.166e-02		-55.811		1.171e-02		11.786
3		0.00		-4.00		4.198e-02		-52.847		1.184e-02		11.700
3		0.00		-4.40		4.273e-02		-50.394		1.325e-02		12.722
3		0.00		-4.80		4.407e-02		-44.596		1.575e-02		12.662
3		0.00		-5.20		4.779e-02		-44.608		1.828e-02		15.350
3		0.00		-5.60		4.879e-02		-47.735		1.846e-02		26.812
3		0.00		-6.00		4.991e-02		-36.354		1.864e-02		40.819
3		0.00		-6.40		5.213e-02		-42.099		1.811e-02		30.853
3		0.00		-6.80		4.974e-02		-42.276		1.567e-02		19.616
3		0.00		-7.20		5.231e-02		-46.203		1.587e-02		17.319
3		0.00		-7.60		5.131e-02		-43.044		1.536e-02		21.964
3		0.00		-8.00		4.937e-02		-47.549		1.516e-02		23.116
3		0.00		-8.40		5.405e-02		-44.085		1.781e-02		20.532
3		0.00		-8.80		5.276e-02		-39.875		2.032e-02		16.001
3		0.00		-9.20		4.841e-02		-40.166		1.999e-02		17.007
3		0.00		-9.60		4.600e-02		-33.460		2.027e-02		40.619
3		0.00		-10.00		3.983e-02		-27.718		1.720e-02		44.945
3		0.00		-9.60		4.442e-02		-31.972		1.844e-02		40.320
3		0.00		-9.20		4.880e-02		-41.384		1.969e-02		32.123
3		0.00		-8.80		4.984e-02		-38.247		1.907e-02		18.469
3		0.00		-8.40		5.036e-02		-34.828		1.871e-02		18.128
3		0.00		-8.00		4.879e-02		-42.051		1.575e-02		21.411
3		0.00		-7.60		4.966e-02		-41.547		1.685e-02		25.600
3		0.00		-7.20		4.783e-02		-45.084		1.358e-02		21.817
3		0.00		-6.80		4.991e-02		-40.474		1.632e-02		16.341
3		0.00		-6.40		4.994e-02		-40.105		1.725e-02		12.590
3		0.00		-6.00		4.726e-02		-40.523		1.702e-02		12.371
3		0.00		-5.60		4.801e-02		-42.587		1.772e-02		17.358
3		0.00		-5.20		4.628e-02		-44.849		1.748e-02		22.617
3		0.00		-4.80		4.291e-02		-41.354		1.516e-02		23.488
3		0.00		-4.40		4.119e-02		-52.995		1.331e-02		23.000
3		0.00		-4.00		3.628e-02		-51.534		1.140e-02		18.358
3		0.00		-3.60		3.362e-02		-51.415		1.073e-02		14.221
3		0.00		-3.20		3.026e-02		-53.385		8.988e-03		12.372
3		0.00		-2.80		2.534e-02		-54.417		7.042e-03		12.461
3		0.00		-2.40		2.078e-02		-53.133		5.452e-03		12.652
3		0.00		-2.00		1.698e-02		-53.636		4.750e-03		11.442
3		0.00		-1.60		1.178e-02		-55.037		3.604e-03		13.749
3		0.00		-1.20		6.263e-03		-67.710		2.134e-03		20.833
3		0.00		-0.80		2.645e-03		-23.183		1.194e-03		77.077
3		0.00		-0.40		5.916e-03		117.762		2.694e-03		47.878
4		0.00		0.00		1.173e-02		128.453		4.594e-03		33.070
4		0.00		0.40		1.811e-02		130.472		6.798e-03		18.180
4		0.00		0.80		2.438e-02		129.469		8.832e-03		17.109
4		0.00		1.20		2.990e-02		126.632		1.068e-02		21.779
4		0.00		1.60		3.595e-02		126.364		1.271e-02		22.887
4		0.00		2.00		4.035e-02		127.369		1.402e-02		24.865
4		0.00		2.40		4.481e-02		126.755		1.582e-02		31.907
4		0.00		2.80		4.685e-02		130.190		1.596e-02		32.495
4		0.00		3.20		5.061e-02		130.157		1.757e-02		32.431
4		0.00		3.60		5.333e-02		127.364		1.946e-02		33.535
4		0.00		4.00		5.386e-02		116.447		2.229e-02		44.175
4		0.00		4.40		5.432e-02		119.246		2.080e-02		37.291
4		0.00		4.80		5.696e-02		121.027		2.115e-02		45.485
4		0.00		5.20		5.457e-02		106.707		2.056e-02		64.704
4		0.00		5.60		5.404e-02		113.795		1.805e-02		55.121
4		0.00		6.00		5.632e-02		101.981		2.060e-02		71.543
4		0.00		6.40		5.449e-02		107.232		2.098e-02		65.893
4		0.00		6.80		5.871e-02		100.814		2.242e-02		83.283
4		0.00		7.20		5.800e-02		109.078		2.245e-02		58.078
4		0.00		7.60		5.995e-02		93.470		2.447e-02		78.395
4		0.00		8.00		6.125e-02		100.293		2.524e-02		72.611
4		0.00		8.40		6.368e-02		81.569		2.712e-02		90.581
4		0.00		8.80		6.235e-02		78.707		2.517e-02		92.026
4		0.00		9.20		6.756e-02		95.583		2.868e-02		61.206
4		0.00		9.60		6.379e-02		98.397		2.564e-02		81.821
4		0.00		10.00		6.342e-02		99.038		2.639e-02		72.745
4		0.00		9.60		6.297e-02		91.983		2.362e-02		73.532
4		0.00		9.20		6.285e-02		77.202		2.323e-02		96.656
4		0.00		8.80		6.341e-02		100.229		2.444e-02		63.024
4		0.00		8.40		6.203e-02		93.605		2.393e-02		85.483
4		0.00		8.00		5.711e-02		90.501		2.032e-02		81.204
4		0.00		7.60		5.806e-02		79.175		2.227e-02		96.410
4		0.00		7.20		5.953e-02		105.313		2.245e-02		80.008
4		0.00		6.80		5.613e-02		94.672		2.323e-02		88.191
4		0.00		6.40		5.375e-02		100.873		2.351e-02		78.110
4		0.00		6.00		5.596e-02		135.509		2.317e-02		28.255
4		0.00		5.60		5.442e-02		126.883		2.316e-02		37.633
4		0.00		5.20		5.219e-02		125.529		2.094e-02		38.475
4		0.00		4.80		5.000e-02		127.614		1.814e-02		32.368
4		0.00		4.40		4.726e-02		133.145		1.671e-02		22.449
4		0.00		4.00		4.341e-02		136.408		1.494e-02		20.092
4		0.00		3.60		3.945e-02		135.514		1.358e-02		19.528
4		0.00		3.20		3.443e-02		135.109		1.153e-02		13.219
4		0.00		2.80		2.843e-02		135.725		9.260e-03		11.309
4		0.00		2.40		2.199e-02		136.963		7.088e-03		10.779
4		0.00		2.00		1.420e-02		131.382		5.377e-03		43.421
4		0.00		1.60		6.926e-03		99.854		3.168e-03		76.842
4		0.00		1.20		4.444e-03		-52.382		1.677e-03		66.577
4		0.00		0.80		8.834e-03		-63.834		3.370e-03		19.369
4		0.00		0.40		1.453e-02		-52.918		4.834e-03		14.716
4		0.00		0.00		2.061e-02		-52.338		7.361e-03		11.513
4		0.00		-0.40		2.484e-02		-50.367		9.568e-03		26.187
4		0.00		-0.80		2.868e-02		-52.091		1.082e-02		28.373
4		0.00		-1.20		3.238e-02		-52.947		1.178e-02		28.354
4		0.00		-1.60		3.458e-02		-51.739		1.209e-02		23.021
4		0.00		-2.00		3.745e-02		-50.976		1.186e-02		14.935
4		0.00		-2.40		3.909e-02		-52.090		1.204e-02		12.330
4		0.00		-2.80		3.963e-02		-52.636		1.139e-02		12.622
4		0.00		-3.20		4.055e-02		-51.889		1.070e-02		12.392
4		0.00		-3.60		4.160e-02		-53.781		1.210e-02		10.831
4		0.00		-4.00		4.282e-02		-48.327		1.261e-02		11.739
4		0.00		-4.40		4.356e-02		-48.303		1.417e-02		13.099
4		0.00		-4.80		4.520e-02		-43.826		1.630e-02		15.333
4		0.00		-5.20		4.662e-02		-46.674		1.766e-02		16.166
4		0.00		-5.60		4.873e-02		-43.214		1.879e-02		33.206
4		0.00		-6.00		4.916e-02		-40.055		1.982e-02		38.332
4		0.00		-6.40		4.903e-02		-39.098		2.009e-02		42.598
4		0.00		-6.80		5.165e-02		-48.354		2.071e-02		30.776
4		0.00		-7.20		5.082e-02		-40.452		2.063e-02		21.933
4		0.00		-7.60		5.211e-02		-39.931		1.942e-02		18.772
4		0.00		-8.00		4.955e-02		-34.234		1.884e-02		22.096
4		0.00		-8.40		5.012e-02		-49.937		1.782e-02		24.888
4		0.00		-8.80		4.703e-02		-43.804		1.815e-02		25.976
4		0.00		-9.20		4.448e-02		-44.012		1.645e-02		24.901
4		0.00		-9.60		4.448e-02		-52.515		1.673e-02		20.204
4		0.00		-10.00		3.974e-02		-41.815		1.475e-02		18.113
4		0.00		-9.60		4.587e-02		-42.249		1.849e-02		16.130
4		0.00		-9.20		5.002e-02		-37.487		2.053e-02		17.786
4		0.00		-8.80		5.570e-02		-42.083		2.230e-02		25.642
4		0.00		-8.40		5.614e-02		-37.599		2.313e-02		29.069
4		0.00		-8.00		5.594e-02		-44.760		2.187e-02		29.499
4		0.00		-7.60		5.552e-02		-43.385		2.088e-02		31.410
4		0.00		-7.20		5.564e-02		-41.637		2.076e-02		23.082
4		0.00		-6.80		5.118e-02		-38.831		1.899e-02		21.508
4		0.00		-6.40		4.873e-02		-43.698		1.626e-02		15.737
4		0.00		-6.00		4.781e-02		-45.194		1.495e-02		16.643
4		0.00		-5.60		4.315e-02		-47.140		1.302e-02		18.233
4		0.00		-5.20		4.115e-02		-46.260		1.348e-02		13.954
4		0.00		-4.80		3.923e-02		-46.761		1.367e-02		11.392
4		0.00		-4.40		3.549e-02		-47.344		1.314e-02		11.313
4		0.00		-4.00		3.279e-02		-49.321		1.253e-02		11.050
4		0.00		-3.60		3.035e-02		-48.425		1.150e-02		15.308
4		0.00		-3.20		2.683e-02		-49.701		9.754e-03		17.578
4		0.00		-2.80		2.322e-02		-50.481		7.983e-03		20.919
4		0.00		-2.40		1.888e-02		-55.070		6.373e-03		24.594
4		0.00		-2.00		1.454e-02		-51.908		5.010e-03		20.897
4		0.00		-1.60		9.376e-03		-57.118		3.802e-03		21.996
4		0.00		-1.20		4.373e-03		-73.828		2.307e-03		31.362
4		0.00		-0.80		3.837e-03		65.614		1.761e-03		86.665
4		0.00		-0.40		8.359e-03		126.150		3.149e-03		43.320
5		0.00		0.00		1.435e-02		133.627		5.068e-03		11.657
5		0.00		0.40		2.027e-02		132.502		7.252e-03		13.958
5		0.00		0.80		2.625e-02		130.299		9.547e-03		14.917
5		0.00		1.20		3.172e-02		125.705		1.235e-02		22.581
5		0.00		1.60		3.734e-02		126.113		1.388e-02		28.404
5		0.00		2.00		4.147e-02		131.686		1.479e-02		24.010
5		0.00		2.40		4.578e-02		130.145		1.723e-02		26.414
5		0.00		2.80		4.822e-02		129.474		1.647e-02		30.478
5		0.00		3.20		4.875e-02		119.393		1.676e-02		43.132
5		0.00		3.60		5.293e-02		122.036		1.798e-02		42.554
5		0.00		4.00		5.385e-02		117.937		1.815e-02		47.651
5		0.00		4.40		5.595e-02		128.170		1.995e-02		38.174
5		0.00		4.80		6.009e-02		118.987		2.312e-02		42.155
5		0.00		5.20		6.070e-02		102.731		2.356e-02		61.760
5		0.00		5.60		6.225e-02		101.579		2.431e-02		68.806
5		0.00		6.00		6.038e-02		88.694		2.352e-02		81.233
5		0.00		6.40		5.947e-02		88.648		2.113e-02		64.472
5		0.00		6.80		5.844e-02		94.962		1.819e-02		76.346
5		0.00		7.20		6.168e-02		91.552		2.361e-02		81.360
5		0.00		7.60		5.790e-02		70.007		2.568e-02		100.048
5		0.00		8.00		5.990e-02		89.048		2.726e-02		82.115
5		0.00		8.40		6.041e-02		87.549		2.649e-02		79.031
5		0.00		8.80		5.646e-02		61.156		2.488e-02		100.128
5		0.00		9.20		6.332e-02		81.532		2.610e-02		93.265
5		0.00		9.60		5.598e-02		75.161		2.313e-02		87.972
5		0.00		10.00		5.651e-02		82.378		2.388e-02		83.648
5		0.00		9.60		6.230e-02		95.224		2.675e-02		88.542
5		0.00		9.20		5.772e-02		80.087		2.631e-02		80.555
5		0.00		8.80		5.777e-02		80.067		2.491e-02		84.019
5		0.00		8.40		5.885e-02		96.336		2.451e-02		66.081
5		0.00		8.00		6.566e-02		111.494		2.571e-02		60.014
5		0.00		7.60		6.345e-02		109.869		2.370e-02		61.176
5		0.00		7.20		5.888e-02		87.954		2.244e-02		85.640
5		0.00		6.80		6.092e-02		120.745		2.129e-02		47.879
5		0.00		6.40		5.766e-02		103.586		2.158e-02		73.390
5		0.00		6.00		5.589e-02		119.561		2.181e-02		65.643
5		0.00		5.60		5.451e-02		118.184		2.175e-02		53.026
5		0.00		5.20		5.215e-02		126.033		2.123e-02		42.781
5		0.00		4.80		4.806e-02		130.877		1.858e-02		35.426
5		0.00		4.40		4.614e-02		132.983		1.719e-02		19.260
5		0.00		4.00		4.081e-02		134.430		1.368e-02		17.623
5		0.00		3.60		3.710e-02		135.887		1.292e-02		11.306
5		0.00		3.20		3.179e-02		135.573		1.212e-02		11.913
5		0.00		2.80		2.625e-02		131.554		1.062e-02		22.157
5		0.00		2.40		2.024e-02		129.389		8.800e-03		30.654
5		0.00		2.00		1.491e-02		130.766		6.682e-03		40.688
5		0.00		1.60		8.381e-03		118.081		4.095e-03		60.823
5		0.00		1.20		4.628e-03		-1.599		1.914e-03		94.747
5		0.00		0.80		7.628e-03		-68.558		3.154e-03		23.992
5		0.00		0.40		1.400e-02		-57.461		3.746e-03		14.775
5		0.00		0.00		1.960e-02		-55.342		5.105e-03		12.832
5		0.00		-0.40		2.389e-02		-51.565		7.529e-03		12.023
5		0.00		-0.80		2.751e-02		-47.370		9.565e-03		22.667
5		0.00		-1.20		3.072e-02		-51.264		1.023e-02		28.637
5		0.00		-1.60		3.269e-02		-53.133		1.086e-02		20.843
5		0.00		-2.00		3.444e-02		-52.832		1.042e-02		12.466
5		0.00		-2.40		3.559e-02		-54.900		9.975e-03		10.652
5		0.00		-2.80		3.825e-02		-50.940		1.192e-02		9.295
5		0.00		-3.20		3.929e-02		-48.681		1.414e-02		10.566
5		0.00		-3.60		4.095e-02		-49.435		1.668e-02		19.393
5		0.00		-4.00		4.277e-02		-43.620		1.671e-02		36.393
5		0.00		-4.40		4.416e-02		-50.371		1.604e-02		20.878
5		0.00		-4.80		4.462e-02		-49.688		1.437e-02		16.402
5		0.00		-5.20		4.644e-02		-49.844		1.296e-02		14.717
5		0.00		-5.60		4.702e-02		-51.826		1.583e-02		14.705
5		0.00		-6.00		4.927e-02		-46.428		1.676e-02		12.680
5		0.00		-6.40		5.260e-02		-44.858		1.993e-02		14.173
5		0.00		-6.80		5.344e-02		-38.950		2.158e-02		28.383
5		0.00		-7.20		5.492e-02		-40.315		2.090e-02		33.916
5		0.00		-7.60		5.416e-02		-43.813		1.834e-02		24.563
5		0.00		-8.00		5.322e-02		-42.834		1.601e-02		17.557
5		0.00		-8.40		4.859e-02		-39.387		1.475e-02		23.584
5		0.00		-8.80		4.912e-02		-42.105		1.668e-02		21.613
5		0.00		-9.20		4.879e-02		-36.281		2.004e-02		15.392
5		0.00		-9.60		4.574e-02		-34.629		2.052e-02		27.168
5		0.00		-10.00		3.971e-02		-29.506		1.689e-02		37.963
5		0.00		-9.60		4.506e-02		-40.807		1.747e-02		30.873
5		0.00		-9.20		4.728e-02		-40.316		1.698e-02		18.821
5		0.00		-8.80		4.788e-02		-44.695		1.756e-02		24.282
5		0.00		-8.40		4.691e-02		-45.846		1.756e-02		22.864
5		0.00		-8.00		5.408e-02		-37.623		2.007e-02		14.295
5		0.00		-7.60		5.352e-02		-42.659		2.123e-02		16.031
5		0.00		-7.20		5.213e-02		-36.167		2.035e-02		36.511
5		0.00		-6.80		5.169e-02		-36.431		1.847e-02		33.327
5		0.00		-6.40		4.976e-02		-45.217		1.566e-02		18.519
5		0.00		-6.00		4.677e-02		-45.243		1.329e-02		14.233
5		0.00		-5.60		4.353e-02		-45.334		1.277e-02		12.329
5		0.00		-5.20		4.417e-02		-44.351		1.394e-02		10.493
5		0.00		-4.80		4.062e-02		-48.067		1.439e-02		12.749
5		0.00		-4.40		3.728e-02		-49.694		1.312e-02		24.263
5		0.00		-4.00		3.404e-02		-52.311		1.184e-02		19.769
5		0.00		-3.60		3.073e-02		-52.491		9.692e-03		12.920
5		0.00		-3.20		2.629e-02		-53.785		7.602e-03		12.767
5		0.00		-2.80		2.266e-02		-53.424		6.806e-03		11.261
5		0.00		-2.40		1.782e-02		-49.969		5.758e-03		11.649
5		0.00		-2.00		1.295e-02		-51.558		4.698e-03		17.361
5		0.00		-1.60		8.270e-03		-50.718		3.747e-03		30.362
5		0.00		-1.20		3.595e-03		-43.897		2.102e-03		66.203
5		0.00		-0.80		4.557e-03		77.902		2.153e-03		80.217
5		0.00		-0.40		9.748e-03		127.154		3.864e-03		27.906
6		0.00		0.00		1.569e-02		131.355		5.168e-03		18.533
6		0.00		0.40		2.120e-02		133.200		7.016e-03		12.915
6		0.00		0.80		2.680e-02		131.048		9.259e-03		16.242
6		0.00		1.20		3.316e-02		127.100		1.138e-02		23.475
6		0.00		1.60		3.889e-02		130.229		1.259e-02		21.237
6		0.00		2.00		4.344e-02		131.543		1.343e-02		12.614
6		0.00		2.40		4.514e-02		133.445		1.299e-02		18.302
6		0.00		2.80		4.800e-02		136.852		1.486e-02		22.750
6		0.00		3.20		5.105e-02		137.109		1.704e-02		13.865
6		0.00		3.60		5.274e-02		128.263		2.113e-02		31.868
6		0.00		4.00		5.441e-02		124.347		2.209e-02		42.128
6		0.00		4.40		5.635e-02		120.952		2.319e-02		45.867
6		0.00		4.80		5.834e-02		120.371		1.992e-02		46.733
6		0.00		5.20		5.565e-02		108.914		1.921e-02		53.272
6		0.00		5.60		5.938e-02		115.170		2.212e-02		68.168
6		0.00		6.00		6.261e-02		127.737		2.524e-02		33.958
6		0.00		6.40		5.834e-02		102.307		2.443e-02		57.294
6		0.00		6.80		5.845e-02		108.689		2.159e-02		67.586
6		0.00		7.20		6.391e-02		110.076		2.286e-02		67.441
6		0.00		7.60		6.221e-02		98.150		1.872e-02		66.486
6		0.00		8.00		6.180e-02		91.600		2.075e-02		79.567
6		0.00		8.40		6.307e-02		101.880		2.429e-02		74.191
6		0.00		8.80		6.305e-02		91.246		2.578e-02		76.272
6		0.00		9.20		6.682e-02		100.402		2.636e-02		64.560
6		0.00		9.60		6.223e-02		90.929		2.477e-02		79.883
6		0.00		10.00		6.023e-02		91.928		2.384e-02		81.829
6		0.00		9.60		5.535e-02		59.824		2.247e-02		106.942
6		0.00		9.20		5.943e-02		85.643		2.510e-02		94.757
6		0.00		8.80		6.140e-02		103.158		2.842e-02		70.577
6		0.00		8.40		5.975e-02		92.058		2.715e-02		73.014
6		0.00		8.00		5.748e-02		84.532		2.506e-02		87.128
6		0.00		7.60		5.835e-02		102.976		2.243e-02		67.860
6		0.00		7.20		5.586e-02		98.251		2.027e-02		75.923
6		0.00		6.80		5.671e-02		112.517		1.861e-02		68.969
6		0.00		6.40		5.730e-02		102.394		2.260e-02		75.315
6		0.00		6.00		5.696e-02		122.074		2.229e-02		41.323
6		0.00		5.60		5.452e-02		119.618		2.105e-02		43.973
6		0.00		5.20		5.114e-02		128.749		1.774e-02		40.702
6		0.00		4.80		4.902e-02		131.223		1.614e-02		33.749
6		0.00		4.40		4.298e-02		129.800		1.238e-02		29.399
6		0.00		4.00		4.119e-02		138.583		1.299e-02		10.583
6		0.00		3.60		3.618e-02		136.021		1.264e-02		15.948
6		0.00		3.20		3.015e-02		130.761		1.151e-02		22.228
6		0.00		2.80		2.471e-02		130.843		9.695e-03		27.906
6		0.00		2.40		1.870e-02		135.168		7.406e-03		26.165
6		0.00		2.00		1.207e-02		137.808		4.850e-03		31.662
6		0.00		1.60		5.530e-03		62.098		2.530e-03		100.353
6		0.00		1.20		4.719e-03		-73.184		1.792e-03		52.213
6		0.00		0.80		1.074e-02		-63.862		3.423e-03		15.371
6		0.00		0.40		1.674e-02		-55.243		6.031e-03		14.420
6		0.00		0.00		2.246e-02		-51.645		8.041e-03		24.741
6		0.00		-0.40		2.801e-02		-57.693		8.812e-03		23.456
6		0.00		-0.80		3.048e-02		-54.643		8.950e-03		14.129
6		0.00		-1.20		3.342e-02		-54.000		8.519e-03		11.559
6		0.00		-1.60		3.588e-02		-53.498		8.672e-03		10.350
6		0.00		-2.00		3.741e-02		-51.683		9.808e-03		10.973
6		0.00		-2.40		3.993e-02		-51.675		1.239e-02		11.302
6		0.00		-2.80		4.227e-02		-50.086		1.507e-02		20.787
6		0.00		-3.20		4.472e-02		-47.563		1.489e-02		21.715
6		0.00		-3.60		4.508e-02		-52.835		1.499e-02		19.576
6		0.00		-4.00		4.668e-02		-51.534		1.419e-02		11.958
6		0.00		-4.40		4.742e-02		-52.079		1.305e-02		13.599
6		0.00		-4.80		4.767e-02		-48.962		1.339e-02		12.636
6		0.00		-5.20		4.801e-02		-46.138		1.675e-02		13.454
6		0.00		-5.60		4.900e-02		-45.662		1.946e-02		17.252
6		0.00		-6.00		5.057e-02		-34.936		2.264e-02		30.687
6		0.00		-6.40		5.105e-02		-35.986		2.046e-02		35.708
6		0.00		-6.80		5.209e-02		-42.783		1.855e-02		19.293
6		0.00		-7.20		5.251e-02		-42.503		1.603e-02		17.775
6		0.00		-7.60		5.319e-02		-46.696		1.443e-02		20.512
6		0.00		-8.00		5.012e-02		-44.858		1.716e-02		25.610
6		0.00		-8.40		5.643e-02		-36.261		2.013e-02		18.498
6		0.00		-8.80		5.538e-02		-38.831		2.132e-02		15.458
6		0.00		-9.20		5.320e-02		-33.510		2.124e-02		31.139
6		0.00		-9.60		4.885e-02		-36.806		1.835e-02		30.164
6		0.00		-10.00		4.319e-02		-37.600		1.495e-02		22.085
6		0.00		-9.60		4.640e-02		-43.059		1.494e-02		16.709
6		0.00		-9.20		4.887e-02		-41.715		1.731e-02		24.179
6		0.00		-8.80		5.316e-02		-44.896		1.685e-02		19.739
6		0.00		-8.40		5.697e-02		-39.630		2.000e-02		17.435
6		0.00		-8.00		5.639e-02		-40.904		2.222e-02		12.605
6		0.00		-7.60		5.561e-02		-46.695		2.422e-02		21.813
6		0.00		-7.20		5.319e-02		-42.005		2.262e-02		27.947
6		0.00		-6.80		5.151e-02		-37.872		2.027e-02		23.802
6		0.00		-6.40		4.998e-02		-44.097		1.829e-02		21.062
6		0.00		-6.00		4.951e-02		-49.577		1.547e-02		15.682
6		0.00		-5.60		4.725e-02		-48.670		1.254e-02		13.772
6		0.00		-5.20		4.527e-02		-47.773		1.262e-02		10.157
6		0.00		-4.80		4.214e-02		-47.398		1.274e-02		10.577
6		0.00		-4.40		3.987e-02		-48.942		1.296e-02		10.973
6		0.00		-4.00		3.610e-02		-52.898		1.243e-02		16.534
6		0.00		-3.60		3.287e-02		-53.721		1.075e-02		21.846
6		0.00		-3.20		2.923e-02		-52.363		9.024e-03		19.350
6		0.00		-2.80		2.455e-02		-52.452		7.171e-03		13.954
6		0.00		-2.40		2.004e-02		-52.908		4.976e-03		10.471
6		0.00		-2.00		1.477e-02		-54.681		4.084e-03		13.412
6		0.00		-1.60		9.245e-03		-58.123		2.835e-03		16.012
6		0.00		-1.20		3.874e-03		-65.881		1.936e-03		35.429
6		0.00		-0.80		4.149e-03		90.444		1.985e-03		72.119
6		0.00		-0.40		9.699e-03		119.367		4.301e-03		46.674
7		0.00		0.00		1.584e-02		123.041		6.222e-03		29.230
7		0.00		0.40		2.180e-02		128.954		8.003e-03		23.569
7		0.00		0.80		2.768e-02		131.460		9.585e-03		13.930
7		0.00		1.20		3.226e-02		130.844		9.826e-03		9.899
7		0.00		1.60		3.672e-02		130.271		1.050e-02		11.557
7		0.00		2.00		4.161e-02		133.640		1.210e-02		9.625
7		0.00		2.40		4.662e-02		133.930		1.434e-02		12.292
7		0.00		2.80		5.026e-02		129.140		1.709e-02		43.456
7		0.00		3.20		5.350e-02		129.019		1.942e-02		30.743
7		0.00		3.60		5.457e-02		128.527		1.987e-02		29.897
7		0.00		4.00		5.516e-02		125.031		2.017e-02		49.559
7		0.00		4.40		5.818e-02		122.400		2.098e-02		47.299
7		0.00		4.80		6.044e-02		112.329		2.308e-02		61.048
7		0.00		5.20		6.243e-02		115.199		2.145e-02		58.042
7		0.00		5.60		5.407e-02		93.819		1.791e-02		74.531
7		0.00		6.00		5.734e-02		93.901		1.951e-02		72.805
7		0.00		6.40		5.573e-02		97.452		2.189e-02		69.158
7		0.00		6.80		5.892e-02		95.499		2.395e-02		77.948
7		0.00		7.20		6.046e-02		95.208		2.668e-02		75.123
7		0.00		7.60		6.154e-02		99.362		2.841e-02		65.561
7		0.00		8.00		6.331e-02		102.474		2.717e-02		66.685
7		0.00		8.40		6.023e-02		83.514		2.640e-02		79.977
7		0.00		8.80		5.772e-02		65.631		2.579e-02		94.934
7		0.00		9.20		6.677e-02		92.316		2.605e-02		83.912
7		0.00		9.60		6.314e-02		80.303		2.437e-02		79.273
7		0.00		10.00		6.270e-02		79.997		2.357e-02		80.400
7		0.00		9.60		6.692e-02		97.226		2.291e-02		71.474
7		0.00		9.20		6.851e-02		106.309		2.415e-02		59.094
7		0.00		8.80		6.375e-02		106.416		2.231e-02		77.773
7		0.00		8.40		6.141e-02		84.640		2.492e-02		89.144
7		0.00		8.00		6.307e-02		102.179		2.414e-02		70.738
7		0.00		7.60		5.855e-02		98.585		2.308e-02		77.563
7		0.00		7.20		5.682e-02		97.765		2.298e-02		79.596
7		0.00		6.80		5.450e-02		106.128		2.406e-02		57.848
7		0.00		6.40		5.402e-02		112.447		2.377e-02		50.628
7		0.00		6.00		5.418e-02		116.222		2.347e-02		54.365
7		0.00		5.60		5.313e-02		115.221		2.316e-02		57.484
7		0.00		5.20		5.171e-02		125.791		2.007e-02		39.989
7		0.00		4.80		4.984e-02		138.228		1.787e-02		17.082
7		0.00		4.40		4.494e-02		133.343		1.693e-02		21.790
7		0.00		4.00		4.055e-02		135.185		1.317e-02		14.309
7		0.00		3.60		3.564e-02		135.087		1.087e-02		12.535
7		0.00		3.20		3.137e-02		135.823		9.100e-03		9.580
7		0.00		2.80		2.475e-02		137.355		7.315e-03		9.812
7		0.00		2.40		1.825e-02		139.862		5.901e-03		10.041
7		0.00		2.00		1.077e-02		129.565		4.033e-03		52.228
7		0.00		1.60		3.978e-03		-0.139		1.645e-03		105.112
7		0.00		1.20		6.741e-03		-64.278		2.628e-03		25.010
7		0.00		0.80		1.433e-02		-56.710		4.330e-03		14.923
7		0.00		0.40		1.931e-02		-53.547		6.205e-03		15.564
7		0.00		0.00		2.401e-02		-53.411		7.929e-03		14.257
7		0.00		-0.40		2.772e-02		-53.855		9.872e-03		17.798
7		0.00		-0.80		3.173e-02		-50.469		1.173e-02		19.122
7		0.00		-1.20		3.612e-02		-50.223		1.322e-02		18.305
7		0.00		-1.60		3.789e-02		-50.253		1.344e-02		23.601
7		0.00		-2.00		3.841e-02		-50.712		1.350e-02		20.802
7		0.00		-2.40		3.966e-02		-55.300		1.371e-02		20.265
7		0.00		-2.80		4.049e-02		-52.698		1.339e-02		17.439
7		0.00		-3.20		4.175e-02		-51.857		1.359e-02		10.925
7		0.00		-3.60		4.403e-02		-51.864		1.311e-02		11.634
7		0.00		-4.00		4.676e-02		-53.453		1.321e-02		12.192
7		0.00		-4.40		4.944e-02		-52.853		1.336e-02		11.939
7		0.00		-4.80		5.005e-02		-50.450		1.249e-02		11.749
7		0.00		-5.20		4.948e-02		-49.408		1.261e-02		13.458
7		0.00		-5.60		4.962e-02		-49.442		1.422e-02		17.156
7		0.00		-6.00		5.022e-02		-47.279		1.539e-02		18.738
7		0.00		-6.40		5.383e-02		-48.460		1.816e-02		18.075
7		0.00		-6.80		5.543e-02		-44.049		1.814e-02		15.418
7		0.00		-7.20		5.655e-02		-45.243		1.868e-02		14.974
7		0.00		-7.60		5.762e-02		-35.795		2.032e-02		14.937
7		0.00		-8.00		5.514e-02		-39.371		2.085e-02		17.121
7		0.00		-8.40		5.679e-02		-40.624		2.317e-02		14.726
7		0.00		-8.80		5.333e-02		-34.640		2.371e-02		19.636
7		0.00		-9.20		5.064e-02		-38.044		2.289e-02		18.712
7		0.00		-9.60		4.674e-02		-37.599		2.135e-02		26.803
7		0.00		-10.00		4.031e-02		-39.131		1.788e-02		29.874
7		0.00		-9.60		4.715e-02		-36.705		2.177e-02		37.496
7		0.00		-9.20		5.184e-02		-41.373		2.288e-02		38.233
7		0.00		-8.80		5.394e-02		-35.370		2.296e-02		35.085
7		0.00		-8.40		5.663e-02		-36.380		2.345e-02		32.688
7		0.00		-8.00		5.539e-02		-38.160		2.368e-02		30.278
7		0.00		-7.60		5.548e-02		-39.417		2.334e-02		25.962
7		0.00		-7.20		5.485e-02		-37.674		2.155e-02		34.783
7		0.00		-6.80		5.416e-02		-39.980		2.037e-02		28.514
7		0.00		-6.40		5.267e-02		-33.464		1.900e-02		27.187
7		0.00		-6.00		4.996e-02		-36.638		1.743e-02		22.054
7		0.00		-5.60		4.884e-02		-46.465		1.672e-02		24.513
7		0.00		-5.20		4.625e-02		-48.744		1.533e-02		19.110
7		0.00		-4.80		4.290e-02		-48.443		1.403e-02		14.076
7		0.00		-4.40		4.032e-02		-51.080		1.330e-02		13.961
7		0.00		-4.00		3.727e-02		-51.817		1.154e-02		10.927
7		0.00		-3.60		3.201e-02		-51.503		9.687e-03		10.223
7		0.00		-3.20		2.792e-02		-51.733		8.296e-03		11.348
7		0.00		-2.80		2.405e-02		-52.365		6.854e-03		12.612
7		0.00		-2.40		1.846e-02		-53.419		5.343e-03		13.178
7		0.00		-2.00		1.318e-02		-54.584		3.871e-03		13.058
7		0.00		-1.60		8.084e-03		-59.837		2.871e-03		16.622
7		0.00		-1.20		3.045e-03		-37.863		1.736e-03		77.267
7		0.00		-0.80		5.390e-03		94.685		2.481e-03		73.821
7		0.00		-0.40		1.169e-02		134.800		4.244e-03		15.213
8		0.00		0.00		1.822e-02		133.445		5.512e-03		11.305
8		0.00		0.40		2.395e-02		133.385		7.049e-03		10.200
8		0.00		0.80		2.979e-02		131.792		8.741e-03		10.333
8		0.00		1.20		3.542e-02		132.527		1.069e-02		11.431
8		0.00		1.60		4.099e-02		132.100		1.222e-02		12.594
8		0.00		2.00		4.568e-02		132.653		1.450e-02		13.028
8		0.00		2.40		4.889e-02		134.570		1.635e-02		14.817
8		0.00		2.80		5.002e-02		132.071		1.832e-02		29.518
8		0.00		3.20		5.259e-02		126.375		2.073e-02		36.140
8		0.00		3.60		5.196e-02		126.071		2.149e-02		39.579
8		0.00		4.00		5.268e-02		114.561		2.192e-02		42.551
8		0.00		4.40		5.480e-02		99.559		2.320e-02		72.130
8		0.00		4.80		5.866e-02		108.699		2.560e-02		53.861
8		0.00		5.20		5.783e-02		100.211		2.445e-02		67.856
8		0.00		5.60		5.921e-02		100.041		2.522e-02		63.579
8		0.00		6.00		6.087e-02		104.856		2.387e-02		61.026
8		0.00		6.40		6.705e-02		112.288		2.436e-02		51.417
8		0.00		6.80		6.238e-02		93.142		2.231e-02		65.246
8		0.00		7.20		6.244e-02		83.558		2.232e-02		94.394
8		0.00		7.60		6.144e-02		84.149		1.963e-02		77.809
8		0.00		8.00		5.978e-02		95.771		1.884e-02		77.076
8		0.00		8.40		6.146e-02		64.963		2.264e-02		104.810
8		0.00		8.80		6.302e-02		71.060		2.516e-02		100.055
8		0.00		9.20		6.442e-02		104.022		2.771e-02		66.709
8		0.00		9.60		6.035e-02		69.915		2.403e-02		84.973
8		0.00		10.00		5.756e-02		72.384		2.591e-02		90.116
8		0.00		9.60		6.433e-02		94.914		2.876e-02		61.326
8		0.00		9.20		6.187e-02		77.035		2.737e-02		91.149
8		0.00		8.80		6.147e-02		77.647		2.550e-02		88.586
8		0.00		8.40		5.943e-02		87.208		2.317e-02		76.405
8		0.00		8.00		5.872e-02		88.415		2.111e-02		71.653
8		0.00		7.60		5.805e-02		95.541		2.050e-02		71.379
8		0.00		7.20		6.288e-02		103.368		2.141e-02		73.087
8		0.00		6.80		5.766e-02		105.368		2.130e-02		69.153
8		0.00		6.40		6.072e-02		120.292		2.393e-02		57.544
8		0.00		6.00		5.637e-02		116.807		2.137e-02		45.033
8		0.00		5.60		5.754e-02		120.304		2.166e-02		45.848
8		0.00		5.20		5.402e-02		133.377		1.940e-02		28.539
8		0.00		4.80		5.109e-02		138.451		1.661e-02		15.882
8		0.00		4.40		4.831e-02		134.301		1.504e-02		15.596
8		0.00		4.00		4.221e-02		137.981		1.135e-02		10.661
8		0.00		3.60		3.861e-02		136.700		1.105e-02		8.190
8		0.00		3.20		3.206e-02		135.827		9.961e-03		11.106
8		0.00		2.80		2.465e-02		136.796		8.666e-03		14.921
8		0.00		2.40		1.776e-02		133.427		6.549e-03		24.320
8		0.00		2.00		1.064e-02		130.245		4.654e-03		37.684
8		0.00		1.60		4.760e-03		25.597		2.163e-03		104.088
8		0.00		1.20		5.612e-03		-69.004		2.466e-03		34.325
8		0.00		0.80		1.270e-02		-62.644		3.840e-03		16.187
8		0.00		0.40		1.921e-02		-57.701		5.038e-03		12.791
8		0.00		0.00		2.475e-02		-54.650		6.419e-03		10.440
8		0.00		-0.40		2.965e-02		-52.668		8.495e-03		10.090
8		0.00		-0.80		3.431e-02		-52.855		1.109e-02		9.899
8		0.00		-1.20		3.756e-02		-49.743		1.263e-02		20.546
8		0.00		-1.60		4.013e-02		-54.549		1.250e-02		22.457
8		0.00		-2.00		4.299e-02		-53.179		1.261e-02		14.296
8		0.00		-2.40		4.437e-02		-52.096		1.227e-02		10.623
8		0.00		-2.80		4.437e-02		-51.760		1.118e-02		10.812
8		0.00		-3.20		4.709e-02		-50.641		1.242e-02		9.398
8		0.00		-3.60		4.805e-02		-49.225		1.377e-02		9.271
8		0.00		-4.00		4.800e-02		-47.813		1.541e-02		8.964
8		0.00		-4.40		4.860e-02		-43.760		1.883e-02		26.708
8		0.00		-4.80		5.122e-02		-45.075		1.977e-02		33.659
8		0.00		-5.20		5.129e-02		-46.487		1.886e-02		28.927
8		0.00		-5.60		5.056e-02		-47.168		1.649e-02		20.925
8		0.00		-6.00		5.176e-02		-48.092		1.620e-02		14.983
8		0.00		-6.40		5.202e-02		-49.086		1.621e-02		18.682
8		0.00		-6.80		5.622e-02		-43.947		1.866e-02		13.864
8		0.00		-7.20		5.425e-02		-43.015		2.031e-02		14.102
8		0.00		-7.60		5.471e-02		-38.719		2.283e-02		16.172
8		0.00		-8.00		5.828e-02		-45.669		2.487e-02		28.668
8		0.00		-8.40		5.496e-02		-39.615		1.912e-02		32.227
8		0.00		-8.80		5.342e-02		-39.841		1.730e-02		24.183
8		0.00		-9.20		5.088e-02		-42.501		1.782e-02		23.002
8		0.00		-9.60		4.722e-02		-49.667		1.625e-02		22.608
8		0.00		-10.00		4.112e-02		-46.165		1.350e-02		16.134
8		0.00		-9.60		4.937e-02		-40.873		1.770e-02		14.511
8		0.00		-9.20		5.212e-02		-37.001		1.963e-02		15.332
8		0.00		-8.80		5.379e-02		-38.344		2.090e-02		24.048
8		0.00		-8.40		5.519e-02		-37.848		2.354e-02		33.940
8		0.00		-8.00		5.402e-02		-39.682		2.260e-02		34.116
8		0.00		-7.60		5.652e-02		-40.968		2.319e-02		39.333
8		0.00		-7.20		5.197e-02		-40.131		1.952e-02		24.893
8		0.00		-6.80		5.227e-02		-42.201		1.641e-02		15.951
8		0.00		-6.40		5.024e-02		-46.727		1.464e-02		15.396
8		0.00		-6.00		4.733e-02		-46.074		1.402e-02		12.684
8		0.00		-5.60		4.603e-02		-44.164		1.375e-02		8.989
8		0.00		-5.20		4.405e-02		-43.899		1.382e-02		11.068
8		0.00		-4.80		4.264e-02		-49.350		1.454e-02		10.795
8		0.00		-4.40		3.994e-02		-51.229		1.407e-02		13.480
8		0.00		-4.00		3.625e-02		-54.093		1.195e-02		21.511
8		0.00		-3.60		3.301e-02		-50.944		1.058e-02		20.656
8		0.00		-3.20		2.935e-02		-52.871		8.743e-03		19.894
8		0.00		-2.80		2.488e-02		-52.539		7.140e-03		14.323
8		0.00		-2.40		1.985e-02		-52.047		5.660e-03		12.886
8		0.00		-2.00		1.408e-02		-54.395		4.175e-03		12.687
8		0.00		-1.60		8.292e-03		-56.402		3.052e-03		16.665
8		0.00		-1.20		3.338e-03		-41.915		1.690e-03		68.801
8		0.00		-0.80		5.416e-03		105.962		2.420e-03		66.370
8		0.00		-0.40		1.122e-02		129.392		4.019e-03		33.732
