# Date of analysis: 2024-03-08 10;59
# Segment other properties: height: -66.8304363419527, diff height: 539.8586886282054, deflection: 33.128927649654294, deflection error: 3.0526953840619107, adhesion: 49.530346329912376, phase offset: 0
# 
# Loop index	Read Volt (V)	Write Volt (V)	Amplitude (a.u)	Phase (deg)	Sigma Amp (a.u)	Sigma Pha (deg)	
1		0.00		0.00		1.610e-02		-46.021		3.736e-03		12.091
1		0.00		0.40		1.118e-02		-48.483		3.013e-03		12.411
1		0.00		0.80		6.531e-03		-51.183		1.783e-03		14.545
1		0.00		1.20		2.161e-03		-29.273		8.359e-04		44.120
1		0.00		1.60		3.781e-03		105.623		1.271e-03		33.918
1		0.00		2.00		8.097e-03		129.917		1.809e-03		12.205
1		0.00		2.40		1.290e-02		130.854		3.144e-03		9.744
1		0.00		2.80		1.725e-02		127.864		4.756e-03		14.255
1		0.00		3.20		2.146e-02		128.238		6.273e-03		14.804
1		0.00		3.60		2.573e-02		129.613		7.598e-03		11.206
1		0.00		4.00		2.979e-02		129.548		7.350e-03		8.122
1		0.00		4.40		3.428e-02		131.852		7.463e-03		7.012
1		0.00		4.80		3.771e-02		131.352		7.961e-03		5.920
1		0.00		5.20		4.087e-02		131.018		9.680e-03		8.126
1		0.00		5.60		4.368e-02		130.845		1.169e-02		9.940
1		0.00		6.00		4.589e-02		131.417		1.297e-02		10.650
1		0.00		6.40		4.900e-02		129.159		1.374e-02		12.871
1		0.00		6.80		5.202e-02		129.853		1.395e-02		10.100
1		0.00		7.20		5.286e-02		133.115		1.330e-02		8.232
1		0.00		7.60		5.500e-02		134.612		1.290e-02		8.972
1		0.00		8.00		5.713e-02		132.607		1.553e-02		13.611
1		0.00		8.40		5.720e-02		133.350		1.712e-02		16.928
1		0.00		8.80		5.750e-02		125.037		2.012e-02		38.664
1		0.00		9.20		5.464e-02		126.927		1.952e-02		27.511
1		0.00		9.60		5.519e-02		122.867		1.988e-02		34.235
1		0.00		10.00		5.542e-02		130.823		1.982e-02		21.012
1		0.00		9.60		5.877e-02		134.894		1.866e-02		13.801
1		0.00		9.20		5.799e-02		132.532		1.787e-02		16.335
1		0.00		8.80		5.636e-02		131.264		1.701e-02		13.177
1		0.00		8.40		5.172e-02		131.110		1.646e-02		24.710
1		0.00		8.00		5.195e-02		131.811		1.760e-02		10.534
1		0.00		7.60		4.928e-02		128.269		1.510e-02		15.516
1		0.00		7.20		4.736e-02		128.888		1.363e-02		12.803
1		0.00		6.80		4.488e-02		131.787		1.173e-02		7.195
1		0.00		6.40		4.222e-02		132.229		9.726e-03		6.891
1		0.00		6.00		3.825e-02		131.406		8.857e-03		6.624
1		0.00		5.60		3.434e-02		131.723		8.427e-03		8.324
1		0.00		5.20		3.038e-02		131.149		8.210e-03		8.884
1		0.00		4.80		2.701e-02		130.319		7.298e-03		15.713
1		0.00		4.40		2.316e-02		128.719		6.499e-03		14.073
1		0.00		4.00		1.869e-02		130.277		4.723e-03		8.018
1		0.00		3.60		1.452e-02		131.107		3.187e-03		9.878
1		0.00		3.20		1.018e-02		133.050		2.423e-03		12.418
1		0.00		2.80		5.526e-03		127.784		1.642e-03		17.431
1		0.00		2.40		2.021e-03		25.795		7.319e-04		71.551
1		0.00		2.00		4.560e-03		-46.155		1.635e-03		19.658
1		0.00		1.60		8.646e-03		-51.163		2.648e-03		19.993
1		0.00		1.20		1.305e-02		-51.249		3.510e-03		10.524
1		0.00		0.80		1.770e-02		-50.486		4.241e-03		8.559
1		0.00		0.40		2.226e-02		-53.375		4.965e-03		8.044
1		0.00		0.00		2.630e-02		-50.855		6.319e-03		8.938
1		0.00		-0.40		3.095e-02		-50.032		8.148e-03		9.300
1		0.00		-0.80		3.576e-02		-52.699		9.846e-03		12.484
1		0.00		-1.20		4.016e-02		-52.794		1.074e-02		8.342
1		0.00		-1.60		4.578e-02		-52.404		1.053e-02		6.938
1		0.00		-2.00		4.945e-02		-51.226		9.966e-03		5.479
1		0.00		-2.40		5.117e-02		-52.658		1.232e-02		10.505
1		0.00		-2.80		5.506e-02		-54.394		1.550e-02		13.677
1		0.00		-3.20		5.707e-02		-51.067		1.650e-02		20.896
1		0.00		-3.60		5.739e-02		-51.104		1.554e-02		11.697
1		0.00		-4.00		5.993e-02		-48.652		1.363e-02		8.941
1		0.00		-4.40		6.198e-02		-49.977		1.522e-02		15.723
1		0.00		-4.80		6.384e-02		-45.694		1.739e-02		18.019
1		0.00		-5.20		5.877e-02		-46.085		1.987e-02		25.524
1		0.00		-5.60		5.858e-02		-44.706		1.875e-02		23.453
1		0.00		-6.00		6.057e-02		-41.740		2.022e-02		22.016
1		0.00		-6.40		6.112e-02		-43.954		1.890e-02		23.920
1		0.00		-6.80		6.636e-02		-49.774		2.060e-02		24.354
1		0.00		-7.20		6.430e-02		-50.480		2.031e-02		28.954
1		0.00		-7.60		6.423e-02		-44.883		2.315e-02		29.201
1		0.00		-8.00		5.867e-02		-38.470		2.294e-02		30.118
1		0.00		-8.40		6.354e-02		-38.494		2.239e-02		25.981
1		0.00		-8.80		6.120e-02		-35.971		1.992e-02		21.929
1		0.00		-9.20		6.301e-02		-36.797		1.886e-02		17.240
1		0.00		-9.60		6.024e-02		-38.409		1.826e-02		12.576
1		0.00		-10.00		5.348e-02		-41.606		1.735e-02		16.539
1		0.00		-9.60		5.608e-02		-39.045		1.886e-02		25.684
1		0.00		-9.20		5.932e-02		-36.364		1.819e-02		26.918
1		0.00		-8.80		6.255e-02		-38.618		1.645e-02		14.070
1		0.00		-8.40		6.431e-02		-38.960		1.557e-02		14.511
1		0.00		-8.00		6.680e-02		-41.638		1.728e-02		15.249
1		0.00		-7.60		6.646e-02		-44.027		1.847e-02		14.536
1		0.00		-7.20		5.967e-02		-40.527		1.788e-02		19.174
1		0.00		-6.80		5.984e-02		-45.919		1.670e-02		15.777
1		0.00		-6.40		6.185e-02		-47.885		1.524e-02		7.204
1		0.00		-6.00		5.829e-02		-47.692		1.227e-02		6.895
1		0.00		-5.60		5.379e-02		-51.828		1.473e-02		14.509
1		0.00		-5.20		5.113e-02		-50.732		1.360e-02		10.676
1		0.00		-4.80		4.797e-02		-52.580		1.368e-02		14.813
1		0.00		-4.40		4.385e-02		-53.832		1.178e-02		9.627
1		0.00		-4.00		4.039e-02		-52.749		8.657e-03		6.112
1		0.00		-3.60		3.645e-02		-51.426		7.232e-03		6.796
1		0.00		-3.20		3.198e-02		-49.422		6.981e-03		6.836
1		0.00		-2.80		2.734e-02		-51.034		6.749e-03		8.936
1		0.00		-2.40		2.325e-02		-51.202		6.433e-03		11.786
1		0.00		-2.00		1.902e-02		-49.309		4.366e-03		8.181
1		0.00		-1.60		1.446e-02		-45.572		2.742e-03		10.062
1		0.00		-1.20		9.616e-03		-44.265		2.003e-03		11.874
1		0.00		-0.80		5.316e-03		-39.976		1.513e-03		18.864
1		0.00		-0.40		1.738e-03		6.260		6.750e-04		60.200
2		0.00		0.00		4.451e-03		115.632		1.715e-03		21.841
2		0.00		0.40		8.684e-03		120.029		2.042e-03		13.983
2		0.00		0.80		1.384e-02		128.232		2.678e-03		10.525
2		0.00		1.20		1.750e-02		128.797		3.658e-03		7.762
2		0.00		1.60		2.161e-02		130.001		4.756e-03		10.363
2		0.00		2.00		2.560e-02		127.594		6.332e-03		13.301
2		0.00		2.40		3.011e-02		128.857		7.001e-03		7.558
2		0.00		2.80		3.393e-02		129.169		7.047e-03		5.881
2		0.00		3.20		3.714e-02		130.942		8.067e-03		4.613
2		0.00		3.60		3.928e-02		129.542		1.060e-02		10.202
2		0.00		4.00		4.243e-02		128.831		1.210e-02		12.804
2		0.00		4.40		4.509e-02		130.229		1.272e-02		8.019
2		0.00		4.80		4.834e-02		132.368		1.172e-02		5.634
2		0.00		5.20		4.993e-02		132.127		1.157e-02		7.299
2		0.00		5.60		5.202e-02		129.295		1.495e-02		13.407
2		0.00		6.00		5.379e-02		127.983		1.700e-02		25.826
2		0.00		6.40		5.619e-02		129.926		1.618e-02		14.386
2		0.00		6.80		5.984e-02		133.787		1.401e-02		7.516
2		0.00		7.20		5.823e-02		133.850		1.363e-02		17.192
2		0.00		7.60		5.846e-02		132.120		1.595e-02		23.532
2		0.00		8.00		6.054e-02		131.640		1.769e-02		35.096
2		0.00		8.40		6.447e-02		131.284		1.748e-02		20.168
2		0.00		8.80		6.475e-02		129.094		1.724e-02		30.525
2		0.00		9.20		6.264e-02		122.568		1.867e-02		37.175
2		0.00		9.60		6.117e-02		122.123		2.018e-02		38.494
2		0.00		10.00		6.025e-02		128.604		2.028e-02		33.727
2		0.00		9.60		5.947e-02		130.553		1.770e-02		33.923
2		0.00		9.20		6.165e-02		132.907		1.495e-02		20.117
2		0.00		8.80		5.983e-02		123.833		1.521e-02		48.074
2		0.00		8.40		5.780e-02		134.262		1.569e-02		26.604
2		0.00		8.00		5.614e-02		129.971		1.748e-02		28.719
2		0.00		7.60		5.614e-02		130.345		1.700e-02		17.062
2		0.00		7.20		5.563e-02		132.945		1.423e-02		7.322
2		0.00		6.80		5.112e-02		133.664		1.136e-02		6.603
2		0.00		6.40		4.865e-02		130.427		1.279e-02		10.302
2		0.00		6.00		4.491e-02		130.261		1.283e-02		14.493
2		0.00		5.60		4.202e-02		130.534		1.171e-02		12.908
2		0.00		5.20		3.844e-02		131.460		9.090e-03		6.752
2		0.00		4.80		3.454e-02		132.689		6.752e-03		5.494
2		0.00		4.40		3.065e-02		131.735		6.617e-03		7.784
2		0.00		4.00		2.658e-02		132.071		6.542e-03		11.164
2		0.00		3.60		2.201e-02		131.597		5.426e-03		12.893
2		0.00		3.20		1.794e-02		133.385		3.978e-03		9.228
2		0.00		2.80		1.336e-02		129.157		2.526e-03		9.588
2		0.00		2.40		8.588e-03		130.216		2.010e-03		12.197
2		0.00		2.00		3.597e-03		122.921		1.211e-03		23.314
2		0.00		1.60		2.113e-03		-44.206		1.013e-03		46.310
2		0.00		1.20		6.403e-03		-58.781		1.659e-03		17.487
2		0.00		0.80		1.134e-02		-48.651		2.042e-03		11.547
2		0.00		0.40		1.609e-02		-49.644		3.230e-03		9.186
2		0.00		0.00		2.098e-02		-48.076		4.537e-03		9.385
2		0.00		-0.40		2.522e-02		-49.406		6.579e-03		10.143
2		0.00		-0.80		2.988e-02		-49.722		7.494e-03		8.642
2		0.00		-1.20		3.505e-02		-52.385		7.470e-03		6.680
2		0.00		-1.60		3.917e-02		-51.815		8.356e-03		5.558
2		0.00		-2.00		4.235e-02		-51.415		1.063e-02		7.502
2		0.00		-2.40		4.506e-02		-53.261		1.239e-02		10.194
2		0.00		-2.80		4.993e-02		-53.915		1.393e-02		7.804
2		0.00		-3.20		5.332e-02		-53.433		1.256e-02		7.996
2		0.00		-3.60		5.580e-02		-53.225		1.325e-02		9.977
2		0.00		-4.00		5.946e-02		-53.799		1.528e-02		11.449
2		0.00		-4.40		5.989e-02		-50.421		1.750e-02		12.815
2		0.00		-4.80		6.356e-02		-51.135		1.719e-02		8.715
2		0.00		-5.20		6.387e-02		-44.684		1.447e-02		12.738
2		0.00		-5.60		6.406e-02		-48.036		1.670e-02		18.378
2		0.00		-6.00		6.310e-02		-46.505		1.813e-02		18.081
2		0.00		-6.40		6.474e-02		-41.059		1.955e-02		14.423
2		0.00		-6.80		6.419e-02		-40.242		1.855e-02		20.050
2		0.00		-7.20		6.629e-02		-40.492		1.679e-02		22.143
2		0.00		-7.60		6.548e-02		-44.533		1.902e-02		26.284
2		0.00		-8.00		6.940e-02		-42.415		2.010e-02		26.505
2		0.00		-8.40		6.134e-02		-39.510		1.836e-02		24.732
2		0.00		-8.80		6.562e-02		-36.642		1.930e-02		20.748
2		0.00		-9.20		6.503e-02		-38.094		1.870e-02		17.928
2		0.00		-9.60		6.059e-02		-39.676		1.926e-02		10.903
2		0.00		-10.00		5.412e-02		-43.069		1.778e-02		13.159
2		0.00		-9.60		5.747e-02		-44.342		1.818e-02		18.142
2		0.00		-9.20		6.099e-02		-39.601		1.710e-02		10.845
2		0.00		-8.80		6.394e-02		-38.601		1.794e-02		15.117
2		0.00		-8.40		5.991e-02		-43.250		1.874e-02		21.383
2		0.00		-8.00		5.764e-02		-38.992		1.766e-02		19.532
2		0.00		-7.60		6.278e-02		-44.417		1.627e-02		10.907
2		0.00		-7.20		6.265e-02		-46.702		1.337e-02		10.875
2		0.00		-6.80		6.208e-02		-46.962		1.598e-02		12.481
2		0.00		-6.40		5.923e-02		-48.836		1.617e-02		13.238
2		0.00		-6.00		5.732e-02		-49.033		1.530e-02		9.920
2		0.00		-5.60		5.584e-02		-48.195		1.236e-02		7.160
2		0.00		-5.20		5.181e-02		-49.840		9.980e-03		5.284
2		0.00		-4.80		4.701e-02		-51.429		1.097e-02		9.840
2		0.00		-4.40		4.247e-02		-53.136		1.044e-02		13.111
2		0.00		-4.00		3.887e-02		-52.736		8.018e-03		6.352
2		0.00		-3.60		3.478e-02		-50.709		5.966e-03		7.042
2		0.00		-3.20		3.010e-02		-49.937		6.055e-03		7.712
2		0.00		-2.80		2.571e-02		-49.253		6.258e-03		10.518
2		0.00		-2.40		2.135e-02		-49.953		4.838e-03		8.213
2		0.00		-2.00		1.722e-02		-44.755		3.154e-03		7.421
2		0.00		-1.60		1.282e-02		-44.617		2.718e-03		10.022
2		0.00		-1.20		7.642e-03		-39.056		2.071e-03		18.520
2		0.00		-0.80		3.650e-03		-32.252		1.223e-03		25.682
2		0.00		-0.40		1.995e-03		62.105		7.805e-04		53.801
3		0.00		0.00		6.019e-03		117.045		1.553e-03		14.398
3		0.00		0.40		9.855e-03		130.396		2.500e-03		15.149
3		0.00		0.80		1.414e-02		125.595		3.533e-03		12.802
3		0.00		1.20		1.801e-02		126.294		4.253e-03		7.516
3		0.00		1.60		2.270e-02		128.706		4.604e-03		6.311
3		0.00		2.00		2.682e-02		129.970		5.387e-03		7.881
3		0.00		2.40		2.963e-02		129.869		7.083e-03		11.108
3		0.00		2.80		3.393e-02		129.948		8.032e-03		10.325
3		0.00		3.20		3.886e-02		130.122		7.748e-03		6.373
3		0.00		3.60		4.182e-02		131.289		7.335e-03		5.503
3		0.00		4.00		4.458e-02		131.677		9.105e-03		6.614
3		0.00		4.40		4.686e-02		130.055		1.159e-02		12.031
3		0.00		4.80		4.855e-02		130.125		1.257e-02		9.323
3		0.00		5.20		5.389e-02		131.927		1.107e-02		5.256
3		0.00		5.60		5.489e-02		132.169		1.142e-02		7.212
3		0.00		6.00		5.671e-02		132.350		1.437e-02		8.879
3		0.00		6.40		5.844e-02		129.444		1.634e-02		17.861
3		0.00		6.80		5.995e-02		132.987		1.521e-02		7.645
3		0.00		7.20		6.092e-02		133.195		1.393e-02		18.933
3		0.00		7.60		6.516e-02		133.310		1.667e-02		13.521
3		0.00		8.00		6.015e-02		130.676		2.021e-02		36.720
3		0.00		8.40		6.126e-02		133.941		1.848e-02		21.418
3		0.00		8.80		6.257e-02		130.084		1.793e-02		27.694
3		0.00		9.20		6.693e-02		130.052		1.789e-02		33.841
3		0.00		9.60		6.811e-02		129.045		1.976e-02		26.142
3		0.00		10.00		6.115e-02		127.721		1.942e-02		44.689
3		0.00		9.60		5.995e-02		123.021		2.097e-02		43.733
3		0.00		9.20		6.273e-02		129.671		1.859e-02		27.175
3		0.00		8.80		6.185e-02		136.751		1.534e-02		12.108
3		0.00		8.40		6.252e-02		134.542		1.409e-02		14.589
3		0.00		8.00		6.101e-02		133.202		1.569e-02		14.366
3		0.00		7.60		5.727e-02		129.350		1.631e-02		25.937
3		0.00		7.20		5.635e-02		130.935		1.579e-02		15.714
3		0.00		6.80		5.394e-02		131.594		1.369e-02		9.214
3		0.00		6.40		5.033e-02		133.674		1.076e-02		6.661
3		0.00		6.00		4.717e-02		132.879		9.616e-03		5.148
3		0.00		5.60		4.426e-02		132.364		1.019e-02		7.681
3		0.00		5.20		3.989e-02		131.503		9.680e-03		10.798
3		0.00		4.80		3.602e-02		130.180		9.159e-03		9.978
3		0.00		4.40		3.217e-02		132.398		7.380e-03		6.276
3		0.00		4.00		2.792e-02		133.170		5.882e-03		6.246
3		0.00		3.60		2.345e-02		132.522		5.225e-03		7.615
3		0.00		3.20		1.848e-02		130.524		4.715e-03		13.812
3		0.00		2.80		1.425e-02		131.609		3.814e-03		16.424
3		0.00		2.40		9.328e-03		131.996		2.457e-03		12.179
3		0.00		2.00		4.721e-03		122.155		1.348e-03		23.980
3		0.00		1.60		1.735e-03		4.781		7.284e-04		80.304
3		0.00		1.20		4.448e-03		-67.068		1.324e-03		15.261
3		0.00		0.80		9.084e-03		-52.085		2.595e-03		14.958
3		0.00		0.40		1.378e-02		-53.245		3.665e-03		9.790
3		0.00		0.00		1.862e-02		-51.599		4.179e-03		9.924
3		0.00		-0.40		2.377e-02		-51.164		4.158e-03		7.526
3		0.00		-0.80		2.863e-02		-49.256		5.190e-03		7.342
3		0.00		-1.20		3.312e-02		-50.378		6.536e-03		7.041
3		0.00		-1.60		3.663e-02		-51.408		8.311e-03		8.939
3		0.00		-2.00		4.074e-02		-52.985		9.608e-03		10.230
3		0.00		-2.40		4.587e-02		-52.787		9.514e-03		6.422
3		0.00		-2.80		5.080e-02		-53.707		8.938e-03		5.881
3		0.00		-3.20		5.281e-02		-51.763		9.000e-03		5.650
3		0.00		-3.60		5.545e-02		-52.781		1.318e-02		12.022
3		0.00		-4.00		5.869e-02		-53.388		1.471e-02		13.937
3		0.00		-4.40		6.035e-02		-51.348		1.687e-02		8.528
3		0.00		-4.80		6.126e-02		-50.230		1.452e-02		7.722
3		0.00		-5.20		6.357e-02		-44.746		1.426e-02		12.712
3		0.00		-5.60		6.251e-02		-44.224		1.585e-02		16.899
3		0.00		-6.00		6.297e-02		-40.438		1.944e-02		15.861
3		0.00		-6.40		6.193e-02		-38.567		1.766e-02		17.968
3		0.00		-6.80		6.111e-02		-40.153		1.757e-02		21.244
3		0.00		-7.20		6.363e-02		-40.166		1.835e-02		22.943
3		0.00		-7.60		6.867e-02		-47.588		1.800e-02		24.631
3		0.00		-8.00		6.509e-02		-35.605		1.812e-02		23.109
3		0.00		-8.40		6.622e-02		-38.114		1.989e-02		21.406
3		0.00		-8.80		6.397e-02		-31.793		1.965e-02		17.063
3		0.00		-9.20		6.262e-02		-38.520		1.774e-02		24.355
3		0.00		-9.60		6.180e-02		-43.004		1.681e-02		13.448
3		0.00		-10.00		5.779e-02		-41.060		1.343e-02		7.246
3		0.00		-9.60		6.156e-02		-40.141		1.730e-02		13.072
3		0.00		-9.20		6.029e-02		-37.468		1.674e-02		16.100
3		0.00		-8.80		6.123e-02		-36.699		1.857e-02		18.967
3		0.00		-8.40		6.532e-02		-43.495		1.960e-02		17.768
3		0.00		-8.00		6.160e-02		-41.938		1.518e-02		11.178
3		0.00		-7.60		6.280e-02		-42.267		1.372e-02		11.329
3		0.00		-7.20		6.465e-02		-43.749		1.467e-02		8.853
3		0.00		-6.80		6.058e-02		-48.878		1.616e-02		12.823
3		0.00		-6.40		5.693e-02		-49.283		1.716e-02		13.232
3		0.00		-6.00		5.393e-02		-50.740		1.674e-02		15.761
3		0.00		-5.60		5.219e-02		-50.946		1.512e-02		10.493
3		0.00		-5.20		4.935e-02		-50.481		1.224e-02		5.932
3		0.00		-4.80		4.591e-02		-49.392		9.963e-03		5.755
3		0.00		-4.40		4.082e-02		-51.094		8.770e-03		5.348
3		0.00		-4.00		3.621e-02		-50.713		8.684e-03		7.729
3		0.00		-3.60		3.201e-02		-51.205		8.448e-03		10.834
3		0.00		-3.20		2.806e-02		-49.990		7.277e-03		9.226
3		0.00		-2.80		2.482e-02		-51.818		6.103e-03		8.740
3		0.00		-2.40		2.115e-02		-47.992		4.350e-03		9.205
3		0.00		-2.00		1.694e-02		-45.198		3.147e-03		9.033
3		0.00		-1.60		1.207e-02		-43.370		2.189e-03		10.169
3		0.00		-1.20		7.959e-03		-44.297		1.967e-03		15.532
3		0.00		-0.80		3.517e-03		-44.228		1.224e-03		27.458
3		0.00		-0.40		1.881e-03		40.406		7.433e-04		65.377
4		0.00		0.00		5.268e-03		125.095		1.607e-03		24.998
4		0.00		0.40		9.579e-03		124.630		2.121e-03		10.286
4		0.00		0.80		1.378e-02		128.294		2.877e-03		8.973
4		0.00		1.20		1.772e-02		129.163		3.785e-03		7.443
4		0.00		1.60		2.139e-02		129.719		5.372e-03		9.256
4		0.00		2.00		2.477e-02		126.360		7.004e-03		17.228
4		0.00		2.40		2.885e-02		128.600		7.900e-03		10.910
4		0.00		2.80		3.242e-02		128.932		8.105e-03		6.420
4		0.00		3.20		3.638e-02		130.386		7.713e-03		5.827
4		0.00		3.60		3.857e-02		130.827		8.602e-03		5.474
4		0.00		4.00		4.082e-02		130.852		1.072e-02		7.874
4		0.00		4.40		4.293e-02		130.967		1.287e-02		12.093
4		0.00		4.80		4.585e-02		128.552		1.403e-02		16.457
4		0.00		5.20		4.967e-02		129.762		1.371e-02		7.307
4		0.00		5.60		5.257e-02		132.486		1.215e-02		5.118
4		0.00		6.00		5.412e-02		131.803		1.258e-02		7.339
4		0.00		6.40		5.635e-02		131.448		1.535e-02		12.613
4		0.00		6.80		5.784e-02		128.915		1.711e-02		23.193
4		0.00		7.20		5.851e-02		130.200		1.725e-02		16.193
4		0.00		7.60		6.173e-02		132.002		1.754e-02		13.272
4		0.00		8.00		6.183e-02		137.072		1.520e-02		10.606
4		0.00		8.40		6.438e-02		132.500		1.739e-02		22.608
4		0.00		8.80		6.205e-02		130.067		1.905e-02		39.170
4		0.00		9.20		6.007e-02		126.112		2.001e-02		38.152
4		0.00		9.60		6.099e-02		127.558		2.092e-02		33.427
4		0.00		10.00		6.241e-02		129.414		2.111e-02		33.012
4		0.00		9.60		6.061e-02		125.276		1.781e-02		26.800
4		0.00		9.20		6.528e-02		130.853		2.054e-02		21.813
4		0.00		8.80		5.991e-02		130.488		2.031e-02		23.515
4		0.00		8.40		5.847e-02		127.077		1.957e-02		28.242
4		0.00		8.00		5.628e-02		131.309		1.793e-02		12.005
4		0.00		7.60		5.544e-02		134.729		1.523e-02		7.654
4		0.00		7.20		5.323e-02		132.267		1.393e-02		9.182
4		0.00		6.80		5.079e-02		130.276		1.511e-02		12.144
4		0.00		6.40		4.745e-02		130.783		1.419e-02		15.637
4		0.00		6.00		4.494e-02		130.464		1.256e-02		15.801
4		0.00		5.60		4.321e-02		131.384		1.067e-02		6.510
4		0.00		5.20		3.999e-02		132.490		7.908e-03		5.125
4		0.00		4.80		3.575e-02		132.993		7.157e-03		6.435
4		0.00		4.40		3.131e-02		133.249		7.348e-03		9.134
4		0.00		4.00		2.721e-02		132.293		6.901e-03		12.022
4		0.00		3.60		2.326e-02		131.310		5.637e-03		7.837
4		0.00		3.20		1.867e-02		132.425		3.952e-03		8.041
4		0.00		2.80		1.490e-02		132.493		2.779e-03		9.586
4		0.00		2.40		1.029e-02		133.360		2.179e-03		11.722
4		0.00		2.00		5.774e-03		123.237		1.664e-03		32.000
4		0.00		1.60		2.111e-03		52.520		8.722e-04		69.906
4		0.00		1.20		3.665e-03		-61.600		1.126e-03		22.230
4		0.00		0.80		8.728e-03		-49.894		1.838e-03		11.054
4		0.00		0.40		1.301e-02		-48.635		2.756e-03		10.312
4		0.00		0.00		1.740e-02		-48.730		4.055e-03		8.958
4		0.00		-0.40		2.178e-02		-48.342		5.534e-03		10.616
4		0.00		-0.80		2.603e-02		-51.501		6.729e-03		9.750
4		0.00		-1.20		3.131e-02		-51.644		6.396e-03		6.303
4		0.00		-1.60		3.567e-02		-51.633		6.777e-03		6.069
4		0.00		-2.00		3.875e-02		-50.903		8.128e-03		6.843
4		0.00		-2.40		4.262e-02		-51.715		1.054e-02		8.326
4		0.00		-2.80		4.708e-02		-52.960		1.165e-02		10.768
4		0.00		-3.20		5.234e-02		-53.158		1.159e-02		5.531
4		0.00		-3.60		5.520e-02		-53.055		1.035e-02		6.095
4		0.00		-4.00		5.798e-02		-53.806		1.294e-02		8.900
4		0.00		-4.40		5.920e-02		-52.214		1.504e-02		12.209
4		0.00		-4.80		5.992e-02		-50.342		1.653e-02		14.745
4		0.00		-5.20		6.167e-02		-48.129		1.638e-02		9.298
4		0.00		-5.60		6.380e-02		-44.156		1.472e-02		14.204
4		0.00		-6.00		6.874e-02		-47.579		1.701e-02		15.921
4		0.00		-6.40		6.466e-02		-36.860		1.826e-02		15.505
4		0.00		-6.80		6.120e-02		-41.222		1.629e-02		16.761
4		0.00		-7.20		6.599e-02		-40.663		1.782e-02		18.948
4		0.00		-7.60		6.492e-02		-34.898		1.976e-02		20.974
4		0.00		-8.00		6.600e-02		-33.680		1.931e-02		22.348
4		0.00		-8.40		6.576e-02		-39.252		2.261e-02		23.724
4		0.00		-8.80		6.259e-02		-44.092		2.196e-02		22.883
4		0.00		-9.20		5.883e-02		-41.967		2.043e-02		27.325
4		0.00		-9.60		6.143e-02		-44.027		1.902e-02		12.043
4		0.00		-10.00		5.483e-02		-40.945		1.403e-02		8.334
4		0.00		-9.60		5.803e-02		-40.306		1.839e-02		11.559
4		0.00		-9.20		5.737e-02		-38.928		1.916e-02		20.135
4		0.00		-8.80		6.021e-02		-36.607		1.728e-02		16.990
4		0.00		-8.40		6.717e-02		-42.055		1.658e-02		11.356
4		0.00		-8.00		6.656e-02		-41.600		1.429e-02		11.171
4		0.00		-7.60		6.530e-02		-42.286		1.614e-02		9.875
4		0.00		-7.20		6.348e-02		-46.674		1.778e-02		18.162
4		0.00		-6.80		6.129e-02		-47.413		1.560e-02		10.564
4		0.00		-6.40		6.069e-02		-47.875		1.225e-02		6.540
4		0.00		-6.00		5.745e-02		-48.603		1.075e-02		7.127
4		0.00		-5.60		5.471e-02		-49.151		1.184e-02		9.153
4		0.00		-5.20		5.071e-02		-50.397		1.250e-02		8.478
4		0.00		-4.80		4.652e-02		-50.991		1.164e-02		7.626
4		0.00		-4.40		4.294e-02		-52.144		8.675e-03		5.236
4		0.00		-4.00		3.869e-02		-50.783		7.148e-03		5.815
4		0.00		-3.60		3.398e-02		-49.846		7.031e-03		7.473
4		0.00		-3.20		2.949e-02		-51.072		6.983e-03		8.424
4		0.00		-2.80		2.559e-02		-48.095		6.185e-03		8.244
4		0.00		-2.40		2.163e-02		-48.855		3.824e-03		8.221
4		0.00		-2.00		1.719e-02		-50.863		3.099e-03		8.456
4		0.00		-1.60		1.236e-02		-43.306		2.628e-03		10.627
4		0.00		-1.20		8.191e-03		-42.457		2.224e-03		11.140
4		0.00		-0.80		3.816e-03		-38.213		1.373e-03		28.135
4		0.00		-0.40		1.694e-03		40.773		5.246e-04		57.708
5		0.00		0.00		5.113e-03		128.571		1.444e-03		17.578
5		0.00		0.40		9.537e-03		127.721		2.097e-03		14.458
5		0.00		0.80		1.350e-02		126.702		3.383e-03		13.118
5		0.00		1.20		1.801e-02		128.482		3.644e-03		7.856
5		0.00		1.60		2.243e-02		129.355		3.934e-03		6.403
5		0.00		2.00		2.680e-02		131.874		4.679e-03		6.816
5		0.00		2.40		3.029e-02		130.805		6.756e-03		8.636
5		0.00		2.80		3.384e-02		130.323		8.400e-03		12.285
5		0.00		3.20		3.738e-02		130.854		8.137e-03		6.019
5		0.00		3.60		4.153e-02		130.946		7.575e-03		4.400
5		0.00		4.00		4.435e-02		131.966		8.569e-03		5.196
5		0.00		4.40		4.627e-02		131.446		1.144e-02		8.215
5		0.00		4.80		4.847e-02		129.747		1.296e-02		11.650
5		0.00		5.20		5.211e-02		131.199		1.237e-02		5.792
5		0.00		5.60		5.364e-02		132.388		1.157e-02		5.353
5		0.00		6.00		5.443e-02		131.293		1.381e-02		8.977
5		0.00		6.40		5.466e-02		133.139		1.632e-02		13.516
5		0.00		6.80		5.830e-02		128.175		1.800e-02		22.524
5		0.00		7.20		5.951e-02		134.244		1.575e-02		8.076
5		0.00		7.60		5.882e-02		129.842		1.562e-02		23.038
5		0.00		8.00		6.125e-02		132.900		1.629e-02		14.135
5		0.00		8.40		5.979e-02		130.428		1.961e-02		26.628
5		0.00		8.80		6.229e-02		122.062		1.944e-02		40.617
5		0.00		9.20		6.705e-02		135.103		1.828e-02		16.687
5		0.00		9.60		6.311e-02		125.302		1.508e-02		34.546
5		0.00		10.00		6.287e-02		127.873		1.914e-02		32.364
5		0.00		9.60		6.080e-02		129.544		1.831e-02		34.629
5		0.00		9.20		6.118e-02		132.915		1.805e-02		25.400
5		0.00		8.80		6.346e-02		137.465		1.593e-02		10.775
5		0.00		8.40		6.457e-02		135.345		1.502e-02		17.660
5		0.00		8.00		6.045e-02		135.453		1.429e-02		12.213
5		0.00		7.60		5.768e-02		134.312		1.537e-02		9.188
5		0.00		7.20		5.772e-02		130.742		1.538e-02		13.359
5		0.00		6.80		5.529e-02		131.957		1.437e-02		6.286
5		0.00		6.40		5.266e-02		132.087		1.199e-02		5.971
5		0.00		6.00		4.808e-02		132.520		1.003e-02		6.164
5		0.00		5.60		4.397e-02		131.968		1.072e-02		8.425
5		0.00		5.20		3.933e-02		130.730		1.074e-02		14.958
5		0.00		4.80		3.618e-02		130.379		9.636e-03		10.489
5		0.00		4.40		3.284e-02		131.890		7.600e-03		7.961
5		0.00		4.00		2.877e-02		132.219		5.437e-03		5.516
5		0.00		3.60		2.461e-02		133.709		5.311e-03		7.864
5		0.00		3.20		2.034e-02		131.814		5.350e-03		11.307
5		0.00		2.80		1.596e-02		128.382		4.387e-03		13.498
5		0.00		2.40		1.137e-02		129.374		2.639e-03		9.892
5		0.00		2.00		7.082e-03		128.705		1.764e-03		11.248
5		0.00		1.60		2.908e-03		105.343		1.071e-03		64.304
5		0.00		1.20		3.127e-03		-43.286		1.375e-03		37.867
5		0.00		0.80		6.931e-03		-52.880		2.044e-03		17.281
5		0.00		0.40		1.146e-02		-49.661		2.732e-03		10.804
5		0.00		0.00		1.623e-02		-51.372		3.218e-03		7.843
5		0.00		-0.40		2.139e-02		-51.845		3.407e-03		7.186
5		0.00		-0.80		2.544e-02		-48.810		4.719e-03		6.209
5		0.00		-1.20		2.971e-02		-48.988		6.525e-03		7.984
5		0.00		-1.60		3.375e-02		-52.792		8.108e-03		9.312
5		0.00		-2.00		3.815e-02		-52.697		8.272e-03		6.406
5		0.00		-2.40		4.265e-02		-52.232		8.121e-03		4.475
5		0.00		-2.80		4.604e-02		-51.536		9.555e-03		5.049
5		0.00		-3.20		4.854e-02		-53.210		1.299e-02		9.314
5		0.00		-3.60		5.161e-02		-53.066		1.483e-02		8.307
5		0.00		-4.00		5.482e-02		-53.898		1.591e-02		7.204
5		0.00		-4.40		5.851e-02		-51.838		1.331e-02		6.609
5		0.00		-4.80		5.994e-02		-50.625		1.331e-02		9.111
5		0.00		-5.20		6.085e-02		-48.315		1.548e-02		11.972
5		0.00		-5.60		5.975e-02		-45.816		1.805e-02		18.785
5		0.00		-6.00		6.031e-02		-42.944		1.788e-02		19.906
5		0.00		-6.40		6.590e-02		-46.553		1.765e-02		13.007
5		0.00		-6.80		6.631e-02		-40.729		1.664e-02		16.554
5		0.00		-7.20		6.645e-02		-35.368		1.477e-02		16.736
5		0.00		-7.60		6.281e-02		-38.997		1.790e-02		24.506
5		0.00		-8.00		6.576e-02		-43.144		2.088e-02		21.586
5		0.00		-8.40		6.471e-02		-37.433		1.972e-02		21.594
5		0.00		-8.80		6.621e-02		-41.783		1.936e-02		20.044
5		0.00		-9.20		6.379e-02		-34.569		1.741e-02		14.776
5		0.00		-9.60		6.115e-02		-38.394		1.543e-02		11.468
5		0.00		-10.00		5.603e-02		-44.542		1.670e-02		13.129
5		0.00		-9.60		5.921e-02		-42.948		1.900e-02		15.922
5		0.00		-9.20		5.942e-02		-43.512		1.809e-02		21.240
5		0.00		-8.80		6.233e-02		-39.699		1.743e-02		14.614
5		0.00		-8.40		6.704e-02		-43.752		1.707e-02		11.280
5		0.00		-8.00		6.516e-02		-41.413		1.563e-02		12.315
5		0.00		-7.60		6.311e-02		-46.621		1.725e-02		12.590
5		0.00		-7.20		6.104e-02		-47.612		1.849e-02		15.176
5		0.00		-6.80		5.979e-02		-46.175		1.793e-02		16.621
5		0.00		-6.40		5.810e-02		-47.643		1.654e-02		8.056
5		0.00		-6.00		5.700e-02		-48.962		1.356e-02		6.097
5		0.00		-5.60		5.279e-02		-49.014		1.061e-02		5.197
5		0.00		-5.20		4.889e-02		-48.753		9.935e-03		4.547
5		0.00		-4.80		4.529e-02		-50.095		1.033e-02		7.015
5		0.00		-4.40		4.109e-02		-50.283		9.814e-03		8.636
5		0.00		-4.00		3.642e-02		-51.070		8.859e-03		9.998
5		0.00		-3.60		3.291e-02		-50.771		7.288e-03		7.144
5		0.00		-3.20		2.946e-02		-50.533		5.375e-03		6.398
5		0.00		-2.80		2.529e-02		-51.520		4.507e-03		7.071
5		0.00		-2.40		2.081e-02		-46.399		3.861e-03		7.510
5		0.00		-2.00		1.689e-02		-46.146		3.489e-03		8.646
5		0.00		-1.60		1.239e-02		-47.550		2.810e-03		11.187
5		0.00		-1.20		7.974e-03		-43.326		2.048e-03		14.689
5		0.00		-0.80		3.720e-03		-38.191		1.293e-03		27.859
5		0.00		-0.40		2.021e-03		69.317		8.151e-04		55.073
6		0.00		0.00		5.744e-03		121.589		1.504e-03		16.184
6		0.00		0.40		9.738e-03		127.929		2.089e-03		12.716
6		0.00		0.80		1.373e-02		127.936		2.983e-03		10.029
6		0.00		1.20		1.754e-02		129.013		4.183e-03		11.924
6		0.00		1.60		2.115e-02		130.029		5.700e-03		13.624
6		0.00		2.00		2.504e-02		127.385		6.774e-03		11.305
6		0.00		2.40		2.902e-02		129.992		6.927e-03		7.024
6		0.00		2.80		3.319e-02		131.293		7.165e-03		5.527
6		0.00		3.20		3.660e-02		130.211		7.171e-03		5.736
6		0.00		3.60		3.915e-02		131.371		8.011e-03		5.641
6		0.00		4.00		4.199e-02		130.406		1.008e-02		8.655
6		0.00		4.40		4.481e-02		131.884		1.146e-02		11.614
6		0.00		4.80		4.800e-02		129.660		1.249e-02		15.058
6		0.00		5.20		5.078e-02		130.142		1.272e-02		7.493
6		0.00		5.60		5.470e-02		131.151		1.234e-02		5.372
6		0.00		6.00		5.762e-02		131.803		1.182e-02		4.790
6		0.00		6.40		5.815e-02		133.163		1.200e-02		7.774
6		0.00		6.80		5.945e-02		130.813		1.576e-02		13.223
6		0.00		7.20		5.993e-02		125.667		1.815e-02		34.306
6		0.00		7.60		6.124e-02		131.225		1.770e-02		23.887
6		0.00		8.00		6.126e-02		134.471		1.769e-02		16.552
6		0.00		8.40		6.240e-02		135.835		1.690e-02		10.831
6		0.00		8.80		6.327e-02		130.615		1.633e-02		39.526
6		0.00		9.20		6.444e-02		131.063		1.740e-02		35.761
6		0.00		9.60		6.352e-02		131.105		1.825e-02		29.286
6		0.00		10.00		6.054e-02		129.148		1.977e-02		31.772
6		0.00		9.60		6.038e-02		128.137		2.042e-02		30.362
6		0.00		9.20		5.955e-02		136.246		1.787e-02		20.140
6		0.00		8.80		6.149e-02		130.723		1.903e-02		23.073
6		0.00		8.40		6.043e-02		136.091		1.493e-02		8.834
6		0.00		8.00		6.102e-02		135.324		1.401e-02		7.968
6		0.00		7.60		5.791e-02		131.924		1.431e-02		11.641
6		0.00		7.20		5.707e-02		129.949		1.496e-02		10.775
6		0.00		6.80		5.372e-02		132.087		1.448e-02		9.519
6		0.00		6.40		4.989e-02		130.760		1.395e-02		14.202
6		0.00		6.00		4.775e-02		131.137		1.232e-02		10.763
6		0.00		5.60		4.442e-02		131.637		1.052e-02		6.034
6		0.00		5.20		4.102e-02		131.548		8.569e-03		5.467
6		0.00		4.80		3.697e-02		133.025		7.118e-03		5.888
6		0.00		4.40		3.316e-02		133.742		6.530e-03		5.566
6		0.00		4.00		2.894e-02		133.922		6.585e-03		7.760
6		0.00		3.60		2.459e-02		131.853		6.064e-03		13.280
6		0.00		3.20		1.973e-02		132.317		5.544e-03		14.484
6		0.00		2.80		1.541e-02		128.937		4.407e-03		10.621
6		0.00		2.40		1.143e-02		130.763		2.682e-03		10.293
6		0.00		2.00		7.368e-03		130.726		1.754e-03		13.813
6		0.00		1.60		3.328e-03		108.542		1.112e-03		42.378
6		0.00		1.20		2.399e-03		-51.174		9.642e-04		39.579
6		0.00		0.80		6.578e-03		-51.606		1.867e-03		14.939
6		0.00		0.40		1.075e-02		-44.871		2.950e-03		12.552
6		0.00		0.00		1.518e-02		-48.847		4.157e-03		10.910
6		0.00		-0.40		2.017e-02		-51.072		4.735e-03		8.520
6		0.00		-0.80		2.465e-02		-50.518		4.772e-03		7.692
6		0.00		-1.20		2.927e-02		-51.108		5.173e-03		6.481
6		0.00		-1.60		3.308e-02		-50.576		6.180e-03		7.312
6		0.00		-2.00		3.748e-02		-51.674		7.445e-03		7.493
6		0.00		-2.40		4.082e-02		-51.469		9.343e-03		10.429
6		0.00		-2.80		4.494e-02		-51.516		1.078e-02		11.073
6		0.00		-3.20		4.853e-02		-52.862		1.173e-02		8.362
6		0.00		-3.60		5.333e-02		-52.721		1.122e-02		4.911
6		0.00		-4.00		5.720e-02		-52.871		1.098e-02		5.611
6		0.00		-4.40		5.896e-02		-50.977		1.164e-02		7.895
6		0.00		-4.80		5.974e-02		-54.113		1.584e-02		14.875
6		0.00		-5.20		6.062e-02		-49.098		1.721e-02		15.294
6		0.00		-5.60		6.060e-02		-45.345		1.749e-02		21.114
6		0.00		-6.00		6.125e-02		-44.644		1.840e-02		12.386
6		0.00		-6.40		6.275e-02		-43.599		1.550e-02		13.052
6		0.00		-6.80		6.528e-02		-40.978		1.574e-02		15.871
6		0.00		-7.20		6.303e-02		-42.361		1.616e-02		22.597
6		0.00		-7.60		6.573e-02		-42.777		1.941e-02		23.502
6		0.00		-8.00		6.456e-02		-35.489		2.068e-02		21.044
6		0.00		-8.40		6.244e-02		-37.972		1.901e-02		21.247
6		0.00		-8.80		6.415e-02		-36.035		1.915e-02		21.142
6		0.00		-9.20		6.380e-02		-38.699		1.674e-02		15.568
6		0.00		-9.60		6.167e-02		-39.781		1.635e-02		10.750
6		0.00		-10.00		5.644e-02		-42.799		1.461e-02		9.104
6		0.00		-9.60		6.023e-02		-43.056		1.759e-02		11.416
6		0.00		-9.20		6.047e-02		-40.498		1.866e-02		17.999
6		0.00		-8.80		6.053e-02		-38.190		1.725e-02		22.505
6		0.00		-8.40		6.541e-02		-43.416		1.774e-02		14.119
6		0.00		-8.00		6.675e-02		-43.244		1.584e-02		12.067
6		0.00		-7.60		6.762e-02		-44.463		1.546e-02		13.971
6		0.00		-7.20		6.315e-02		-46.728		1.557e-02		13.117
6		0.00		-6.80		5.970e-02		-46.023		1.586e-02		11.521
6		0.00		-6.40		5.672e-02		-48.533		1.740e-02		13.086
6		0.00		-6.00		5.611e-02		-48.500		1.672e-02		15.479
6		0.00		-5.60		5.244e-02		-50.215		1.418e-02		6.312
6		0.00		-5.20		4.909e-02		-50.180		1.072e-02		5.514
6		0.00		-4.80		4.500e-02		-50.030		9.150e-03		4.327
6		0.00		-4.40		4.074e-02		-50.887		9.158e-03		6.663
6		0.00		-4.00		3.593e-02		-51.335		9.266e-03		8.981
6		0.00		-3.60		3.164e-02		-53.677		8.546e-03		13.049
6		0.00		-3.20		2.753e-02		-50.344		7.085e-03		7.036
6		0.00		-2.80		2.443e-02		-50.095		4.911e-03		6.721
6		0.00		-2.40		2.026e-02		-48.944		3.662e-03		7.613
6		0.00		-2.00		1.626e-02		-48.673		2.965e-03		9.880
6		0.00		-1.60		1.198e-02		-47.340		2.641e-03		10.756
6		0.00		-1.20		7.427e-03		-42.909		2.036e-03		15.544
6		0.00		-0.80		3.468e-03		-57.464		1.166e-03		31.921
6		0.00		-0.40		1.944e-03		52.155		7.141e-04		60.893
7		0.00		0.00		5.459e-03		119.927		1.681e-03		27.228
7		0.00		0.40		9.739e-03		124.276		2.046e-03		10.795
7		0.00		0.80		1.411e-02		126.668		2.578e-03		9.564
7		0.00		1.20		1.776e-02		130.263		3.592e-03		10.683
7		0.00		1.60		2.211e-02		128.685		5.253e-03		11.511
7		0.00		2.00		2.592e-02		128.313		6.426e-03		11.413
7		0.00		2.40		2.992e-02		130.224		7.675e-03		8.359
7		0.00		2.80		3.391e-02		129.608		7.442e-03		6.578
7		0.00		3.20		3.748e-02		130.902		7.061e-03		5.675
7		0.00		3.60		4.043e-02		131.507		7.931e-03		5.345
7		0.00		4.00		4.319e-02		131.906		8.788e-03		5.335
7		0.00		4.40		4.547e-02		131.901		1.087e-02		8.181
7		0.00		4.80		4.728e-02		131.438		1.253e-02		11.052
7		0.00		5.20		5.035e-02		129.253		1.393e-02		15.468
7		0.00		5.60		5.369e-02		130.362		1.337e-02		6.758
7		0.00		6.00		5.663e-02		133.170		1.190e-02		6.139
7		0.00		6.40		5.819e-02		133.529		1.154e-02		6.693
7		0.00		6.80		5.994e-02		132.824		1.392e-02		9.750
7		0.00		7.20		6.037e-02		133.323		1.576e-02		20.326
7		0.00		7.60		6.045e-02		131.283		1.778e-02		25.481
7		0.00		8.00		6.158e-02		133.573		1.735e-02		22.581
7		0.00		8.40		6.212e-02		132.403		1.675e-02		27.396
7		0.00		8.80		6.657e-02		135.507		1.689e-02		20.597
7		0.00		9.20		6.561e-02		128.582		1.634e-02		43.190
7		0.00		9.60		6.752e-02		135.412		1.678e-02		24.583
7		0.00		10.00		6.271e-02		134.157		1.942e-02		19.194
7		0.00		9.60		6.277e-02		124.661		2.141e-02		34.834
7		0.00		9.20		5.753e-02		130.909		2.037e-02		28.507
7		0.00		8.80		5.801e-02		132.069		1.831e-02		19.861
7		0.00		8.40		5.977e-02		131.800		1.831e-02		18.055
7		0.00		8.00		6.039e-02		132.641		1.702e-02		8.307
7		0.00		7.60		5.939e-02		133.668		1.467e-02		6.662
7		0.00		7.20		5.446e-02		133.036		1.294e-02		8.092
7		0.00		6.80		5.250e-02		131.686		1.324e-02		7.849
7		0.00		6.40		4.922e-02		130.746		1.369e-02		10.283
7		0.00		6.00		4.570e-02		131.701		1.245e-02		10.523
7		0.00		5.60		4.323e-02		130.529		1.120e-02		13.798
7		0.00		5.20		3.962e-02		129.894		1.030e-02		13.908
7		0.00		4.80		3.622e-02		131.578		8.550e-03		7.361
7		0.00		4.40		3.271e-02		133.287		6.939e-03		6.468
7		0.00		4.00		2.853e-02		133.254		5.456e-03		6.044
7		0.00		3.60		2.467e-02		133.459		4.429e-03		6.055
7		0.00		3.20		2.001e-02		132.896		4.061e-03		8.300
7		0.00		2.80		1.592e-02		133.399		3.538e-03		10.232
7		0.00		2.40		1.107e-02		131.012		2.781e-03		17.002
7		0.00		2.00		7.027e-03		132.173		1.860e-03		23.707
7		0.00		1.60		3.048e-03		97.467		1.178e-03		47.425
7		0.00		1.20		2.264e-03		-20.089		9.606e-04		44.633
7		0.00		0.80		6.385e-03		-57.299		1.600e-03		14.455
7		0.00		0.40		1.087e-02		-49.787		2.299e-03		13.213
7		0.00		0.00		1.530e-02		-49.560		2.873e-03		9.311
7		0.00		-0.40		2.016e-02		-48.219		3.598e-03		8.815
7		0.00		-0.80		2.430e-02		-50.599		4.611e-03		8.159
7		0.00		-1.20		2.859e-02		-50.932		6.618e-03		7.796
7		0.00		-1.60		3.227e-02		-50.734		8.180e-03		10.499
7		0.00		-2.00		3.681e-02		-52.731		9.122e-03		8.559
7		0.00		-2.40		4.142e-02		-53.178		1.007e-02		7.403
7		0.00		-2.80		4.623e-02		-53.076		9.947e-03		6.371
7		0.00		-3.20		5.054e-02		-52.705		9.552e-03		4.926
7		0.00		-3.60		5.370e-02		-54.047		9.816e-03		5.920
7		0.00		-4.00		5.584e-02		-51.708		1.018e-02		5.602
7		0.00		-4.40		5.938e-02		-53.057		1.317e-02		9.639
7		0.00		-4.80		6.068e-02		-50.665		1.446e-02		8.679
7		0.00		-5.20		5.889e-02		-47.992		1.542e-02		10.298
7		0.00		-5.60		6.091e-02		-44.417		1.531e-02		9.210
7		0.00		-6.00		6.301e-02		-45.947		1.577e-02		10.882
7		0.00		-6.40		6.363e-02		-43.080		1.664e-02		11.707
7		0.00		-6.80		6.435e-02		-44.996		1.726e-02		15.107
7		0.00		-7.20		6.581e-02		-44.139		1.683e-02		17.430
7		0.00		-7.60		6.800e-02		-43.125		1.744e-02		17.771
7		0.00		-8.00		6.683e-02		-40.523		1.732e-02		18.491
7		0.00		-8.40		6.296e-02		-41.679		2.015e-02		26.115
7		0.00		-8.80		6.067e-02		-44.081		2.149e-02		27.939
7		0.00		-9.20		5.907e-02		-33.875		2.107e-02		19.324
7		0.00		-9.60		5.696e-02		-38.279		1.989e-02		16.602
7		0.00		-10.00		5.598e-02		-37.492		1.875e-02		20.623
7		0.00		-9.60		6.056e-02		-46.428		1.806e-02		14.941
7		0.00		-9.20		6.116e-02		-41.807		1.703e-02		15.173
7		0.00		-8.80		6.401e-02		-40.542		1.622e-02		10.330
7		0.00		-8.40		6.420e-02		-38.403		1.445e-02		10.853
7		0.00		-8.00		6.722e-02		-43.519		1.538e-02		12.239
7		0.00		-7.60		6.570e-02		-45.570		1.393e-02		8.807
7		0.00		-7.20		6.516e-02		-46.460		1.422e-02		10.695
7		0.00		-6.80		6.308e-02		-47.560		1.478e-02		9.693
7		0.00		-6.40		5.972e-02		-49.166		1.526e-02		10.730
7		0.00		-6.00		5.609e-02		-49.676		1.415e-02		13.392
7		0.00		-5.60		5.240e-02		-49.237		1.305e-02		11.091
7		0.00		-5.20		4.905e-02		-49.921		1.288e-02		13.230
7		0.00		-4.80		4.434e-02		-51.053		1.183e-02		11.297
7		0.00		-4.40		4.044e-02		-52.622		1.068e-02		8.135
7		0.00		-4.00		3.685e-02		-52.398		8.623e-03		6.436
7		0.00		-3.60		3.274e-02		-51.362		6.944e-03		6.256
7		0.00		-3.20		2.925e-02		-51.833		5.367e-03		5.361
7		0.00		-2.80		2.441e-02		-49.136		4.439e-03		7.369
7		0.00		-2.40		2.103e-02		-47.918		3.774e-03		7.176
7		0.00		-2.00		1.704e-02		-47.234		3.339e-03		9.145
7		0.00		-1.60		1.223e-02		-46.390		2.512e-03		12.374
7		0.00		-1.20		8.169e-03		-46.097		2.052e-03		13.277
7		0.00		-0.80		4.346e-03		-39.048		1.309e-03		21.379
7		0.00		-0.40		1.709e-03		18.210		6.109e-04		70.560
8		0.00		0.00		4.936e-03		121.376		1.458e-03		18.666
8		0.00		0.40		8.857e-03		127.426		1.973e-03		9.818
8		0.00		0.80		1.318e-02		126.953		2.439e-03		8.551
8		0.00		1.20		1.783e-02		129.637		3.366e-03		6.833
8		0.00		1.60		2.180e-02		130.753		3.646e-03		6.585
8		0.00		2.00		2.538e-02		131.635		5.146e-03		6.403
8		0.00		2.40		2.905e-02		131.401		6.290e-03		8.110
8		0.00		2.80		3.197e-02		131.839		8.208e-03		10.889
8		0.00		3.20		3.513e-02		130.129		9.576e-03		11.620
8		0.00		3.60		3.836e-02		129.612		1.081e-02		10.469
8		0.00		4.00		4.134e-02		130.555		1.085e-02		6.565
8		0.00		4.40		4.486e-02		131.252		1.022e-02		5.409
8		0.00		4.80		4.769e-02		132.269		1.035e-02		5.097
8		0.00		5.20		5.019e-02		131.881		1.118e-02		4.951
8		0.00		5.60		5.171e-02		131.839		1.342e-02		6.369
8		0.00		6.00		5.349e-02		129.486		1.593e-02		12.343
8		0.00		6.40		5.557e-02		132.324		1.620e-02		11.113
8		0.00		6.80		5.933e-02		130.545		1.642e-02		13.405
8		0.00		7.20		6.066e-02		131.654		1.620e-02		11.415
8		0.00		7.60		6.420e-02		133.961		1.609e-02		6.912
8		0.00		8.00		6.629e-02		135.184		1.554e-02		9.079
8		0.00		8.40		6.449e-02		133.886		1.530e-02		33.317
8		0.00		8.80		6.697e-02		132.498		1.710e-02		17.248
8		0.00		9.20		6.517e-02		137.321		1.848e-02		17.936
8		0.00		9.60		6.411e-02		130.242		2.054e-02		20.371
8		0.00		10.00		5.853e-02		134.738		1.820e-02		30.592
8		0.00		9.60		6.203e-02		125.342		1.970e-02		40.411
8		0.00		9.20		6.150e-02		130.897		1.760e-02		31.555
8		0.00		8.80		6.491e-02		135.584		1.705e-02		9.208
8		0.00		8.40		6.292e-02		135.558		1.493e-02		7.733
8		0.00		8.00		6.076e-02		133.642		1.488e-02		10.950
8		0.00		7.60		5.807e-02		131.314		1.638e-02		13.076
8		0.00		7.20		5.455e-02		131.742		1.600e-02		10.370
8		0.00		6.80		5.185e-02		131.758		1.566e-02		10.131
8		0.00		6.40		4.889e-02		129.431		1.426e-02		17.186
8		0.00		6.00		4.624e-02		131.232		1.355e-02		10.772
8		0.00		5.60		4.307e-02		130.610		1.097e-02		6.737
8		0.00		5.20		4.042e-02		131.991		8.534e-03		5.149
8		0.00		4.80		3.696e-02		133.181		7.363e-03		5.667
8		0.00		4.40		3.289e-02		134.095		6.688e-03		6.371
8		0.00		4.00		2.867e-02		133.499		6.408e-03		8.543
8		0.00		3.60		2.442e-02		132.520		5.694e-03		11.579
8		0.00		3.20		2.066e-02		132.155		4.807e-03		12.953
8		0.00		2.80		1.638e-02		131.408		3.944e-03		11.187
8		0.00		2.40		1.191e-02		134.929		2.802e-03		11.283
8		0.00		2.00		7.348e-03		129.714		1.747e-03		14.422
8		0.00		1.60		3.241e-03		113.791		1.208e-03		49.791
8		0.00		1.20		2.126e-03		-31.423		9.617e-04		46.078
8		0.00		0.80		6.256e-03		-53.015		1.691e-03		16.928
8		0.00		0.40		1.048e-02		-41.591		2.513e-03		12.783
8		0.00		0.00		1.476e-02		-50.040		3.795e-03		12.638
8		0.00		-0.40		1.887e-02		-49.429		5.065e-03		10.468
8		0.00		-0.80		2.327e-02		-49.122		5.943e-03		8.304
8		0.00		-1.20		2.814e-02		-51.568		6.338e-03		7.317
8		0.00		-1.60		3.207e-02		-52.748		6.419e-03		6.165
8		0.00		-2.00		3.605e-02		-52.283		7.004e-03		5.472
8		0.00		-2.40		3.921e-02		-50.301		8.225e-03		6.436
8		0.00		-2.80		4.223e-02		-52.160		9.754e-03		8.649
8		0.00		-3.20		4.660e-02		-51.526		1.148e-02		9.247
8		0.00		-3.60		5.107e-02		-52.558		1.265e-02		12.467
8		0.00		-4.00		5.510e-02		-54.465		1.420e-02		10.640
8		0.00		-4.40		5.847e-02		-52.334		1.323e-02		6.688
8		0.00		-4.80		6.248e-02		-51.657		1.335e-02		7.234
8		0.00		-5.20		6.502e-02		-48.408		1.298e-02		9.060
8		0.00		-5.60		6.418e-02		-48.433		1.381e-02		11.398
8		0.00		-6.00		6.445e-02		-43.036		1.470e-02		12.485
8		0.00		-6.40		6.471e-02		-43.079		1.735e-02		12.752
8		0.00		-6.80		6.152e-02		-38.642		1.652e-02		19.652
8		0.00		-7.20		6.655e-02		-40.028		1.894e-02		20.105
8		0.00		-7.60		6.307e-02		-46.053		1.885e-02		20.814
8		0.00		-8.00		6.819e-02		-38.145		1.931e-02		15.786
8		0.00		-8.40		6.712e-02		-36.117		1.666e-02		18.649
8		0.00		-8.80		6.482e-02		-36.652		1.861e-02		17.949
8		0.00		-9.20		6.199e-02		-36.606		1.881e-02		16.220
8		0.00		-9.60		5.927e-02		-40.620		1.954e-02		12.003
8		0.00		-10.00		5.450e-02		-45.262		1.812e-02		19.000
8		0.00		-9.60		5.806e-02		-42.406		1.931e-02		19.620
8		0.00		-9.20		5.968e-02		-39.810		1.814e-02		20.930
8		0.00		-8.80		6.179e-02		-41.100		1.689e-02		12.153
8		0.00		-8.40		6.569e-02		-41.419		1.472e-02		9.234
8		0.00		-8.00		6.628e-02		-42.524		1.499e-02		11.486
8		0.00		-7.60		6.580e-02		-46.960		1.485e-02		13.010
8		0.00		-7.20		6.287e-02		-45.882		1.496e-02		11.216
8		0.00		-6.80		6.238e-02		-49.013		1.567e-02		12.655
8		0.00		-6.40		5.874e-02		-48.662		1.515e-02		14.525
8		0.00		-6.00		5.630e-02		-49.832		1.448e-02		14.763
8		0.00		-5.60		5.358e-02		-49.814		1.382e-02		14.173
8		0.00		-5.20		5.054e-02		-50.479		1.215e-02		7.838
8		0.00		-4.80		4.673e-02		-51.580		9.917e-03		6.442
8		0.00		-4.40		4.195e-02		-50.435		7.609e-03		6.068
8		0.00		-4.00		3.764e-02		-51.539		6.755e-03		5.406
8		0.00		-3.60		3.305e-02		-51.294		6.470e-03		5.740
8		0.00		-3.20		2.853e-02		-51.710		6.409e-03		8.927
8		0.00		-2.80		2.405e-02		-50.327		6.082e-03		8.814
8		0.00		-2.40		2.028e-02		-48.899		5.387e-03		10.243
8		0.00		-2.00		1.569e-02		-47.214		4.422e-03		11.003
8		0.00		-1.60		1.236e-02		-48.552		3.181e-03		10.354
8		0.00		-1.20		8.133e-03		-46.131		1.849e-03		14.916
8		0.00		-0.80		3.790e-03		-48.306		1.228e-03		25.255
8		0.00		-0.40		1.885e-03		31.459		8.045e-04		70.371
