# Date of analysis: 2024-03-08 10;59
# Segment other properties: height: -74.5765804388146, diff height: 517.3931497145993, deflection: 33.591094784714784, deflection error: 2.4853356840043985, adhesion: 41.69734194943298, phase offset: 0
# 
# Loop index	Read Volt (V)	Write Volt (V)	Amplitude (a.u)	Phase (deg)	Sigma Amp (a.u)	Sigma Pha (deg)	
1		0.00		0.00		1.232e-02		-43.117		2.356e-03		11.910
1		0.00		0.40		6.691e-03		-39.342		1.693e-03		15.308
1		0.00		0.80		2.437e-03		-27.673		1.027e-03		42.526
1		0.00		1.20		4.160e-03		111.176		1.432e-03		24.783
1		0.00		1.60		9.431e-03		121.886		2.204e-03		13.021
1		0.00		2.00		1.468e-02		126.728		2.369e-03		8.858
1		0.00		2.40		1.951e-02		128.483		4.092e-03		13.250
1		0.00		2.80		2.368e-02		127.763		5.024e-03		11.110
1		0.00		3.20		2.836e-02		129.200		5.381e-03		7.723
1		0.00		3.60		3.248e-02		130.069		5.633e-03		7.673
1		0.00		4.00		3.571e-02		130.598		8.141e-03		9.961
1		0.00		4.40		3.902e-02		129.387		9.861e-03		10.028
1		0.00		4.80		4.305e-02		130.683		8.416e-03		5.998
1		0.00		5.20		4.655e-02		133.013		7.920e-03		4.904
1		0.00		5.60		4.789e-02		130.929		1.161e-02		11.324
1		0.00		6.00		5.078e-02		130.230		1.350e-02		10.698
1		0.00		6.40		5.519e-02		132.013		1.083e-02		7.060
1		0.00		6.80		5.452e-02		131.814		1.178e-02		11.763
1		0.00		7.20		5.581e-02		133.245		1.419e-02		14.786
1		0.00		7.60		6.066e-02		133.314		1.515e-02		9.360
1		0.00		8.00		6.230e-02		136.095		1.195e-02		9.565
1		0.00		8.40		6.053e-02		135.545		1.386e-02		15.713
1		0.00		8.80		6.219e-02		133.164		1.751e-02		19.368
1		0.00		9.20		6.651e-02		132.238		1.661e-02		17.061
1		0.00		9.60		6.363e-02		126.351		1.632e-02		34.495
1		0.00		10.00		6.186e-02		129.735		1.607e-02		18.894
1		0.00		9.60		6.408e-02		130.083		1.762e-02		30.093
1		0.00		9.20		6.334e-02		134.780		1.462e-02		13.648
1		0.00		8.80		5.720e-02		129.376		1.419e-02		23.205
1		0.00		8.40		5.795e-02		131.814		1.584e-02		18.775
1		0.00		8.00		5.847e-02		129.321		1.649e-02		18.895
1		0.00		7.60		5.693e-02		132.584		1.282e-02		6.796
1		0.00		7.20		5.166e-02		132.698		1.146e-02		8.591
1		0.00		6.80		4.882e-02		130.539		1.286e-02		14.364
1		0.00		6.40		4.585e-02		130.921		1.201e-02		13.582
1		0.00		6.00		4.336e-02		130.710		9.213e-03		7.460
1		0.00		5.60		3.921e-02		131.970		8.329e-03		8.027
1		0.00		5.20		3.413e-02		129.304		9.007e-03		14.517
1		0.00		4.80		3.048e-02		130.181		7.703e-03		9.814
1		0.00		4.40		2.700e-02		130.887		5.295e-03		7.963
1		0.00		4.00		2.293e-02		130.127		4.875e-03		10.150
1		0.00		3.60		1.804e-02		132.586		4.376e-03		12.776
1		0.00		3.20		1.439e-02		129.705		2.961e-03		9.463
1		0.00		2.80		9.539e-03		131.110		1.916e-03		11.030
1		0.00		2.40		4.967e-03		124.536		1.479e-03		25.116
1		0.00		2.00		2.027e-03		-4.928		8.954e-04		60.947
1		0.00		1.60		5.881e-03		-42.674		1.564e-03		18.085
1		0.00		1.20		1.040e-02		-53.272		2.230e-03		12.306
1		0.00		0.80		1.566e-02		-43.513		3.317e-03		10.120
1		0.00		0.40		2.068e-02		-48.833		4.545e-03		10.130
1		0.00		0.00		2.601e-02		-47.839		4.460e-03		8.679
1		0.00		-0.40		3.087e-02		-48.746		5.123e-03		6.563
1		0.00		-0.80		3.481e-02		-51.737		7.367e-03		9.625
1		0.00		-1.20		3.940e-02		-50.762		8.818e-03		8.959
1		0.00		-1.60		4.495e-02		-51.147		6.972e-03		5.689
1		0.00		-2.00		4.797e-02		-51.129		8.125e-03		6.028
1		0.00		-2.40		5.101e-02		-52.333		1.237e-02		10.551
1		0.00		-2.80		5.495e-02		-52.515		1.326e-02		8.572
1		0.00		-3.20		5.610e-02		-50.597		9.689e-03		6.551
1		0.00		-3.60		6.010e-02		-53.298		1.423e-02		13.459
1		0.00		-4.00		5.890e-02		-49.969		1.613e-02		11.371
1		0.00		-4.40		6.173e-02		-50.129		1.416e-02		12.947
1		0.00		-4.80		6.128e-02		-47.590		1.422e-02		16.499
1		0.00		-5.20		5.957e-02		-46.189		1.798e-02		25.732
1		0.00		-5.60		6.438e-02		-43.647		1.724e-02		16.320
1		0.00		-6.00		6.688e-02		-42.086		1.340e-02		18.587
1		0.00		-6.40		6.771e-02		-40.589		1.826e-02		21.949
1		0.00		-6.80		6.537e-02		-39.607		1.931e-02		21.706
1		0.00		-7.20		6.968e-02		-37.328		1.817e-02		21.966
1		0.00		-7.60		6.549e-02		-39.011		1.767e-02		29.538
1		0.00		-8.00		6.801e-02		-35.670		1.950e-02		27.518
1		0.00		-8.40		6.707e-02		-30.972		1.951e-02		21.110
1		0.00		-8.80		6.763e-02		-37.508		1.885e-02		22.985
1		0.00		-9.20		6.861e-02		-39.107		1.837e-02		20.591
1		0.00		-9.60		6.309e-02		-39.482		1.906e-02		18.400
1		0.00		-10.00		5.998e-02		-38.318		1.569e-02		15.039
1		0.00		-9.60		6.029e-02		-37.754		1.574e-02		17.685
1		0.00		-9.20		6.297e-02		-33.737		1.900e-02		21.241
1		0.00		-8.80		5.981e-02		-43.180		1.854e-02		29.442
1		0.00		-8.40		6.667e-02		-41.675		1.878e-02		19.042
1		0.00		-8.00		6.830e-02		-36.787		1.620e-02		15.859
1		0.00		-7.60		6.150e-02		-42.242		1.715e-02		20.154
1		0.00		-7.20		6.416e-02		-43.266		1.727e-02		15.950
1		0.00		-6.80		6.471e-02		-45.615		1.502e-02		12.082
1		0.00		-6.40		6.105e-02		-51.319		1.762e-02		20.233
1		0.00		-6.00		5.926e-02		-49.542		1.658e-02		16.494
1		0.00		-5.60		5.988e-02		-49.106		1.528e-02		8.758
1		0.00		-5.20		5.560e-02		-49.032		1.003e-02		6.054
1		0.00		-4.80		5.203e-02		-50.315		1.065e-02		8.141
1		0.00		-4.40		4.919e-02		-51.290		1.095e-02		8.577
1		0.00		-4.00		4.554e-02		-52.372		8.724e-03		6.997
1		0.00		-3.60		4.059e-02		-50.580		6.357e-03		5.881
1		0.00		-3.20		3.588e-02		-49.782		7.273e-03		8.322
1		0.00		-2.80		3.122e-02		-49.939		6.778e-03		7.250
1		0.00		-2.40		2.742e-02		-48.297		4.416e-03		8.482
1		0.00		-2.00		2.238e-02		-48.068		3.966e-03		9.089
1		0.00		-1.60		1.765e-02		-43.824		3.806e-03		10.159
1		0.00		-1.20		1.286e-02		-42.341		2.437e-03		9.824
1		0.00		-0.80		7.798e-03		-39.244		1.793e-03		15.834
1		0.00		-0.40		3.407e-03		-30.846		1.165e-03		35.931
2		0.00		0.00		2.602e-03		65.224		1.151e-03		53.909
2		0.00		0.40		7.056e-03		118.212		1.901e-03		20.501
2		0.00		0.80		1.127e-02		126.438		2.477e-03		9.999
2		0.00		1.20		1.527e-02		126.254		4.045e-03		14.009
2		0.00		1.60		1.994e-02		127.055		4.571e-03		9.435
2		0.00		2.00		2.453e-02		127.577		4.368e-03		6.907
2		0.00		2.40		2.710e-02		128.562		6.096e-03		8.755
2		0.00		2.80		3.048e-02		129.108		7.875e-03		11.922
2		0.00		3.20		3.453e-02		129.215		7.132e-03		6.787
2		0.00		3.60		3.853e-02		130.903		7.433e-03		5.896
2		0.00		4.00		4.100e-02		129.667		1.041e-02		13.251
2		0.00		4.40		4.428e-02		130.325		1.040e-02		8.530
2		0.00		4.80		4.760e-02		132.518		8.291e-03		4.801
2		0.00		5.20		4.980e-02		131.235		1.106e-02		9.648
2		0.00		5.60		5.238e-02		131.069		1.310e-02		10.236
2		0.00		6.00		5.497e-02		132.295		1.193e-02		6.951
2		0.00		6.40		5.618e-02		133.478		1.092e-02		9.009
2		0.00		6.80		5.765e-02		131.969		1.509e-02		15.910
2		0.00		7.20		6.073e-02		131.547		1.571e-02		19.390
2		0.00		7.60		6.150e-02		136.483		1.298e-02		9.883
2		0.00		8.00		5.832e-02		126.523		1.456e-02		32.245
2		0.00		8.40		5.858e-02		128.596		1.693e-02		36.725
2		0.00		8.80		6.599e-02		128.319		1.839e-02		38.057
2		0.00		9.20		6.463e-02		128.379		1.618e-02		34.447
2		0.00		9.60		6.499e-02		129.280		2.021e-02		23.470
2		0.00		10.00		6.008e-02		122.179		2.184e-02		37.842
2		0.00		9.60		6.313e-02		132.384		1.945e-02		14.193
2		0.00		9.20		6.467e-02		128.464		1.690e-02		36.847
2		0.00		8.80		6.018e-02		125.320		1.955e-02		29.176
2		0.00		8.40		5.890e-02		131.053		1.735e-02		16.199
2		0.00		8.00		5.771e-02		134.471		1.449e-02		8.742
2		0.00		7.60		5.447e-02		131.443		1.399e-02		12.547
2		0.00		7.20		5.229e-02		129.552		1.552e-02		16.611
2		0.00		6.80		5.097e-02		130.589		1.328e-02		14.889
2		0.00		6.40		4.873e-02		131.040		1.005e-02		8.345
2		0.00		6.00		4.534e-02		132.571		8.277e-03		6.200
2		0.00		5.60		4.147e-02		130.853		9.515e-03		11.252
2		0.00		5.20		3.762e-02		130.932		8.854e-03		9.514
2		0.00		4.80		3.474e-02		133.003		6.979e-03		8.503
2		0.00		4.40		3.123e-02		132.592		5.791e-03		7.178
2		0.00		4.00		2.647e-02		131.519		5.873e-03		11.004
2		0.00		3.60		2.213e-02		129.524		4.945e-03		9.469
2		0.00		3.20		1.822e-02		133.624		3.182e-03		9.461
2		0.00		2.80		1.382e-02		129.349		2.494e-03		10.436
2		0.00		2.40		9.146e-03		129.237		2.044e-03		13.690
2		0.00		2.00		4.295e-03		121.654		1.355e-03		31.503
2		0.00		1.60		1.866e-03		-11.608		8.335e-04		60.678
2		0.00		1.20		5.965e-03		-49.256		1.778e-03		17.003
2		0.00		0.80		1.068e-02		-47.161		2.476e-03		13.519
2		0.00		0.40		1.523e-02		-46.731		3.789e-03		11.214
2		0.00		0.00		1.993e-02		-50.475		3.765e-03		9.608
2		0.00		-0.40		2.478e-02		-49.183		4.061e-03		7.584
2		0.00		-0.80		2.930e-02		-49.684		5.968e-03		6.822
2		0.00		-1.20		3.291e-02		-51.324		8.209e-03		8.766
2		0.00		-1.60		3.738e-02		-51.283		8.416e-03		8.447
2		0.00		-2.00		4.281e-02		-51.172		7.543e-03		7.437
2		0.00		-2.40		4.615e-02		-50.897		8.705e-03		7.021
2		0.00		-2.80		5.001e-02		-52.641		1.195e-02		12.348
2		0.00		-3.20		5.411e-02		-52.744		1.230e-02		8.416
2		0.00		-3.60		5.864e-02		-51.854		9.984e-03		6.508
2		0.00		-4.00		5.886e-02		-50.308		9.908e-03		5.394
2		0.00		-4.40		5.997e-02		-50.830		1.430e-02		10.366
2		0.00		-4.80		6.232e-02		-48.211		1.569e-02		10.739
2		0.00		-5.20		6.488e-02		-48.978		1.570e-02		11.217
2		0.00		-5.60		6.556e-02		-43.807		1.506e-02		14.556
2		0.00		-6.00		6.153e-02		-48.206		1.642e-02		22.709
2		0.00		-6.40		6.548e-02		-39.196		1.784e-02		14.978
2		0.00		-6.80		6.674e-02		-41.720		1.844e-02		20.440
2		0.00		-7.20		6.871e-02		-39.118		1.571e-02		18.663
2		0.00		-7.60		6.493e-02		-36.277		1.759e-02		26.083
2		0.00		-8.00		6.911e-02		-46.004		2.433e-02		28.077
2		0.00		-8.40		6.427e-02		-38.215		2.066e-02		32.231
2		0.00		-8.80		6.796e-02		-44.318		2.142e-02		21.660
2		0.00		-9.20		6.405e-02		-40.058		1.772e-02		20.131
2		0.00		-9.60		5.877e-02		-42.502		1.892e-02		21.171
2		0.00		-10.00		5.601e-02		-43.954		1.786e-02		17.295
2		0.00		-9.60		6.085e-02		-40.821		1.904e-02		21.117
2		0.00		-9.20		6.499e-02		-36.628		1.896e-02		13.692
2		0.00		-8.80		6.657e-02		-45.063		1.887e-02		19.811
2		0.00		-8.40		6.358e-02		-43.411		1.816e-02		23.195
2		0.00		-8.00		6.407e-02		-44.446		1.956e-02		23.761
2		0.00		-7.60		6.674e-02		-43.544		1.699e-02		19.462
2		0.00		-7.20		6.423e-02		-43.566		1.381e-02		11.917
2		0.00		-6.80		6.200e-02		-45.458		1.379e-02		13.444
2		0.00		-6.40		6.290e-02		-48.051		1.475e-02		14.534
2		0.00		-6.00		6.051e-02		-48.018		1.408e-02		8.565
2		0.00		-5.60		5.903e-02		-46.942		1.438e-02		10.124
2		0.00		-5.20		5.679e-02		-49.953		1.148e-02		7.438
2		0.00		-4.80		5.306e-02		-51.141		8.537e-03		6.267
2		0.00		-4.40		4.812e-02		-50.309		7.806e-03		5.196
2		0.00		-4.00		4.340e-02		-50.335		8.555e-03		7.944
2		0.00		-3.60		3.862e-02		-51.088		9.335e-03		9.542
2		0.00		-3.20		3.470e-02		-51.662		6.753e-03		7.461
2		0.00		-2.80		3.077e-02		-50.127		4.669e-03		6.976
2		0.00		-2.40		2.623e-02		-49.130		4.270e-03		7.930
2		0.00		-2.00		2.126e-02		-48.217		4.388e-03		8.972
2		0.00		-1.60		1.627e-02		-48.011		3.748e-03		12.301
2		0.00		-1.20		1.196e-02		-45.582		2.452e-03		11.495
2		0.00		-0.80		6.865e-03		-36.600		1.439e-03		16.034
2		0.00		-0.40		2.827e-03		-20.552		1.209e-03		39.557
3		0.00		0.00		3.428e-03		101.346		1.223e-03		39.224
3		0.00		0.40		7.437e-03		119.761		2.076e-03		18.433
3		0.00		0.80		1.254e-02		127.683		2.516e-03		9.788
3		0.00		1.20		1.684e-02		127.083		2.918e-03		9.376
3		0.00		1.60		2.127e-02		128.571		4.134e-03		8.315
3		0.00		2.00		2.555e-02		129.380		5.495e-03		9.298
3		0.00		2.40		2.903e-02		127.700		6.889e-03		8.619
3		0.00		2.80		3.402e-02		129.265		6.413e-03		6.558
3		0.00		3.20		3.746e-02		130.447		6.419e-03		7.012
3		0.00		3.60		3.989e-02		130.350		8.197e-03		8.580
3		0.00		4.00		4.260e-02		129.262		9.889e-03		11.544
3		0.00		4.40		4.560e-02		130.490		1.030e-02		7.431
3		0.00		4.80		4.971e-02		131.235		8.702e-03		6.468
3		0.00		5.20		5.065e-02		132.122		1.040e-02		8.288
3		0.00		5.60		5.172e-02		130.919		1.391e-02		11.706
3		0.00		6.00		5.450e-02		130.667		1.561e-02		10.155
3		0.00		6.40		5.611e-02		133.888		1.271e-02		7.546
3		0.00		6.80		5.580e-02		132.839		1.349e-02		13.838
3		0.00		7.20		5.806e-02		131.536		1.687e-02		15.743
3		0.00		7.60		5.971e-02		132.942		1.643e-02		24.141
3		0.00		8.00		6.400e-02		134.504		1.642e-02		10.390
3		0.00		8.40		6.263e-02		128.589		1.737e-02		25.046
3		0.00		8.80		6.325e-02		130.941		1.891e-02		22.191
3		0.00		9.20		6.490e-02		129.431		1.984e-02		30.293
3		0.00		9.60		6.327e-02		123.917		1.733e-02		51.013
3		0.00		10.00		6.396e-02		132.970		1.580e-02		21.710
3		0.00		9.60		6.445e-02		128.846		1.776e-02		29.022
3		0.00		9.20		6.304e-02		130.393		1.858e-02		21.821
3		0.00		8.80		6.279e-02		135.206		1.576e-02		15.147
3		0.00		8.40		6.208e-02		134.643		1.406e-02		8.624
3		0.00		8.00		5.925e-02		134.869		1.166e-02		10.085
3		0.00		7.60		5.709e-02		131.405		1.350e-02		14.630
3		0.00		7.20		5.524e-02		131.396		1.409e-02		13.593
3		0.00		6.80		5.368e-02		130.058		1.373e-02		9.214
3		0.00		6.40		5.081e-02		132.442		1.004e-02		6.672
3		0.00		6.00		4.635e-02		133.003		8.505e-03		6.101
3		0.00		5.60		4.230e-02		131.544		9.673e-03		9.164
3		0.00		5.20		3.834e-02		130.501		9.606e-03		12.620
3		0.00		4.80		3.469e-02		132.522		7.645e-03		8.548
3		0.00		4.40		3.143e-02		132.283		5.388e-03		6.734
3		0.00		4.00		2.689e-02		132.520		5.229e-03		8.765
3		0.00		3.60		2.292e-02		131.112		5.539e-03		10.941
3		0.00		3.20		1.824e-02		130.617		3.995e-03		8.059
3		0.00		2.80		1.410e-02		132.355		2.746e-03		9.492
3		0.00		2.40		1.007e-02		127.892		2.015e-03		11.396
3		0.00		2.00		4.947e-03		116.813		1.476e-03		26.373
3		0.00		1.60		1.873e-03		4.067		7.433e-04		72.644
3		0.00		1.20		5.503e-03		-50.586		1.740e-03		19.305
3		0.00		0.80		1.037e-02		-49.158		1.987e-03		11.838
3		0.00		0.40		1.488e-02		-45.236		3.102e-03		10.396
3		0.00		0.00		1.982e-02		-48.159		4.093e-03		8.774
3		0.00		-0.40		2.509e-02		-50.047		4.587e-03		6.836
3		0.00		-0.80		2.999e-02		-48.843		4.363e-03		7.098
3		0.00		-1.20		3.413e-02		-50.002		5.802e-03		6.604
3		0.00		-1.60		3.837e-02		-50.919		8.157e-03		9.566
3		0.00		-2.00		4.190e-02		-52.569		8.926e-03		8.539
3		0.00		-2.40		4.735e-02		-52.122		8.064e-03		5.617
3		0.00		-2.80		5.077e-02		-52.245		8.247e-03		5.171
3		0.00		-3.20		5.259e-02		-52.307		1.214e-02		9.701
3		0.00		-3.60		5.686e-02		-53.743		1.521e-02		10.851
3		0.00		-4.00		5.916e-02		-52.535		1.386e-02		7.095
3		0.00		-4.40		5.851e-02		-49.943		1.214e-02		10.394
3		0.00		-4.80		6.222e-02		-51.342		1.643e-02		14.914
3		0.00		-5.20		6.238e-02		-45.469		1.736e-02		15.309
3		0.00		-5.60		6.415e-02		-44.423		1.721e-02		12.452
3		0.00		-6.00		6.441e-02		-44.290		1.318e-02		13.679
3		0.00		-6.40		6.612e-02		-44.927		1.949e-02		21.297
3		0.00		-6.80		6.194e-02		-47.947		1.850e-02		26.652
3		0.00		-7.20		6.504e-02		-36.510		1.818e-02		24.279
3		0.00		-7.60		6.975e-02		-38.436		1.637e-02		18.420
3		0.00		-8.00		6.915e-02		-38.736		1.938e-02		25.702
3		0.00		-8.40		6.826e-02		-42.410		1.979e-02		26.315
3		0.00		-8.80		6.519e-02		-40.641		1.976e-02		24.470
3		0.00		-9.20		6.585e-02		-40.574		1.858e-02		25.619
3		0.00		-9.60		6.134e-02		-38.805		1.538e-02		18.182
3		0.00		-10.00		6.061e-02		-41.540		1.553e-02		11.813
3		0.00		-9.60		6.231e-02		-42.433		1.715e-02		14.685
3		0.00		-9.20		6.578e-02		-36.189		1.952e-02		22.460
3		0.00		-8.80		6.370e-02		-36.710		1.694e-02		16.413
3		0.00		-8.40		6.544e-02		-40.675		1.529e-02		20.218
3		0.00		-8.00		6.614e-02		-38.808		1.653e-02		19.880
3		0.00		-7.60		6.282e-02		-44.244		1.754e-02		18.800
3		0.00		-7.20		6.512e-02		-43.978		1.910e-02		12.662
3		0.00		-6.80		6.257e-02		-45.756		1.797e-02		10.500
3		0.00		-6.40		6.158e-02		-45.875		1.248e-02		6.654
3		0.00		-6.00		5.891e-02		-48.534		1.193e-02		10.420
3		0.00		-5.60		5.707e-02		-49.816		1.273e-02		11.954
3		0.00		-5.20		5.363e-02		-49.317		1.291e-02		10.611
3		0.00		-4.80		5.077e-02		-50.321		1.321e-02		10.550
3		0.00		-4.40		4.689e-02		-52.569		9.437e-03		6.032
3		0.00		-4.00		4.349e-02		-51.426		6.945e-03		5.441
3		0.00		-3.60		3.859e-02		-50.114		6.790e-03		7.044
3		0.00		-3.20		3.425e-02		-50.141		7.186e-03		7.781
3		0.00		-2.80		2.926e-02		-49.665		6.868e-03		10.280
3		0.00		-2.40		2.572e-02		-51.039		5.066e-03		8.141
3		0.00		-2.00		2.124e-02		-46.980		3.286e-03		6.820
3		0.00		-1.60		1.663e-02		-44.775		2.814e-03		8.161
3		0.00		-1.20		1.153e-02		-44.335		2.431e-03		12.105
3		0.00		-0.80		6.677e-03		-36.220		1.935e-03		20.063
3		0.00		-0.40		2.597e-03		-32.785		1.086e-03		43.382
4		0.00		0.00		3.246e-03		101.035		1.158e-03		36.597
4		0.00		0.40		7.659e-03		124.440		1.828e-03		14.241
4		0.00		0.80		1.150e-02		126.542		2.640e-03		9.911
4		0.00		1.20		1.577e-02		126.126		4.306e-03		12.804
4		0.00		1.60		2.033e-02		129.206		4.958e-03		8.110
4		0.00		2.00		2.451e-02		129.008		5.231e-03		7.247
4		0.00		2.40		2.867e-02		129.599		5.383e-03		6.992
4		0.00		2.80		3.168e-02		130.408		6.834e-03		8.331
4		0.00		3.20		3.428e-02		128.454		9.054e-03		13.763
4		0.00		3.60		3.754e-02		128.068		1.001e-02		11.573
4		0.00		4.00		4.129e-02		130.486		9.785e-03		7.208
4		0.00		4.40		4.489e-02		132.304		8.552e-03		5.176
4		0.00		4.80		4.680e-02		132.419		9.283e-03		6.105
4		0.00		5.20		4.982e-02		131.415		1.115e-02		10.926
4		0.00		5.60		5.253e-02		131.656		1.235e-02		12.234
4		0.00		6.00		5.539e-02		130.637		1.395e-02		9.968
4		0.00		6.40		5.741e-02		132.409		1.188e-02		6.048
4		0.00		6.80		5.855e-02		134.096		1.151e-02		7.658
4		0.00		7.20		5.989e-02		131.645		1.438e-02		14.693
4		0.00		7.60		6.189e-02		132.618		1.538e-02		12.516
4		0.00		8.00		6.385e-02		133.026		1.744e-02		20.102
4		0.00		8.40		6.415e-02		132.671		1.725e-02		26.455
4		0.00		8.80		6.529e-02		135.865		1.562e-02		13.216
4		0.00		9.20		6.550e-02		126.274		1.669e-02		42.129
4		0.00		9.60		6.335e-02		126.571		1.873e-02		30.929
4		0.00		10.00		6.220e-02		134.140		1.941e-02		22.403
4		0.00		9.60		6.381e-02		128.161		2.053e-02		29.774
4		0.00		9.20		6.521e-02		130.420		1.962e-02		18.284
4		0.00		8.80		6.390e-02		132.936		1.742e-02		10.015
4		0.00		8.40		6.076e-02		134.884		1.425e-02		9.092
4		0.00		8.00		5.855e-02		135.450		1.158e-02		10.080
4		0.00		7.60		5.583e-02		131.289		1.349e-02		13.020
4		0.00		7.20		5.410e-02		130.046		1.426e-02		14.710
4		0.00		6.80		5.186e-02		131.342		1.351e-02		12.817
4		0.00		6.40		4.997e-02		131.438		1.219e-02		11.028
4		0.00		6.00		4.696e-02		131.289		1.077e-02		6.568
4		0.00		5.60		4.361e-02		131.705		8.698e-03		6.407
4		0.00		5.20		4.002e-02		133.708		7.388e-03		5.774
4		0.00		4.80		3.560e-02		133.474		6.762e-03		6.184
4		0.00		4.40		3.100e-02		132.988		6.665e-03		10.088
4		0.00		4.00		2.727e-02		131.342		6.494e-03		13.258
4		0.00		3.60		2.318e-02		129.667		5.353e-03		10.764
4		0.00		3.20		1.915e-02		131.824		4.077e-03		8.594
4		0.00		2.80		1.471e-02		132.519		2.630e-03		9.692
4		0.00		2.40		1.055e-02		129.128		2.162e-03		10.784
4		0.00		2.00		5.769e-03		129.706		1.500e-03		14.526
4		0.00		1.60		1.942e-03		42.386		7.619e-04		67.905
4		0.00		1.20		3.847e-03		-43.898		1.315e-03		23.309
4		0.00		0.80		8.435e-03		-39.298		2.187e-03		12.056
4		0.00		0.40		1.323e-02		-49.532		2.861e-03		11.069
4		0.00		0.00		1.796e-02		-49.156		3.406e-03		9.544
4		0.00		-0.40		2.205e-02		-46.771		4.389e-03		8.856
4		0.00		-0.80		2.592e-02		-50.487		6.254e-03		10.216
4		0.00		-1.20		3.059e-02		-50.805		7.832e-03		9.518
4		0.00		-1.60		3.483e-02		-52.744		8.286e-03		8.971
4		0.00		-2.00		4.033e-02		-51.566		7.299e-03		6.137
4		0.00		-2.40		4.416e-02		-51.244		7.233e-03		5.038
4		0.00		-2.80		4.787e-02		-51.265		8.834e-03		6.971
4		0.00		-3.20		5.093e-02		-50.984		1.096e-02		8.197
4		0.00		-3.60		5.490e-02		-51.975		1.330e-02		10.666
4		0.00		-4.00		5.834e-02		-52.497		1.338e-02		7.339
4		0.00		-4.40		5.986e-02		-51.437		1.038e-02		8.278
4		0.00		-4.80		6.097e-02		-51.311		1.235e-02		13.364
4		0.00		-5.20		6.426e-02		-48.771		1.576e-02		11.546
4		0.00		-5.60		6.289e-02		-45.365		1.594e-02		14.659
4		0.00		-6.00		6.507e-02		-45.629		1.771e-02		16.896
4		0.00		-6.40		6.814e-02		-43.749		1.557e-02		12.589
4		0.00		-6.80		6.474e-02		-40.585		1.496e-02		16.667
4		0.00		-7.20		6.430e-02		-38.531		1.721e-02		22.749
4		0.00		-7.60		6.491e-02		-45.881		1.805e-02		22.587
4		0.00		-8.00		6.778e-02		-42.572		1.952e-02		23.705
4		0.00		-8.40		6.579e-02		-38.997		1.958e-02		22.806
4		0.00		-8.80		6.479e-02		-35.505		1.891e-02		23.382
4		0.00		-9.20		6.663e-02		-37.621		1.926e-02		17.760
4		0.00		-9.60		6.104e-02		-40.027		1.947e-02		18.686
4		0.00		-10.00		5.645e-02		-42.630		1.748e-02		21.642
4		0.00		-9.60		6.240e-02		-37.099		1.809e-02		18.452
4		0.00		-9.20		6.734e-02		-39.034		1.723e-02		14.033
4		0.00		-8.80		6.750e-02		-38.104		1.625e-02		16.930
4		0.00		-8.40		6.768e-02		-40.422		1.519e-02		12.808
4		0.00		-8.00		6.426e-02		-42.980		1.723e-02		18.895
4		0.00		-7.60		6.300e-02		-38.940		1.660e-02		19.152
4		0.00		-7.20		6.662e-02		-42.909		1.556e-02		9.469
4		0.00		-6.80		6.342e-02		-44.395		1.170e-02		8.764
4		0.00		-6.40		5.952e-02		-48.587		1.414e-02		14.950
4		0.00		-6.00		5.796e-02		-49.484		1.434e-02		16.676
4		0.00		-5.60		5.693e-02		-48.972		1.358e-02		13.510
4		0.00		-5.20		5.494e-02		-49.535		1.268e-02		7.818
4		0.00		-4.80		5.164e-02		-50.077		9.634e-03		4.760
4		0.00		-4.40		4.638e-02		-49.889		8.540e-03		5.798
4		0.00		-4.00		4.168e-02		-52.314		9.130e-03		8.019
4		0.00		-3.60		3.713e-02		-51.226		9.305e-03		8.578
4		0.00		-3.20		3.286e-02		-49.985		8.182e-03		7.801
4		0.00		-2.80		2.925e-02		-50.869		5.972e-03		8.154
4		0.00		-2.40		2.482e-02		-50.753		4.428e-03		7.630
4		0.00		-2.00		2.023e-02		-47.710		4.240e-03		8.862
4		0.00		-1.60		1.524e-02		-45.442		3.453e-03		8.862
4		0.00		-1.20		1.096e-02		-43.313		2.674e-03		11.585
4		0.00		-0.80		6.746e-03		-40.966		1.613e-03		14.652
4		0.00		-0.40		2.551e-03		-31.844		1.037e-03		48.861
5		0.00		0.00		3.314e-03		92.962		1.475e-03		32.402
5		0.00		0.40		7.795e-03		119.209		2.338e-03		21.167
5		0.00		0.80		1.230e-02		127.385		2.691e-03		10.362
5		0.00		1.20		1.680e-02		127.705		2.797e-03		8.422
5		0.00		1.60		2.126e-02		129.593		3.663e-03		8.258
5		0.00		2.00		2.569e-02		129.987		5.080e-03		9.674
5		0.00		2.40		2.883e-02		128.976		6.395e-03		10.241
5		0.00		2.80		3.318e-02		129.412		6.706e-03		8.087
5		0.00		3.20		3.708e-02		130.164		5.912e-03		5.956
5		0.00		3.60		4.011e-02		131.396		7.272e-03		7.416
5		0.00		4.00		4.234e-02		131.375		9.939e-03		11.466
5		0.00		4.40		4.488e-02		130.480		1.180e-02		8.250
5		0.00		4.80		4.873e-02		131.047		9.307e-03		6.385
5		0.00		5.20		5.061e-02		133.140		9.426e-03		6.395
5		0.00		5.60		5.154e-02		131.311		1.263e-02		11.065
5		0.00		6.00		5.441e-02		130.198		1.492e-02		13.987
5		0.00		6.40		5.751e-02		132.856		1.206e-02		6.394
5		0.00		6.80		5.843e-02		133.411		1.144e-02		10.079
5		0.00		7.20		6.004e-02		130.819		1.631e-02		18.836
5		0.00		7.60		6.135e-02		134.077		1.649e-02		14.035
5		0.00		8.00		6.410e-02		135.795		1.548e-02		9.211
5		0.00		8.40		6.373e-02		135.506		1.419e-02		18.334
5		0.00		8.80		6.525e-02		132.539		1.826e-02		23.510
5		0.00		9.20		6.357e-02		130.740		1.923e-02		29.955
5		0.00		9.60		6.586e-02		129.404		1.743e-02		26.643
5		0.00		10.00		6.251e-02		132.457		1.485e-02		34.362
5		0.00		9.60		6.766e-02		131.935		1.700e-02		23.553
5		0.00		9.20		6.516e-02		129.235		1.850e-02		25.091
5		0.00		8.80		6.404e-02		134.766		1.622e-02		18.126
5		0.00		8.40		6.288e-02		135.891		1.332e-02		9.639
5		0.00		8.00		5.890e-02		136.642		1.224e-02		11.951
5		0.00		7.60		5.937e-02		131.438		1.482e-02		15.123
5		0.00		7.20		5.585e-02		132.667		1.440e-02		12.545
5		0.00		6.80		5.394e-02		132.864		1.243e-02		6.538
5		0.00		6.40		5.038e-02		134.817		9.391e-03		6.030
5		0.00		6.00		4.668e-02		131.633		1.038e-02		10.373
5		0.00		5.60		4.346e-02		130.633		1.121e-02		12.856
5		0.00		5.20		3.940e-02		131.840		9.917e-03		7.600
5		0.00		4.80		3.667e-02		132.523		6.751e-03		5.766
5		0.00		4.40		3.265e-02		133.079		6.277e-03		6.980
5		0.00		4.00		2.783e-02		132.546		6.678e-03		11.499
5		0.00		3.60		2.385e-02		130.359		5.926e-03		10.475
5		0.00		3.20		1.989e-02		130.582		3.393e-03		8.283
5		0.00		2.80		1.606e-02		131.314		2.557e-03		7.130
5		0.00		2.40		1.107e-02		130.330		2.457e-03		12.334
5		0.00		2.00		6.466e-03		120.607		1.918e-03		22.611
5		0.00		1.60		2.421e-03		70.423		1.095e-03		77.227
5		0.00		1.20		3.496e-03		-57.553		1.419e-03		29.380
5		0.00		0.80		8.168e-03		-47.291		2.031e-03		12.288
5		0.00		0.40		1.275e-02		-47.284		2.885e-03		9.774
5		0.00		0.00		1.733e-02		-48.280		3.226e-03		9.879
5		0.00		-0.40		2.229e-02		-48.032		3.220e-03		6.748
5		0.00		-0.80		2.683e-02		-46.540		3.999e-03		7.786
5		0.00		-1.20		3.080e-02		-50.156		6.040e-03		7.732
5		0.00		-1.60		3.537e-02		-51.062		6.780e-03		7.609
5		0.00		-2.00		4.022e-02		-51.511		5.969e-03		6.179
5		0.00		-2.40		4.333e-02		-50.527		8.090e-03		8.683
5		0.00		-2.80		4.708e-02		-52.203		1.101e-02		8.847
5		0.00		-3.20		5.042e-02		-53.579		1.225e-02		8.569
5		0.00		-3.60		5.512e-02		-52.674		8.492e-03		6.048
5		0.00		-4.00		5.703e-02		-52.435		1.119e-02		9.049
5		0.00		-4.40		5.734e-02		-52.086		1.506e-02		13.502
5		0.00		-4.80		6.173e-02		-49.623		1.548e-02		9.300
5		0.00		-5.20		6.081e-02		-47.662		1.201e-02		12.097
5		0.00		-5.60		6.589e-02		-46.028		1.276e-02		8.773
5		0.00		-6.00		6.379e-02		-47.188		1.676e-02		17.120
5		0.00		-6.40		6.651e-02		-40.781		1.522e-02		13.594
5		0.00		-6.80		6.563e-02		-46.915		1.671e-02		22.381
5		0.00		-7.20		6.628e-02		-38.719		1.575e-02		19.545
5		0.00		-7.60		6.597e-02		-39.140		1.908e-02		20.994
5		0.00		-8.00		6.899e-02		-37.452		1.714e-02		19.455
5		0.00		-8.40		7.056e-02		-39.362		1.619e-02		20.865
5		0.00		-8.80		6.867e-02		-39.758		1.949e-02		20.450
5		0.00		-9.20		6.368e-02		-33.815		1.754e-02		25.226
5		0.00		-9.60		6.480e-02		-39.448		1.806e-02		17.100
5		0.00		-10.00		5.666e-02		-41.765		1.333e-02		14.765
5		0.00		-9.60		6.318e-02		-43.014		1.754e-02		17.360
5		0.00		-9.20		6.152e-02		-36.704		1.694e-02		21.431
5		0.00		-8.80		6.444e-02		-36.061		1.719e-02		18.435
5		0.00		-8.40		6.442e-02		-43.134		1.736e-02		22.442
5		0.00		-8.00		6.470e-02		-41.239		1.957e-02		17.768
5		0.00		-7.60		6.549e-02		-42.814		1.709e-02		14.916
5		0.00		-7.20		6.481e-02		-44.542		1.584e-02		17.328
5		0.00		-6.80		6.271e-02		-47.535		1.706e-02		16.868
5		0.00		-6.40		6.106e-02		-49.777		1.681e-02		18.676
5		0.00		-6.00		6.081e-02		-46.954		1.457e-02		7.707
5		0.00		-5.60		5.808e-02		-48.929		1.118e-02		7.835
5		0.00		-5.20		5.407e-02		-49.916		1.171e-02		8.139
5		0.00		-4.80		5.101e-02		-50.854		1.210e-02		10.549
5		0.00		-4.40		4.835e-02		-51.566		9.150e-03		5.756
5		0.00		-4.00		4.398e-02		-51.093		6.191e-03		5.485
5		0.00		-3.60		3.894e-02		-48.976		7.249e-03		7.454
5		0.00		-3.20		3.423e-02		-50.930		7.128e-03		8.759
5		0.00		-2.80		3.036e-02		-49.127		4.617e-03		6.615
5		0.00		-2.40		2.574e-02		-46.352		4.015e-03		7.327
5		0.00		-2.00		2.037e-02		-47.227		3.906e-03		10.961
5		0.00		-1.60		1.581e-02		-45.081		2.771e-03		10.125
5		0.00		-1.20		1.174e-02		-44.738		1.932e-03		9.547
5		0.00		-0.80		6.885e-03		-43.031		1.613e-03		18.366
5		0.00		-0.40		2.332e-03		-17.780		1.033e-03		45.805
6		0.00		0.00		3.821e-03		103.593		1.413e-03		30.862
6		0.00		0.40		8.193e-03		121.879		1.849e-03		12.058
6		0.00		0.80		1.214e-02		125.779		2.635e-03		14.426
6		0.00		1.20		1.642e-02		128.197		3.633e-03		10.002
6		0.00		1.60		2.140e-02		130.785		3.340e-03		8.408
6		0.00		2.00		2.496e-02		128.906		4.462e-03		6.313
6		0.00		2.40		2.854e-02		128.112		6.707e-03		10.359
6		0.00		2.80		3.287e-02		130.406		6.580e-03		6.933
6		0.00		3.20		3.724e-02		132.056		6.001e-03		5.264
6		0.00		3.60		3.922e-02		130.652		8.885e-03		8.495
6		0.00		4.00		4.116e-02		129.799		1.014e-02		8.878
6		0.00		4.40		4.574e-02		131.647		7.992e-03		5.913
6		0.00		4.80		4.809e-02		132.134		9.084e-03		7.556
6		0.00		5.20		5.039e-02		131.530		1.178e-02		10.865
6		0.00		5.60		5.480e-02		131.961		1.093e-02		5.310
6		0.00		6.00		5.518e-02		133.061		9.859e-03		7.024
6		0.00		6.40		5.620e-02		132.204		1.366e-02		13.938
6		0.00		6.80		5.989e-02		133.291		1.449e-02		8.002
6		0.00		7.20		6.024e-02		134.866		1.216e-02		11.179
6		0.00		7.60		6.081e-02		134.991		1.340e-02		19.920
6		0.00		8.00		6.378e-02		134.679		1.620e-02		14.952
6		0.00		8.40		6.449e-02		131.292		1.461e-02		27.954
6		0.00		8.80		6.400e-02		129.077		1.748e-02		22.232
6		0.00		9.20		6.425e-02		127.094		1.843e-02		39.427
6		0.00		9.60		6.403e-02		128.690		1.759e-02		37.761
6		0.00		10.00		6.306e-02		132.355		1.672e-02		17.049
6		0.00		9.60		6.346e-02		127.077		1.876e-02		27.887
6		0.00		9.20		6.457e-02		131.262		1.952e-02		24.839
6		0.00		8.80		6.251e-02		134.479		1.667e-02		15.808
6		0.00		8.40		5.989e-02		134.973		1.292e-02		11.728
6		0.00		8.00		5.757e-02		131.877		1.588e-02		15.969
6		0.00		7.60		5.690e-02		130.067		1.586e-02		20.088
6		0.00		7.20		5.585e-02		132.246		1.284e-02		8.354
6		0.00		6.80		5.281e-02		133.618		1.097e-02		7.807
6		0.00		6.40		4.849e-02		129.499		1.290e-02		16.412
6		0.00		6.00		4.617e-02		131.358		1.149e-02		7.212
6		0.00		5.60		4.369e-02		132.292		7.544e-03		5.798
6		0.00		5.20		3.990e-02		132.925		7.795e-03		8.927
6		0.00		4.80		3.552e-02		131.336		7.805e-03		10.688
6		0.00		4.40		3.190e-02		131.892		6.168e-03		6.927
6		0.00		4.00		2.851e-02		131.788		4.576e-03		7.553
6		0.00		3.60		2.411e-02		130.673		5.241e-03		11.743
6		0.00		3.20		1.936e-02		131.775		4.053e-03		9.404
6		0.00		2.80		1.532e-02		131.323		2.486e-03		8.496
6		0.00		2.40		1.051e-02		129.590		2.113e-03		12.074
6		0.00		2.00		5.284e-03		122.684		1.419e-03		17.788
6		0.00		1.60		1.936e-03		39.194		7.727e-04		73.125
6		0.00		1.20		3.849e-03		-38.536		1.239e-03		24.714
6		0.00		0.80		8.288e-03		-48.442		2.020e-03		14.186
6		0.00		0.40		1.303e-02		-46.929		2.799e-03		13.041
6		0.00		0.00		1.794e-02		-46.518		2.775e-03		9.088
6		0.00		-0.40		2.198e-02		-49.046		4.613e-03		8.656
6		0.00		-0.80		2.643e-02		-50.286		5.598e-03		9.204
6		0.00		-1.20		3.189e-02		-49.578		4.596e-03		6.814
6		0.00		-1.60		3.558e-02		-49.672		6.229e-03		6.920
6		0.00		-2.00		3.957e-02		-50.615		8.779e-03		7.331
6		0.00		-2.40		4.401e-02		-52.655		7.603e-03		6.484
6		0.00		-2.80		4.831e-02		-49.646		7.776e-03		5.121
6		0.00		-3.20		5.042e-02		-51.259		1.182e-02		9.951
6		0.00		-3.60		5.556e-02		-51.914		1.150e-02		6.786
6		0.00		-4.00		5.904e-02		-51.190		9.345e-03		4.845
6		0.00		-4.40		6.002e-02		-52.092		1.406e-02		12.782
6		0.00		-4.80		6.423e-02		-49.293		1.573e-02		8.315
6		0.00		-5.20		6.188e-02		-45.415		1.035e-02		8.394
6		0.00		-5.60		6.555e-02		-47.922		1.541e-02		14.561
6		0.00		-6.00		6.457e-02		-43.027		1.533e-02		12.605
6		0.00		-6.40		6.946e-02		-41.118		1.452e-02		13.335
6		0.00		-6.80		6.650e-02		-36.010		1.456e-02		15.250
6		0.00		-7.20		6.829e-02		-38.700		2.007e-02		20.939
6		0.00		-7.60		6.896e-02		-44.467		1.737e-02		19.440
6		0.00		-8.00		7.177e-02		-38.344		1.651e-02		19.386
6		0.00		-8.40		6.677e-02		-39.764		1.841e-02		25.565
6		0.00		-8.80		6.351e-02		-32.883		1.859e-02		22.552
6		0.00		-9.20		6.697e-02		-37.527		1.860e-02		20.994
6		0.00		-9.60		6.287e-02		-42.112		1.908e-02		17.370
6		0.00		-10.00		5.742e-02		-38.308		1.781e-02		17.996
6		0.00		-9.60		6.218e-02		-39.678		1.716e-02		16.148
6		0.00		-9.20		6.313e-02		-40.498		1.758e-02		16.580
6		0.00		-8.80		6.456e-02		-41.475		1.887e-02		23.113
6		0.00		-8.40		6.693e-02		-40.626		1.849e-02		16.097
6		0.00		-8.00		6.885e-02		-42.005		1.590e-02		15.933
6		0.00		-7.60		6.486e-02		-42.221		1.682e-02		13.013
6		0.00		-7.20		6.349e-02		-42.400		1.728e-02		17.252
6		0.00		-6.80		6.453e-02		-43.926		1.237e-02		8.588
6		0.00		-6.40		6.287e-02		-48.101		1.373e-02		13.626
6		0.00		-6.00		6.085e-02		-46.979		1.403e-02		8.872
6		0.00		-5.60		6.014e-02		-49.014		1.228e-02		6.556
6		0.00		-5.20		5.530e-02		-48.825		8.519e-03		5.822
6		0.00		-4.80		5.114e-02		-49.596		1.040e-02		8.945
6		0.00		-4.40		4.753e-02		-52.091		1.037e-02		7.967
6		0.00		-4.00		4.410e-02		-51.098		6.474e-03		5.538
6		0.00		-3.60		3.954e-02		-50.251		6.358e-03		6.797
6		0.00		-3.20		3.421e-02		-49.744		7.061e-03		6.817
6		0.00		-2.80		3.006e-02		-49.397		5.055e-03		7.151
6		0.00		-2.40		2.602e-02		-47.553		3.780e-03		6.977
6		0.00		-2.00		2.094e-02		-45.061		3.810e-03		9.999
6		0.00		-1.60		1.660e-02		-46.126		3.279e-03		9.393
6		0.00		-1.20		1.212e-02		-46.415		1.919e-03		10.178
6		0.00		-0.80		7.338e-03		-33.437		1.694e-03		16.197
6		0.00		-0.40		2.695e-03		-39.454		1.110e-03		30.224
7		0.00		0.00		2.753e-03		76.122		1.050e-03		52.567
7		0.00		0.40		7.482e-03		124.567		1.741e-03		13.754
7		0.00		0.80		1.161e-02		125.322		2.665e-03		14.755
7		0.00		1.20		1.651e-02		128.918		2.681e-03		7.818
7		0.00		1.60		2.076e-02		129.077		3.362e-03		6.998
7		0.00		2.00		2.410e-02		128.915		5.470e-03		11.406
7		0.00		2.40		2.839e-02		129.673		5.491e-03		7.771
7		0.00		2.80		3.316e-02		130.667		5.100e-03		6.235
7		0.00		3.20		3.590e-02		130.442		7.637e-03		8.224
7		0.00		3.60		3.966e-02		131.132		7.532e-03		6.718
7		0.00		4.00		4.342e-02		131.693		6.289e-03		5.532
7		0.00		4.40		4.540e-02		131.562		9.762e-03		6.777
7		0.00		4.80		4.840e-02		130.774		1.104e-02		9.653
7		0.00		5.20		5.169e-02		133.077		8.825e-03		5.793
7		0.00		5.60		5.282e-02		132.176		1.180e-02		8.860
7		0.00		6.00		5.519e-02		131.676		1.324e-02		10.469
7		0.00		6.40		5.701e-02		133.429		1.084e-02		8.516
7		0.00		6.80		5.792e-02		131.705		1.377e-02		14.653
7		0.00		7.20		6.137e-02		132.235		1.526e-02		17.538
7		0.00		7.60		6.126e-02		135.620		1.251e-02		9.479
7		0.00		8.00		6.369e-02		129.370		1.759e-02		24.800
7		0.00		8.40		6.295e-02		133.645		1.806e-02		24.048
7		0.00		8.80		6.694e-02		133.400		1.580e-02		20.347
7		0.00		9.20		6.391e-02		132.583		1.887e-02		24.489
7		0.00		9.60		6.263e-02		132.876		1.912e-02		23.393
7		0.00		10.00		6.441e-02		135.415		1.774e-02		16.823
7		0.00		9.60		6.295e-02		130.909		1.780e-02		26.112
7		0.00		9.20		6.309e-02		130.697		1.983e-02		28.189
7		0.00		8.80		6.514e-02		132.246		1.826e-02		11.208
7		0.00		8.40		6.058e-02		133.363		1.431e-02		13.488
7		0.00		8.00		5.830e-02		131.146		1.621e-02		15.606
7		0.00		7.60		5.880e-02		132.141		1.467e-02		8.543
7		0.00		7.20		5.640e-02		133.370		1.076e-02		5.761
7		0.00		6.80		5.297e-02		131.829		1.198e-02		10.552
7		0.00		6.40		5.069e-02		132.004		1.175e-02		11.143
7		0.00		6.00		4.783e-02		133.100		8.393e-03		5.879
7		0.00		5.60		4.379e-02		133.136		8.214e-03		6.518
7		0.00		5.20		3.972e-02		132.354		8.840e-03		9.588
7		0.00		4.80		3.631e-02		131.523		6.729e-03		7.143
7		0.00		4.40		3.322e-02		133.423		5.333e-03		6.254
7		0.00		4.00		2.845e-02		131.606		5.877e-03		11.000
7		0.00		3.60		2.425e-02		132.053		4.974e-03		7.837
7		0.00		3.20		2.065e-02		131.570		3.231e-03		7.279
7		0.00		2.80		1.598e-02		132.140		3.133e-03		11.307
7		0.00		2.40		1.094e-02		129.381		2.492e-03		12.192
7		0.00		2.00		6.978e-03		131.326		1.578e-03		14.564
7		0.00		1.60		2.459e-03		84.720		1.005e-03		57.301
7		0.00		1.20		3.076e-03		-53.709		1.157e-03		35.340
7		0.00		0.80		7.590e-03		-49.668		1.726e-03		14.584
7		0.00		0.40		1.257e-02		-46.611		2.288e-03		10.178
7		0.00		0.00		1.664e-02		-48.625		4.052e-03		10.961
7		0.00		-0.40		2.120e-02		-47.374		3.954e-03		8.024
7		0.00		-0.80		2.596e-02		-49.466		3.889e-03		8.226
7		0.00		-1.20		3.029e-02		-49.392		6.079e-03		7.802
7		0.00		-1.60		3.461e-02		-51.146		7.227e-03		8.224
7		0.00		-2.00		3.944e-02		-51.816		6.087e-03		6.564
7		0.00		-2.40		4.311e-02		-50.282		8.334e-03		7.533
7		0.00		-2.80		4.737e-02		-52.104		1.015e-02		7.339
7		0.00		-3.20		5.176e-02		-51.796		7.441e-03		4.990
7		0.00		-3.60		5.450e-02		-50.970		1.042e-02		6.252
7		0.00		-4.00		5.840e-02		-52.206		1.356e-02		7.576
7		0.00		-4.40		6.120e-02		-51.849		1.104e-02		7.199
7		0.00		-4.80		6.333e-02		-49.520		1.270e-02		8.318
7		0.00		-5.20		6.334e-02		-46.276		1.368e-02		7.118
7		0.00		-5.60		6.593e-02		-44.671		1.168e-02		9.571
7		0.00		-6.00		6.554e-02		-43.530		1.341e-02		14.933
7		0.00		-6.40		6.620e-02		-38.268		1.775e-02		20.607
7		0.00		-6.80		6.754e-02		-41.074		1.582e-02		15.360
7		0.00		-7.20		6.420e-02		-36.704		1.416e-02		18.928
7		0.00		-7.60		6.186e-02		-40.764		1.884e-02		24.450
7		0.00		-8.00		6.685e-02		-41.510		1.874e-02		22.968
7		0.00		-8.40		6.853e-02		-45.402		1.912e-02		26.645
7		0.00		-8.80		6.526e-02		-38.288		1.918e-02		19.251
7		0.00		-9.20		6.249e-02		-32.123		1.966e-02		21.901
7		0.00		-9.60		6.196e-02		-38.602		1.537e-02		13.593
7		0.00		-10.00		5.655e-02		-43.138		1.618e-02		16.765
7		0.00		-9.60		5.991e-02		-38.517		1.783e-02		21.236
7		0.00		-9.20		6.440e-02		-36.603		1.652e-02		15.290
7		0.00		-8.80		6.525e-02		-43.121		1.680e-02		19.210
7		0.00		-8.40		6.700e-02		-41.413		1.722e-02		17.608
7		0.00		-8.00		6.413e-02		-38.704		1.572e-02		17.119
7		0.00		-7.60		6.727e-02		-44.979		1.604e-02		17.340
7		0.00		-7.20		6.721e-02		-41.582		1.485e-02		12.087
7		0.00		-6.80		6.444e-02		-43.953		1.503e-02		10.128
7		0.00		-6.40		6.493e-02		-46.026		1.241e-02		6.427
7		0.00		-6.00		6.101e-02		-47.919		1.076e-02		9.742
7		0.00		-5.60		5.817e-02		-48.464		1.266e-02		9.290
7		0.00		-5.20		5.623e-02		-48.740		1.271e-02		6.701
7		0.00		-4.80		5.294e-02		-50.384		8.205e-03		5.826
7		0.00		-4.40		4.822e-02		-50.489		7.966e-03		6.665
7		0.00		-4.00		4.344e-02		-50.191		9.007e-03		8.183
7		0.00		-3.60		3.952e-02		-51.716		6.992e-03		7.439
7		0.00		-3.20		3.561e-02		-50.354		4.956e-03		6.382
7		0.00		-2.80		3.023e-02		-49.058		5.763e-03		7.876
7		0.00		-2.40		2.559e-02		-47.459		5.506e-03		8.018
7		0.00		-2.00		2.153e-02		-46.186		3.388e-03		8.538
7		0.00		-1.60		1.672e-02		-41.057		2.570e-03		7.154
7		0.00		-1.20		1.178e-02		-40.904		2.470e-03		11.522
7		0.00		-0.80		7.508e-03		-40.269		1.840e-03		15.324
7		0.00		-0.40		3.192e-03		-40.572		1.113e-03		30.125
8		0.00		0.00		2.867e-03		96.489		9.803e-04		39.428
8		0.00		0.40		7.078e-03		116.259		1.684e-03		19.372
8		0.00		0.80		1.159e-02		126.787		2.484e-03		9.941
8		0.00		1.20		1.633e-02		128.567		2.548e-03		9.402
8		0.00		1.60		2.046e-02		127.525		3.536e-03		8.978
8		0.00		2.00		2.450e-02		128.992		5.543e-03		8.839
8		0.00		2.40		2.924e-02		130.040		4.487e-03		6.111
8		0.00		2.80		3.343e-02		131.007		4.806e-03		5.795
8		0.00		3.20		3.640e-02		130.292		7.390e-03		7.317
8		0.00		3.60		3.904e-02		131.016		8.683e-03		9.751
8		0.00		4.00		4.355e-02		131.873		6.986e-03		5.081
8		0.00		4.40		4.670e-02		132.184		7.534e-03		5.266
8		0.00		4.80		4.892e-02		131.096		1.089e-02		11.057
8		0.00		5.20		5.124e-02		131.380		1.188e-02		9.458
8		0.00		5.60		5.516e-02		131.825		1.019e-02		5.076
8		0.00		6.00		5.482e-02		131.624		1.191e-02		10.240
8		0.00		6.40		5.651e-02		129.594		1.537e-02		16.078
8		0.00		6.80		5.863e-02		133.046		1.611e-02		8.704
8		0.00		7.20		5.880e-02		134.580		1.210e-02		8.865
8		0.00		7.60		5.913e-02		130.191		1.516e-02		24.031
8		0.00		8.00		6.053e-02		134.089		1.642e-02		15.783
8		0.00		8.40		6.221e-02		135.715		1.693e-02		19.905
8		0.00		8.80		6.418e-02		136.344		1.439e-02		22.510
8		0.00		9.20		6.394e-02		134.669		1.782e-02		18.448
8		0.00		9.60		6.485e-02		129.876		1.926e-02		31.234
8		0.00		10.00		6.163e-02		140.360		1.620e-02		12.568
8		0.00		9.60		6.753e-02		135.104		1.644e-02		10.996
8		0.00		9.20		6.746e-02		133.844		1.585e-02		13.439
8		0.00		8.80		6.188e-02		132.832		1.617e-02		24.249
8		0.00		8.40		6.372e-02		135.401		1.640e-02		15.586
8		0.00		8.00		6.235e-02		134.300		1.458e-02		7.349
8		0.00		7.60		5.992e-02		135.131		1.113e-02		6.473
8		0.00		7.20		5.659e-02		133.223		1.090e-02		8.382
8		0.00		6.80		5.320e-02		133.218		1.244e-02		9.349
8		0.00		6.40		5.151e-02		131.338		1.235e-02		10.003
8		0.00		6.00		4.872e-02		132.380		9.457e-03		5.167
8		0.00		5.60		4.461e-02		131.910		7.451e-03		5.091
8		0.00		5.20		4.075e-02		133.676		8.052e-03		8.305
8		0.00		4.80		3.638e-02		131.247		8.598e-03		11.081
8		0.00		4.40		3.289e-02		131.420		7.374e-03		10.162
8		0.00		4.00		2.981e-02		131.521		4.648e-03		7.163
8		0.00		3.60		2.542e-02		132.555		3.781e-03		6.231
8		0.00		3.20		2.048e-02		132.957		3.993e-03		8.647
8		0.00		2.80		1.546e-02		130.888		3.688e-03		12.548
8		0.00		2.40		1.144e-02		130.036		2.709e-03		9.576
8		0.00		2.00		7.658e-03		133.178		1.576e-03		11.247
8		0.00		1.60		3.199e-03		104.397		9.968e-04		52.166
8		0.00		1.20		2.573e-03		-29.183		1.031e-03		40.525
8		0.00		0.80		7.033e-03		-48.768		1.971e-03		15.418
8		0.00		0.40		1.211e-02		-48.563		2.361e-03		10.865
8		0.00		0.00		1.692e-02		-48.398		2.269e-03		8.311
8		0.00		-0.40		2.083e-02		-47.169		3.392e-03		8.062
8		0.00		-0.80		2.572e-02		-49.031		4.942e-03		7.250
8		0.00		-1.20		2.968e-02		-49.755		5.993e-03		8.196
8		0.00		-1.60		3.575e-02		-50.749		5.821e-03		6.286
8		0.00		-2.00		4.006e-02		-50.315		6.250e-03		4.751
8		0.00		-2.40		4.362e-02		-50.046		7.404e-03		5.911
8		0.00		-2.80		4.746e-02		-51.624		9.994e-03		9.182
8		0.00		-3.20		5.094e-02		-52.530		1.081e-02		7.087
8		0.00		-3.60		5.518e-02		-53.244		9.870e-03		6.472
8		0.00		-4.00		5.709e-02		-52.018		1.173e-02		8.719
8		0.00		-4.40		5.863e-02		-51.447		1.448e-02		9.488
8		0.00		-4.80		5.892e-02		-50.161		1.642e-02		10.152
8		0.00		-5.20		6.170e-02		-46.146		1.275e-02		8.613
8		0.00		-5.60		6.292e-02		-44.791		1.292e-02		12.469
8		0.00		-6.00		6.505e-02		-43.529		1.547e-02		13.610
8		0.00		-6.40		6.214e-02		-39.372		1.623e-02		16.066
8		0.00		-6.80		6.374e-02		-42.307		1.686e-02		16.179
8		0.00		-7.20		6.661e-02		-39.353		1.756e-02		21.900
8		0.00		-7.60		6.631e-02		-37.295		1.631e-02		21.596
8		0.00		-8.00		7.072e-02		-41.515		1.806e-02		17.882
8		0.00		-8.40		6.653e-02		-41.561		1.797e-02		26.033
8		0.00		-8.80		6.904e-02		-35.507		1.635e-02		16.274
8		0.00		-9.20		6.451e-02		-38.314		1.521e-02		16.808
8		0.00		-9.60		6.119e-02		-35.795		1.588e-02		13.746
8		0.00		-10.00		5.827e-02		-39.710		1.557e-02		11.291
8		0.00		-9.60		6.394e-02		-39.397		1.776e-02		19.822
8		0.00		-9.20		6.489e-02		-37.815		1.605e-02		17.304
8		0.00		-8.80		6.697e-02		-39.570		1.654e-02		19.465
8		0.00		-8.40		6.557e-02		-34.343		1.493e-02		16.362
8		0.00		-8.00		6.644e-02		-37.543		1.922e-02		25.351
8		0.00		-7.60		6.335e-02		-38.796		1.797e-02		16.753
8		0.00		-7.20		6.731e-02		-44.376		1.368e-02		11.447
8		0.00		-6.80		6.192e-02		-47.214		1.283e-02		15.154
8		0.00		-6.40		6.391e-02		-47.371		1.548e-02		11.985
8		0.00		-6.00		6.049e-02		-48.499		1.523e-02		10.563
8		0.00		-5.60		5.955e-02		-48.045		1.406e-02		6.990
8		0.00		-5.20		5.694e-02		-49.415		9.485e-03		5.771
8		0.00		-4.80		5.227e-02		-49.216		7.711e-03		5.038
8		0.00		-4.40		4.779e-02		-49.969		9.376e-03		7.292
8		0.00		-4.00		4.313e-02		-51.737		9.721e-03		8.149
8		0.00		-3.60		3.962e-02		-51.242		7.472e-03		7.228
8		0.00		-3.20		3.637e-02		-50.569		5.150e-03		5.874
8		0.00		-2.80		3.115e-02		-48.819		5.005e-03		6.444
8		0.00		-2.40		2.654e-02		-48.940		4.582e-03		6.037
8		0.00		-2.00		2.130e-02		-46.303		4.235e-03		8.293
8		0.00		-1.60		1.734e-02		-46.505		2.949e-03		7.730
8		0.00		-1.20		1.245e-02		-45.156		2.011e-03		9.964
8		0.00		-0.80		7.825e-03		-38.115		1.780e-03		16.132
8		0.00		-0.40		3.247e-03		-49.763		1.358e-03		29.170
