# Date of analysis: 2024-03-08 10;58
# Segment other properties: height: -40.14944049016529, diff height: 228.3420954625922, deflection: 35.87705572625911, deflection error: 2.9983879749479705, adhesion: 39.26133557358382, phase offset: 0
# 
# Loop index	Read Volt (V)	Write Volt (V)	Amplitude (a.u)	Phase (deg)	Sigma Amp (a.u)	Sigma Pha (deg)	
1		0.00		0.00		2.902e-02		-53.232		1.072e-02		18.319
1		0.00		0.40		2.572e-02		-52.667		5.703e-03		12.293
1		0.00		0.80		1.986e-02		-51.968		4.542e-03		14.604
1		0.00		1.20		1.435e-02		-52.747		3.478e-03		15.629
1		0.00		1.60		9.157e-03		-56.147		2.734e-03		18.226
1		0.00		2.00		4.219e-03		-46.084		1.799e-03		37.346
1		0.00		2.40		2.503e-03		39.774		1.176e-03		68.344
1		0.00		2.80		5.753e-03		110.548		2.264e-03		39.236
1		0.00		3.20		9.698e-03		122.818		3.586e-03		29.473
1		0.00		3.60		1.379e-02		123.198		4.487e-03		27.401
1		0.00		4.00		1.787e-02		124.223		5.753e-03		33.202
1		0.00		4.40		2.164e-02		128.715		6.809e-03		17.250
1		0.00		4.80		2.565e-02		129.441		7.172e-03		10.654
1		0.00		5.20		2.942e-02		128.996		8.022e-03		10.042
1		0.00		5.60		3.296e-02		127.195		8.660e-03		12.708
1		0.00		6.00		3.529e-02		126.623		9.152e-03		13.468
1		0.00		6.40		3.713e-02		127.033		8.910e-03		14.401
1		0.00		6.80		3.905e-02		126.065		1.034e-02		15.831
1		0.00		7.20		4.050e-02		126.826		1.155e-02		16.303
1		0.00		7.60		4.266e-02		126.971		1.179e-02		15.837
1		0.00		8.00		4.295e-02		126.193		1.328e-02		17.823
1		0.00		8.40		4.489e-02		122.035		1.587e-02		24.762
1		0.00		8.80		4.686e-02		118.005		1.732e-02		33.507
1		0.00		9.20		4.725e-02		119.096		1.748e-02		36.371
1		0.00		9.60		4.708e-02		117.378		1.876e-02		41.520
1		0.00		10.00		4.472e-02		125.307		1.711e-02		30.631
1		0.00		9.60		4.521e-02		123.814		1.624e-02		19.914
1		0.00		9.20		4.486e-02		126.488		1.430e-02		13.202
1		0.00		8.80		4.299e-02		126.558		1.259e-02		16.226
1		0.00		8.40		3.960e-02		126.969		1.064e-02		16.409
1		0.00		8.00		3.659e-02		127.303		9.961e-03		18.147
1		0.00		7.60		3.394e-02		126.316		9.478e-03		17.516
1		0.00		7.20		3.174e-02		127.217		8.718e-03		15.976
1		0.00		6.80		2.917e-02		126.062		7.968e-03		15.962
1		0.00		6.40		2.638e-02		126.802		7.678e-03		19.854
1		0.00		6.00		2.341e-02		124.937		6.995e-03		23.653
1		0.00		5.60		2.122e-02		123.563		6.271e-03		28.362
1		0.00		5.20		1.828e-02		125.536		5.795e-03		29.809
1		0.00		4.80		1.568e-02		125.616		4.763e-03		29.755
1		0.00		4.40		1.247e-02		130.705		3.664e-03		12.658
1		0.00		4.00		9.280e-03		129.406		2.781e-03		15.553
1		0.00		3.60		5.743e-03		118.854		2.005e-03		31.210
1		0.00		3.20		2.238e-03		34.516		1.007e-03		87.021
1		0.00		2.80		3.355e-03		-50.396		1.582e-03		37.694
1		0.00		2.40		7.469e-03		-56.690		2.298e-03		17.101
1		0.00		2.00		1.111e-02		-53.736		2.988e-03		16.740
1		0.00		1.60		1.590e-02		-54.054		4.411e-03		15.582
1		0.00		1.20		1.994e-02		-53.090		5.634e-03		14.059
1		0.00		0.80		2.393e-02		-52.168		6.875e-03		14.132
1		0.00		0.40		2.867e-02		-49.832		8.152e-03		12.715
1		0.00		0.00		3.296e-02		-51.864		8.843e-03		9.362
1		0.00		-0.40		3.673e-02		-52.347		8.913e-03		9.183
1		0.00		-0.80		4.045e-02		-52.626		8.713e-03		9.387
1		0.00		-1.20		4.333e-02		-53.967		8.723e-03		10.057
1		0.00		-1.60		4.450e-02		-53.820		9.668e-03		11.856
1		0.00		-2.00		4.610e-02		-54.043		1.056e-02		13.603
1		0.00		-2.40		4.590e-02		-52.264		1.174e-02		14.902
1		0.00		-2.80		4.853e-02		-53.177		1.301e-02		15.289
1		0.00		-3.20		4.885e-02		-53.615		1.338e-02		17.954
1		0.00		-3.60		5.008e-02		-48.895		1.415e-02		16.978
1		0.00		-4.00		5.027e-02		-49.468		1.487e-02		14.949
1		0.00		-4.40		5.126e-02		-52.804		1.546e-02		11.537
1		0.00		-4.80		5.257e-02		-51.813		1.435e-02		10.352
1		0.00		-5.20		5.283e-02		-49.412		1.314e-02		9.449
1		0.00		-5.60		5.290e-02		-51.974		1.393e-02		12.683
1		0.00		-6.00		5.276e-02		-51.081		1.421e-02		14.041
1		0.00		-6.40		5.020e-02		-52.803		1.521e-02		17.195
1		0.00		-6.80		5.212e-02		-50.440		1.624e-02		15.819
1		0.00		-7.20		5.269e-02		-51.540		1.671e-02		19.878
1		0.00		-7.60		5.303e-02		-49.584		1.708e-02		21.131
1		0.00		-8.00		5.492e-02		-41.962		1.704e-02		24.703
1		0.00		-8.40		5.338e-02		-44.386		1.647e-02		17.827
1		0.00		-8.80		5.250e-02		-45.879		1.486e-02		11.499
1		0.00		-9.20		5.000e-02		-45.120		1.405e-02		9.942
1		0.00		-9.60		4.523e-02		-47.332		1.305e-02		11.036
1		0.00		-10.00		3.968e-02		-45.555		1.139e-02		13.050
1		0.00		-9.60		4.357e-02		-46.495		1.189e-02		13.961
1		0.00		-9.20		4.679e-02		-46.322		1.282e-02		15.123
1		0.00		-8.80		4.953e-02		-45.393		1.354e-02		13.649
1		0.00		-8.40		5.160e-02		-49.024		1.490e-02		20.040
1		0.00		-8.00		5.298e-02		-48.475		1.586e-02		19.292
1		0.00		-7.60		5.095e-02		-44.791		1.639e-02		28.923
1		0.00		-7.20		5.021e-02		-43.093		1.662e-02		18.829
1		0.00		-6.80		4.775e-02		-47.045		1.435e-02		10.675
1		0.00		-6.40		4.653e-02		-47.103		1.168e-02		9.358
1		0.00		-6.00		4.412e-02		-48.942		1.013e-02		9.767
1		0.00		-5.60		4.193e-02		-50.149		9.478e-03		11.528
1		0.00		-5.20		3.840e-02		-50.867		9.229e-03		14.446
1		0.00		-4.80		3.622e-02		-51.360		9.084e-03		13.911
1		0.00		-4.40		3.305e-02		-50.498		8.516e-03		14.056
1		0.00		-4.00		3.073e-02		-51.874		8.148e-03		16.201
1		0.00		-3.60		2.741e-02		-48.962		7.453e-03		14.927
1		0.00		-3.20		2.462e-02		-48.244		6.700e-03		12.236
1		0.00		-2.80		2.159e-02		-48.034		5.428e-03		11.145
1		0.00		-2.40		1.800e-02		-47.954		3.991e-03		11.192
1		0.00		-2.00		1.483e-02		-49.594		2.936e-03		11.951
1		0.00		-1.60		1.122e-02		-49.620		2.480e-03		14.512
1		0.00		-1.20		6.978e-03		-49.106		1.985e-03		19.257
1		0.00		-0.80		3.438e-03		-19.319		1.530e-03		35.594
1		0.00		-0.40		2.327e-03		49.451		9.216e-04		68.323
2		0.00		0.00		5.273e-03		105.600		1.730e-03		28.750
2		0.00		0.40		9.393e-03		117.920		3.062e-03		23.403
2		0.00		0.80		1.293e-02		125.273		4.019e-03		11.657
2		0.00		1.20		1.707e-02		126.792		4.504e-03		9.599
2		0.00		1.60		2.065e-02		126.082		5.072e-03		9.961
2		0.00		2.00		2.401e-02		127.529		5.808e-03		10.420
2		0.00		2.40		2.647e-02		126.957		6.930e-03		11.297
2		0.00		2.80		2.918e-02		127.271		8.102e-03		13.762
2		0.00		3.20		3.129e-02		125.504		9.480e-03		22.556
2		0.00		3.60		3.388e-02		126.973		1.045e-02		25.733
2		0.00		4.00		3.629e-02		131.584		1.106e-02		9.898
2		0.00		4.40		3.982e-02		129.616		1.067e-02		10.194
2		0.00		4.80		4.266e-02		128.963		1.015e-02		9.440
2		0.00		5.20		4.335e-02		128.701		9.780e-03		11.194
2		0.00		5.60		4.488e-02		128.390		1.135e-02		14.039
2		0.00		6.00		4.735e-02		127.213		1.317e-02		17.461
2		0.00		6.40		4.990e-02		126.292		1.456e-02		26.247
2		0.00		6.80		5.193e-02		126.976		1.609e-02		29.699
2		0.00		7.20		5.479e-02		130.826		1.564e-02		10.149
2		0.00		7.60		5.568e-02		130.099		1.354e-02		10.734
2		0.00		8.00		5.493e-02		126.979		1.517e-02		17.229
2		0.00		8.40		5.398e-02		127.381		1.610e-02		17.603
2		0.00		8.80		5.643e-02		125.671		1.740e-02		17.372
2		0.00		9.20		5.604e-02		125.085		1.945e-02		24.573
2		0.00		9.60		5.606e-02		124.590		1.998e-02		24.620
2		0.00		10.00		5.211e-02		130.040		1.662e-02		9.636
2		0.00		9.60		5.142e-02		126.792		1.441e-02		11.478
2		0.00		9.20		4.879e-02		126.372		1.344e-02		15.022
2		0.00		8.80		4.510e-02		127.131		1.268e-02		14.481
2		0.00		8.40		4.364e-02		127.083		1.321e-02		18.048
2		0.00		8.00		4.071e-02		125.102		1.238e-02		28.847
2		0.00		7.60		3.905e-02		128.356		1.202e-02		24.844
2		0.00		7.20		3.773e-02		131.939		9.154e-03		9.479
2		0.00		6.80		3.514e-02		130.037		7.060e-03		9.502
2		0.00		6.40		3.205e-02		129.643		6.609e-03		11.958
2		0.00		6.00		2.802e-02		130.449		6.120e-03		12.494
2		0.00		5.60		2.452e-02		129.044		6.269e-03		19.101
2		0.00		5.20		2.126e-02		128.634		5.481e-03		23.866
2		0.00		4.80		1.819e-02		133.290		4.790e-03		13.195
2		0.00		4.40		1.492e-02		128.520		3.222e-03		11.514
2		0.00		4.00		1.110e-02		132.102		2.066e-03		14.030
2		0.00		3.60		7.273e-03		128.004		1.556e-03		15.768
2		0.00		3.20		2.943e-03		103.623		1.164e-03		60.319
2		0.00		2.80		2.904e-03		-42.213		1.217e-03		41.451
2		0.00		2.40		6.443e-03		-53.941		2.141e-03		21.831
2		0.00		2.00		1.145e-02		-56.087		3.892e-03		15.613
2		0.00		1.60		1.643e-02		-51.667		4.653e-03		11.042
2		0.00		1.20		2.151e-02		-52.271		4.919e-03		11.544
2		0.00		0.80		2.582e-02		-52.075		5.881e-03		12.078
2		0.00		0.40		3.011e-02		-52.243		7.640e-03		12.918
2		0.00		0.00		3.385e-02		-51.176		9.452e-03		16.044
2		0.00		-0.40		3.739e-02		-49.705		1.097e-02		11.742
2		0.00		-0.80		4.166e-02		-52.628		1.052e-02		10.224
2		0.00		-1.20		4.535e-02		-52.883		9.129e-03		8.458
2		0.00		-1.60		4.767e-02		-52.921		9.384e-03		10.599
2		0.00		-2.00		4.957e-02		-52.095		1.055e-02		11.430
2		0.00		-2.40		5.022e-02		-49.738		1.307e-02		12.761
2		0.00		-2.80		5.151e-02		-49.092		1.422e-02		13.520
2		0.00		-3.20		5.295e-02		-52.742		1.333e-02		8.651
2		0.00		-3.60		5.297e-02		-52.380		1.121e-02		9.206
2		0.00		-4.00		5.433e-02		-53.228		1.061e-02		9.893
2		0.00		-4.40		5.252e-02		-52.433		1.224e-02		13.256
2		0.00		-4.80		5.387e-02		-49.953		1.404e-02		16.732
2		0.00		-5.20		5.325e-02		-45.836		1.488e-02		17.962
2		0.00		-5.60		5.397e-02		-48.602		1.415e-02		10.460
2		0.00		-6.00		5.501e-02		-47.288		1.204e-02		9.655
2		0.00		-6.40		5.444e-02		-50.815		1.437e-02		16.453
2		0.00		-6.80		5.437e-02		-47.526		1.397e-02		14.680
2		0.00		-7.20		5.586e-02		-49.226		1.584e-02		16.972
2		0.00		-7.60		5.691e-02		-46.742		1.760e-02		17.231
2		0.00		-8.00		5.722e-02		-46.875		1.711e-02		10.796
2		0.00		-8.40		5.541e-02		-45.131		1.439e-02		10.389
2		0.00		-8.80		5.309e-02		-45.682		1.346e-02		12.639
2		0.00		-9.20		5.009e-02		-45.824		1.384e-02		12.635
2		0.00		-9.60		4.556e-02		-46.844		1.420e-02		17.206
2		0.00		-10.00		4.023e-02		-35.040		1.285e-02		19.359
2		0.00		-9.60		4.619e-02		-44.272		1.355e-02		9.681
2		0.00		-9.20		5.079e-02		-44.424		1.351e-02		8.869
2		0.00		-8.80		5.218e-02		-46.414		1.292e-02		12.834
2		0.00		-8.40		5.211e-02		-46.626		1.352e-02		14.373
2		0.00		-8.00		5.365e-02		-47.826		1.514e-02		19.558
2		0.00		-7.60		5.393e-02		-41.348		1.585e-02		19.908
2		0.00		-7.20		5.234e-02		-46.823		1.367e-02		9.851
2		0.00		-6.80		5.087e-02		-46.685		1.046e-02		9.262
2		0.00		-6.40		4.799e-02		-48.549		1.015e-02		11.101
2		0.00		-6.00		4.582e-02		-46.631		1.118e-02		11.619
2		0.00		-5.60		4.349e-02		-48.814		1.164e-02		15.809
2		0.00		-5.20		4.038e-02		-46.518		1.237e-02		10.285
2		0.00		-4.80		3.828e-02		-48.145		9.843e-03		7.642
2		0.00		-4.40		3.517e-02		-50.819		7.455e-03		9.554
2		0.00		-4.00		3.165e-02		-51.608		6.854e-03		10.967
2		0.00		-3.60		2.773e-02		-49.062		6.059e-03		11.286
2		0.00		-3.20		2.414e-02		-47.732		6.273e-03		13.409
2		0.00		-2.80		2.081e-02		-47.570		5.281e-03		11.979
2		0.00		-2.40		1.747e-02		-46.548		3.979e-03		11.314
2		0.00		-2.00		1.437e-02		-47.573		2.843e-03		12.806
2		0.00		-1.60		1.018e-02		-41.046		1.996e-03		13.983
2		0.00		-1.20		6.339e-03		-40.028		1.758e-03		20.980
2		0.00		-0.80		2.656e-03		-24.638		1.153e-03		44.421
2		0.00		-0.40		3.307e-03		81.814		1.405e-03		48.064
3		0.00		0.00		6.939e-03		121.210		2.118e-03		15.686
3		0.00		0.40		1.122e-02		122.834		2.459e-03		9.246
3		0.00		0.80		1.558e-02		126.877		2.854e-03		9.496
3		0.00		1.20		1.924e-02		128.078		3.440e-03		8.471
3		0.00		1.60		2.332e-02		129.968		4.432e-03		9.345
3		0.00		2.00		2.609e-02		129.711		6.002e-03		16.183
3		0.00		2.40		2.980e-02		131.151		7.366e-03		9.242
3		0.00		2.80		3.296e-02		130.409		7.525e-03		8.028
3		0.00		3.20		3.656e-02		130.375		7.256e-03		8.052
3		0.00		3.60		3.971e-02		129.695		7.462e-03		8.038
3		0.00		4.00		4.130e-02		129.089		8.026e-03		9.996
3		0.00		4.40		4.357e-02		130.461		1.068e-02		12.167
3		0.00		4.80		4.549e-02		128.491		1.210e-02		20.579
3		0.00		5.20		4.718e-02		128.320		1.373e-02		21.907
3		0.00		5.60		4.935e-02		131.638		1.429e-02		10.723
3		0.00		6.00		5.144e-02		132.577		1.235e-02		8.544
3		0.00		6.40		5.381e-02		130.686		1.169e-02		7.647
3		0.00		6.80		5.371e-02		128.278		1.221e-02		12.070
3		0.00		7.20		5.478e-02		129.583		1.282e-02		13.148
3		0.00		7.60		5.569e-02		129.923		1.500e-02		16.417
3		0.00		8.00		5.798e-02		127.259		1.732e-02		21.628
3		0.00		8.40		5.970e-02		129.183		1.823e-02		20.466
3		0.00		8.80		6.150e-02		128.341		1.905e-02		23.990
3		0.00		9.20		6.161e-02		129.628		1.718e-02		11.322
3		0.00		9.60		5.935e-02		129.459		1.462e-02		11.233
3		0.00		10.00		5.590e-02		125.969		1.500e-02		15.782
3		0.00		9.60		5.478e-02		125.806		1.445e-02		14.296
3		0.00		9.20		5.302e-02		127.622		1.380e-02		12.935
3		0.00		8.80		5.029e-02		130.606		1.355e-02		11.316
3		0.00		8.40		4.685e-02		128.871		1.354e-02		17.277
3		0.00		8.00		4.408e-02		125.507		1.327e-02		24.028
3		0.00		7.60		4.170e-02		125.865		1.332e-02		28.541
3		0.00		7.20		3.883e-02		130.048		1.204e-02		14.619
3		0.00		6.80		3.656e-02		132.219		9.946e-03		8.491
3		0.00		6.40		3.296e-02		131.680		7.918e-03		8.432
3		0.00		6.00		3.005e-02		131.386		6.453e-03		9.333
3		0.00		5.60		2.668e-02		129.262		5.633e-03		11.357
3		0.00		5.20		2.280e-02		129.817		4.830e-03		12.344
3		0.00		4.80		1.960e-02		131.953		3.889e-03		11.653
3		0.00		4.40		1.569e-02		134.859		3.180e-03		14.281
3		0.00		4.00		1.121e-02		130.539		2.480e-03		23.906
3		0.00		3.60		7.453e-03		126.623		1.960e-03		28.296
3		0.00		3.20		3.064e-03		106.898		1.158e-03		58.183
3		0.00		2.80		2.639e-03		-39.145		1.159e-03		57.755
3		0.00		2.40		6.628e-03		-55.993		2.366e-03		25.858
3		0.00		2.00		1.163e-02		-55.801		3.099e-03		13.154
3		0.00		1.60		1.651e-02		-54.618		3.821e-03		10.767
3		0.00		1.20		2.128e-02		-51.608		4.224e-03		10.868
3		0.00		0.80		2.599e-02		-51.226		5.348e-03		12.014
3		0.00		0.40		3.085e-02		-49.466		6.040e-03		9.935
3		0.00		0.00		3.429e-02		-50.476		8.174e-03		12.382
3		0.00		-0.40		3.654e-02		-50.990		9.809e-03		17.330
3		0.00		-0.80		4.022e-02		-48.954		1.143e-02		11.682
3		0.00		-1.20		4.335e-02		-51.099		1.281e-02		11.106
3		0.00		-1.60		4.703e-02		-51.806		1.252e-02		9.836
3		0.00		-2.00		4.937e-02		-51.322		1.138e-02		7.789
3		0.00		-2.40		5.084e-02		-53.059		1.073e-02		8.358
3		0.00		-2.80		5.100e-02		-54.625		1.081e-02		10.939
3		0.00		-3.20		5.112e-02		-53.581		1.168e-02		12.379
3		0.00		-3.60		5.162e-02		-51.611		1.202e-02		11.908
3		0.00		-4.00		5.265e-02		-52.160		1.375e-02		14.900
3		0.00		-4.40		5.283e-02		-50.310		1.466e-02		14.802
3		0.00		-4.80		5.318e-02		-46.249		1.539e-02		13.655
3		0.00		-5.20		5.418e-02		-47.713		1.495e-02		9.519
3		0.00		-5.60		5.432e-02		-49.106		1.266e-02		9.089
3		0.00		-6.00		5.545e-02		-47.096		1.200e-02		8.975
3		0.00		-6.40		5.543e-02		-49.160		1.266e-02		11.738
3		0.00		-6.80		5.614e-02		-48.797		1.392e-02		12.997
3		0.00		-7.20		5.638e-02		-46.878		1.434e-02		13.974
3		0.00		-7.60		5.767e-02		-49.083		1.695e-02		13.827
3		0.00		-8.00		5.650e-02		-47.161		1.839e-02		19.741
3		0.00		-8.40		5.620e-02		-43.089		1.930e-02		14.448
3		0.00		-8.80		5.360e-02		-44.347		1.765e-02		10.277
3		0.00		-9.20		4.975e-02		-43.727		1.478e-02		9.481
3		0.00		-9.60		4.435e-02		-45.508		1.403e-02		13.058
3		0.00		-10.00		3.790e-02		-44.935		1.095e-02		13.506
3		0.00		-9.60		4.285e-02		-44.884		1.278e-02		11.590
3		0.00		-9.20		4.681e-02		-46.863		1.589e-02		19.039
3		0.00		-8.80		4.982e-02		-45.236		1.555e-02		23.148
3		0.00		-8.40		5.314e-02		-40.579		1.595e-02		21.816
3		0.00		-8.00		5.357e-02		-46.696		1.454e-02		10.736
3		0.00		-7.60		5.351e-02		-47.404		1.265e-02		8.917
3		0.00		-7.20		5.132e-02		-46.780		1.098e-02		9.220
3		0.00		-6.80		4.917e-02		-46.990		1.037e-02		10.437
3		0.00		-6.40		4.568e-02		-46.652		1.006e-02		11.458
3		0.00		-6.00		4.475e-02		-45.330		1.045e-02		10.345
3		0.00		-5.60		4.255e-02		-46.872		1.058e-02		14.842
3		0.00		-5.20		3.940e-02		-47.231		1.060e-02		17.143
3		0.00		-4.80		3.740e-02		-47.935		9.674e-03		9.341
3		0.00		-4.40		3.441e-02		-49.948		7.448e-03		9.251
3		0.00		-4.00		3.159e-02		-49.090		6.104e-03		9.520
3		0.00		-3.60		2.780e-02		-49.276		5.547e-03		10.911
3		0.00		-3.20		2.470e-02		-48.763		5.261e-03		10.828
3		0.00		-2.80		2.097e-02		-45.844		4.644e-03		11.816
3		0.00		-2.40		1.661e-02		-47.347		4.177e-03		15.166
3		0.00		-2.00		1.328e-02		-46.313		3.691e-03		14.010
3		0.00		-1.60		9.738e-03		-41.123		2.780e-03		13.282
3		0.00		-1.20		6.139e-03		-42.123		1.892e-03		18.767
3		0.00		-0.80		2.703e-03		-28.032		1.113e-03		51.904
3		0.00		-0.40		3.146e-03		91.169		1.175e-03		41.236
4		0.00		0.00		6.987e-03		119.576		2.007e-03		16.656
4		0.00		0.40		1.074e-02		122.458		2.796e-03		16.050
4		0.00		0.80		1.492e-02		124.552		3.861e-03		19.382
4		0.00		1.20		1.791e-02		127.372		4.636e-03		12.024
4		0.00		1.60		2.287e-02		128.374		5.364e-03		8.583
4		0.00		2.00		2.646e-02		131.187		5.570e-03		7.325
4		0.00		2.40		2.976e-02		130.036		5.557e-03		8.679
4		0.00		2.80		3.257e-02		130.047		6.357e-03		9.581
4		0.00		3.20		3.502e-02		131.029		7.778e-03		10.053
4		0.00		3.60		3.756e-02		129.933		9.611e-03		16.740
4		0.00		4.00		4.015e-02		127.048		1.089e-02		21.585
4		0.00		4.40		4.197e-02		130.432		1.305e-02		14.146
4		0.00		4.80		4.513e-02		132.009		1.279e-02		8.662
4		0.00		5.20		4.740e-02		130.067		1.197e-02		8.776
4		0.00		5.60		4.906e-02		130.417		1.194e-02		9.054
4		0.00		6.00		4.847e-02		130.215		1.245e-02		11.783
4		0.00		6.40		5.002e-02		128.831		1.386e-02		12.486
4		0.00		6.80		5.091e-02		126.715		1.620e-02		20.185
4		0.00		7.20		5.385e-02		127.149		1.837e-02		24.786
4		0.00		7.60		5.488e-02		132.205		1.805e-02		13.595
4		0.00		8.00		5.695e-02		131.852		1.673e-02		9.476
4		0.00		8.40		5.750e-02		130.265		1.572e-02		11.983
4		0.00		8.80		5.708e-02		127.473		1.549e-02		15.585
4		0.00		9.20		5.649e-02		124.960		1.676e-02		16.596
4		0.00		9.60		5.751e-02		125.355		1.825e-02		17.467
4		0.00		10.00		5.537e-02		125.331		1.831e-02		29.339
4		0.00		9.60		5.697e-02		127.202		1.821e-02		21.135
4		0.00		9.20		5.624e-02		130.562		1.495e-02		9.186
4		0.00		8.80		5.261e-02		129.921		1.201e-02		11.482
4		0.00		8.40		4.869e-02		129.432		1.174e-02		13.719
4		0.00		8.00		4.637e-02		131.161		1.121e-02		11.563
4		0.00		7.60		4.413e-02		130.498		1.200e-02		15.061
4		0.00		7.20		4.094e-02		127.469		1.228e-02		26.454
4		0.00		6.80		3.752e-02		132.185		1.154e-02		11.124
4		0.00		6.40		3.495e-02		132.347		8.826e-03		9.706
4		0.00		6.00		3.155e-02		130.410		6.853e-03		10.583
4		0.00		5.60		2.819e-02		131.493		6.199e-03		12.197
4		0.00		5.20		2.439e-02		131.465		5.901e-03		11.834
4		0.00		4.80		2.084e-02		130.439		5.451e-03		20.078
4		0.00		4.40		1.717e-02		130.319		4.763e-03		23.337
4		0.00		4.00		1.299e-02		134.145		3.419e-03		11.188
4		0.00		3.60		8.492e-03		136.424		1.888e-03		11.996
4		0.00		3.20		3.919e-03		111.243		1.202e-03		61.610
4		0.00		2.80		2.134e-03		-45.015		8.460e-04		65.301
4		0.00		2.40		6.079e-03		-53.980		1.833e-03		20.431
4		0.00		2.00		1.026e-02		-50.869		2.783e-03		16.653
4		0.00		1.60		1.519e-02		-52.429		4.123e-03		16.360
4		0.00		1.20		1.964e-02		-51.068		5.044e-03		10.609
4		0.00		0.80		2.504e-02		-50.218		5.056e-03		9.424
4		0.00		0.40		2.977e-02		-51.505		5.388e-03		9.972
4		0.00		0.00		3.396e-02		-50.896		6.671e-03		10.792
4		0.00		-0.40		3.759e-02		-49.382		8.097e-03		8.994
4		0.00		-0.80		4.127e-02		-49.738		9.822e-03		12.624
4		0.00		-1.20		4.436e-02		-48.393		1.214e-02		13.791
4		0.00		-1.60		4.716e-02		-50.842		1.430e-02		9.977
4		0.00		-2.00		4.913e-02		-50.801		1.328e-02		7.796
4		0.00		-2.40		5.165e-02		-51.961		1.226e-02		7.980
4		0.00		-2.80		5.184e-02		-53.028		1.151e-02		9.200
4		0.00		-3.20		4.987e-02		-51.708		1.160e-02		11.327
4		0.00		-3.60		4.961e-02		-52.663		1.317e-02		13.335
4		0.00		-4.00		4.987e-02		-51.727		1.368e-02		13.290
4		0.00		-4.40		4.972e-02		-50.790		1.441e-02		15.563
4		0.00		-4.80		5.177e-02		-48.025		1.557e-02		15.648
4		0.00		-5.20		5.304e-02		-49.199		1.448e-02		9.130
4		0.00		-5.60		5.265e-02		-48.274		1.218e-02		8.340
4		0.00		-6.00		5.440e-02		-47.267		1.200e-02		7.860
4		0.00		-6.40		5.421e-02		-48.284		1.106e-02		10.308
4		0.00		-6.80		5.484e-02		-46.807		1.199e-02		9.810
4		0.00		-7.20		5.596e-02		-45.955		1.255e-02		11.566
4		0.00		-7.60		5.618e-02		-47.008		1.454e-02		12.729
4		0.00		-8.00		5.637e-02		-46.994		1.493e-02		16.323
4		0.00		-8.40		5.664e-02		-42.503		1.609e-02		16.732
4		0.00		-8.80		5.483e-02		-40.288		1.621e-02		22.787
4		0.00		-9.20		5.162e-02		-43.620		1.535e-02		10.458
4		0.00		-9.60		4.635e-02		-44.141		1.351e-02		9.337
4		0.00		-10.00		3.890e-02		-43.306		1.093e-02		10.613
4		0.00		-9.60		4.509e-02		-44.711		1.315e-02		11.769
4		0.00		-9.20		4.719e-02		-45.196		1.320e-02		13.005
4		0.00		-8.80		4.931e-02		-44.576		1.302e-02		12.631
4		0.00		-8.40		5.185e-02		-46.638		1.468e-02		13.876
4		0.00		-8.00		5.164e-02		-46.792		1.507e-02		16.925
4		0.00		-7.60		5.140e-02		-45.515		1.495e-02		20.126
4		0.00		-7.20		4.955e-02		-43.868		1.481e-02		23.454
4		0.00		-6.80		4.842e-02		-44.581		1.380e-02		13.951
4		0.00		-6.40		4.699e-02		-45.290		1.189e-02		9.286
4		0.00		-6.00		4.499e-02		-46.069		9.624e-03		9.005
4		0.00		-5.60		4.208e-02		-46.265		8.093e-03		8.307
4		0.00		-5.20		3.991e-02		-48.422		7.295e-03		9.058
4		0.00		-4.80		3.660e-02		-48.735		6.986e-03		11.150
4		0.00		-4.40		3.407e-02		-48.988		6.379e-03		10.329
4		0.00		-4.00		3.040e-02		-47.505		5.927e-03		10.016
4		0.00		-3.60		2.671e-02		-45.912		5.628e-03		10.837
4		0.00		-3.20		2.351e-02		-48.457		5.166e-03		10.414
4		0.00		-2.80		2.032e-02		-45.540		4.417e-03		11.999
4		0.00		-2.40		1.626e-02		-42.381		4.294e-03		14.070
4		0.00		-2.00		1.256e-02		-46.915		3.604e-03		16.378
4		0.00		-1.60		9.148e-03		-41.387		2.843e-03		17.225
4		0.00		-1.20		5.138e-03		-46.469		1.882e-03		18.735
4		0.00		-0.80		2.357e-03		1.318		1.193e-03		54.631
4		0.00		-0.40		3.869e-03		96.172		1.601e-03		51.350
5		0.00		0.00		7.203e-03		115.793		2.212e-03		21.013
5		0.00		0.40		1.128e-02		126.897		2.820e-03		12.396
5		0.00		0.80		1.509e-02		126.764		3.369e-03		12.477
5		0.00		1.20		1.848e-02		127.849		4.265e-03		11.229
5		0.00		1.60		2.264e-02		129.908		5.295e-03		10.367
5		0.00		2.00		2.570e-02		128.600		6.153e-03		13.646
5		0.00		2.40		2.854e-02		128.204		6.918e-03		17.408
5		0.00		2.80		3.189e-02		129.144		8.629e-03		17.016
5		0.00		3.20		3.586e-02		132.320		9.475e-03		9.345
5		0.00		3.60		3.857e-02		131.766		9.607e-03		8.363
5		0.00		4.00		4.192e-02		130.790		9.609e-03		7.386
5		0.00		4.40		4.436e-02		132.549		9.175e-03		7.893
5		0.00		4.80		4.676e-02		131.246		9.961e-03		8.132
5		0.00		5.20		4.847e-02		130.387		1.044e-02		9.162
5		0.00		5.60		4.936e-02		131.451		1.084e-02		10.542
5		0.00		6.00		5.003e-02		130.945		1.197e-02		11.460
5		0.00		6.40		5.164e-02		130.971		1.376e-02		11.659
5		0.00		6.80		5.398e-02		130.164		1.581e-02		13.789
5		0.00		7.20		5.486e-02		128.381		1.718e-02		18.822
5		0.00		7.60		5.665e-02		128.307		1.804e-02		23.265
5		0.00		8.00		5.907e-02		128.605		1.981e-02		22.336
5		0.00		8.40		6.000e-02		133.636		2.008e-02		10.739
5		0.00		8.80		6.084e-02		132.373		1.842e-02		7.733
5		0.00		9.20		6.171e-02		130.651		1.759e-02		9.749
5		0.00		9.60		6.003e-02		129.564		1.574e-02		12.058
5		0.00		10.00		5.755e-02		128.846		1.590e-02		13.383
5		0.00		9.60		5.777e-02		127.354		1.503e-02		13.985
5		0.00		9.20		5.573e-02		126.469		1.444e-02		14.576
5		0.00		8.80		5.309e-02		129.639		1.273e-02		11.635
5		0.00		8.40		4.990e-02		130.773		1.283e-02		12.594
5		0.00		8.00		4.825e-02		130.852		1.238e-02		13.748
5		0.00		7.60		4.606e-02		131.574		1.220e-02		13.771
5		0.00		7.20		4.345e-02		130.203		1.159e-02		19.432
5		0.00		6.80		4.068e-02		129.780		1.080e-02		22.115
5		0.00		6.40		3.713e-02		129.013		1.060e-02		21.098
5		0.00		6.00		3.313e-02		131.386		1.014e-02		17.019
5		0.00		5.60		3.003e-02		133.127		8.729e-03		10.302
5		0.00		5.20		2.664e-02		132.643		7.088e-03		8.613
5		0.00		4.80		2.290e-02		133.199		5.244e-03		8.415
5		0.00		4.40		1.885e-02		132.293		4.065e-03		9.424
5		0.00		4.00		1.473e-02		135.029		2.832e-03		10.519
5		0.00		3.60		1.039e-02		130.277		2.285e-03		12.224
5		0.00		3.20		5.737e-03		133.474		1.600e-03		18.986
5		0.00		2.80		1.915e-03		25.563		7.535e-04		83.534
5		0.00		2.40		4.904e-03		-59.352		1.668e-03		26.296
5		0.00		2.00		8.628e-03		-52.844		2.246e-03		18.293
5		0.00		1.60		1.380e-02		-51.782		3.498e-03		14.681
5		0.00		1.20		1.832e-02		-49.448		4.350e-03		12.774
5		0.00		0.80		2.228e-02		-46.679		5.713e-03		13.929
5		0.00		0.40		2.730e-02		-47.907		6.910e-03		10.432
5		0.00		0.00		3.156e-02		-49.796		8.111e-03		8.324
5		0.00		-0.40		3.573e-02		-49.918		8.678e-03		9.134
5		0.00		-0.80		4.034e-02		-51.399		8.604e-03		7.765
5		0.00		-1.20		4.425e-02		-50.332		8.816e-03		8.037
5		0.00		-1.60		4.736e-02		-51.397		9.067e-03		7.353
5		0.00		-2.00		4.932e-02		-52.145		9.395e-03		8.469
5		0.00		-2.40		4.994e-02		-52.589		1.009e-02		9.672
5		0.00		-2.80		4.899e-02		-51.690		1.084e-02		10.049
5		0.00		-3.20		5.069e-02		-51.336		1.188e-02		10.402
5		0.00		-3.60		5.019e-02		-50.431		1.289e-02		10.721
5		0.00		-4.00		5.116e-02		-52.154		1.396e-02		13.252
5		0.00		-4.40		5.189e-02		-49.894		1.484e-02		15.390
5		0.00		-4.80		5.173e-02		-50.143		1.509e-02		15.056
5		0.00		-5.20		5.339e-02		-46.824		1.591e-02		12.263
5		0.00		-5.60		5.407e-02		-47.561		1.344e-02		8.275
5		0.00		-6.00		5.519e-02		-47.852		1.285e-02		7.090
5		0.00		-6.40		5.529e-02		-46.386		1.236e-02		9.137
5		0.00		-6.80		5.667e-02		-46.913		1.296e-02		10.142
5		0.00		-7.20		5.776e-02		-47.657		1.347e-02		10.902
5		0.00		-7.60		5.580e-02		-47.842		1.341e-02		13.044
5		0.00		-8.00		5.669e-02		-46.507		1.402e-02		10.530
5		0.00		-8.40		5.661e-02		-45.239		1.552e-02		14.074
5		0.00		-8.80		5.435e-02		-44.038		1.543e-02		17.349
5		0.00		-9.20		5.245e-02		-38.756		1.610e-02		22.715
5		0.00		-9.60		4.790e-02		-37.837		1.578e-02		22.070
5		0.00		-10.00		4.084e-02		-42.236		1.334e-02		10.373
5		0.00		-9.60		4.495e-02		-43.330		1.434e-02		9.366
5		0.00		-9.20		4.910e-02		-43.808		1.416e-02		9.241
5		0.00		-8.80		5.163e-02		-45.168		1.397e-02		11.090
5		0.00		-8.40		5.203e-02		-46.268		1.351e-02		13.280
5		0.00		-8.00		5.172e-02		-47.335		1.337e-02		12.906
5		0.00		-7.60		5.231e-02		-46.234		1.393e-02		11.309
5		0.00		-7.20		5.020e-02		-45.786		1.408e-02		13.911
5		0.00		-6.80		4.915e-02		-45.958		1.452e-02		19.902
5		0.00		-6.40		4.647e-02		-44.981		1.280e-02		14.278
5		0.00		-6.00		4.451e-02		-44.901		1.150e-02		9.639
5		0.00		-5.60		4.216e-02		-47.198		9.940e-03		8.520
5		0.00		-5.20		3.909e-02		-47.344		7.702e-03		8.638
5		0.00		-4.80		3.675e-02		-49.481		6.586e-03		8.328
5		0.00		-4.40		3.388e-02		-49.223		5.780e-03		9.470
5		0.00		-4.00		3.008e-02		-48.860		5.791e-03		10.482
5		0.00		-3.60		2.701e-02		-46.740		4.944e-03		9.537
5		0.00		-3.20		2.392e-02		-46.722		4.959e-03		9.850
5		0.00		-2.80		2.069e-02		-47.430		4.684e-03		12.389
5		0.00		-2.40		1.701e-02		-47.336		3.935e-03		13.598
5		0.00		-2.00		1.256e-02		-39.955		3.406e-03		11.400
5		0.00		-1.60		8.713e-03		-40.222		2.408e-03		13.957
5		0.00		-1.20		4.780e-03		-32.097		1.709e-03		22.979
5		0.00		-0.80		2.141e-03		19.544		8.502e-04		58.481
5		0.00		-0.40		4.479e-03		107.045		1.405e-03		33.767
6		0.00		0.00		8.613e-03		121.268		2.322e-03		16.237
6		0.00		0.40		1.285e-02		126.857		2.725e-03		11.008
6		0.00		0.80		1.643e-02		125.462		3.733e-03		10.837
6		0.00		1.20		2.013e-02		129.998		4.841e-03		12.886
6		0.00		1.60		2.359e-02		128.258		5.514e-03		13.239
6		0.00		2.00		2.718e-02		130.340		6.878e-03		13.777
6		0.00		2.40		3.110e-02		131.386		7.666e-03		9.590
6		0.00		2.80		3.457e-02		130.905		7.800e-03		7.391
6		0.00		3.20		3.797e-02		130.703		7.737e-03		6.920
6		0.00		3.60		4.024e-02		130.309		7.896e-03		7.517
6		0.00		4.00		4.227e-02		130.176		8.659e-03		9.031
6		0.00		4.40		4.495e-02		132.267		9.280e-03		8.380
6		0.00		4.80		4.677e-02		131.322		1.175e-02		11.723
6		0.00		5.20		4.896e-02		129.845		1.281e-02		16.377
6		0.00		5.60		5.137e-02		129.408		1.461e-02		21.813
6		0.00		6.00		5.337e-02		130.751		1.569e-02		15.496
6		0.00		6.40		5.509e-02		132.137		1.554e-02		7.600
6		0.00		6.80		5.626e-02		132.061		1.440e-02		9.007
6		0.00		7.20		5.652e-02		131.266		1.442e-02		9.520
6		0.00		7.60		5.570e-02		130.877		1.381e-02		12.680
6		0.00		8.00		5.610e-02		130.746		1.571e-02		12.604
6		0.00		8.40		5.697e-02		130.438		1.729e-02		14.592
6		0.00		8.80		5.820e-02		127.263		1.945e-02		23.138
6		0.00		9.20		6.111e-02		126.108		2.216e-02		32.478
6		0.00		9.60		5.875e-02		125.974		2.127e-02		29.176
6		0.00		10.00		5.791e-02		130.718		1.800e-02		9.880
6		0.00		9.60		5.833e-02		129.145		1.566e-02		11.957
6		0.00		9.20		5.761e-02		128.617		1.447e-02		13.112
6		0.00		8.80		5.337e-02		128.642		1.300e-02		15.496
6		0.00		8.40		5.175e-02		130.908		1.227e-02		11.692
6		0.00		8.00		4.995e-02		130.736		1.331e-02		11.987
6		0.00		7.60		4.758e-02		129.612		1.325e-02		18.946
6		0.00		7.20		4.586e-02		130.193		1.277e-02		22.056
6		0.00		6.80		4.186e-02		133.154		1.155e-02		11.247
6		0.00		6.40		3.892e-02		134.571		8.948e-03		9.433
6		0.00		6.00		3.639e-02		133.228		7.014e-03		8.689
6		0.00		5.60		3.233e-02		132.178		6.370e-03		10.407
6		0.00		5.20		2.817e-02		133.196		5.694e-03		9.715
6		0.00		4.80		2.390e-02		133.690		5.450e-03		10.084
6		0.00		4.40		2.019e-02		131.825		4.844e-03		16.312
6		0.00		4.00		1.558e-02		130.346		4.173e-03		22.149
6		0.00		3.60		1.132e-02		131.596		3.120e-03		14.903
6		0.00		3.20		6.905e-03		133.765		1.765e-03		13.868
6		0.00		2.80		2.417e-03		56.734		9.598e-04		86.944
6		0.00		2.40		3.904e-03		-56.719		1.223e-03		26.612
6		0.00		2.00		8.510e-03		-60.229		2.303e-03		15.595
6		0.00		1.60		1.341e-02		-54.029		3.234e-03		11.765
6		0.00		1.20		1.810e-02		-50.248		4.330e-03		13.495
6		0.00		0.80		2.281e-02		-48.146		5.588e-03		11.191
6		0.00		0.40		2.781e-02		-49.160		6.338e-03		9.616
6		0.00		0.00		3.275e-02		-50.345		6.491e-03		8.231
6		0.00		-0.40		3.763e-02		-49.722		6.434e-03		8.234
6		0.00		-0.80		4.189e-02		-50.383		6.503e-03		8.133
6		0.00		-1.20		4.546e-02		-50.286		7.338e-03		8.883
6		0.00		-1.60		4.740e-02		-49.342		8.963e-03		9.865
6		0.00		-2.00		4.876e-02		-49.172		1.064e-02		10.389
6		0.00		-2.40		5.041e-02		-50.555		1.298e-02		14.426
6		0.00		-2.80		5.103e-02		-49.171		1.505e-02		12.215
6		0.00		-3.20		5.098e-02		-50.994		1.502e-02		8.382
6		0.00		-3.60		5.193e-02		-50.966		1.277e-02		7.936
6		0.00		-4.00		5.181e-02		-51.244		1.193e-02		8.433
6		0.00		-4.40		5.141e-02		-52.652		1.145e-02		10.855
6		0.00		-4.80		5.043e-02		-49.519		1.203e-02		11.780
6		0.00		-5.20		5.180e-02		-48.119		1.386e-02		10.103
6		0.00		-5.60		5.165e-02		-47.272		1.498e-02		14.516
6		0.00		-6.00		5.428e-02		-47.110		1.687e-02		15.244
6		0.00		-6.40		5.467e-02		-46.335		1.610e-02		10.182
6		0.00		-6.80		5.548e-02		-46.204		1.329e-02		7.447
6		0.00		-7.20		5.713e-02		-46.053		1.277e-02		8.715
6		0.00		-7.60		5.769e-02		-47.076		1.326e-02		11.971
6		0.00		-8.00		5.617e-02		-47.378		1.347e-02		11.531
6		0.00		-8.40		5.607e-02		-45.628		1.377e-02		11.693
6		0.00		-8.80		5.379e-02		-44.057		1.477e-02		16.305
6		0.00		-9.20		5.193e-02		-40.620		1.526e-02		21.570
6		0.00		-9.60		4.743e-02		-35.770		1.478e-02		25.560
6		0.00		-10.00		4.088e-02		-41.158		1.243e-02		9.944
6		0.00		-9.60		4.589e-02		-42.513		1.274e-02		8.937
6		0.00		-9.20		4.994e-02		-44.190		1.294e-02		10.304
6		0.00		-8.80		5.183e-02		-43.385		1.235e-02		11.068
6		0.00		-8.40		5.341e-02		-45.499		1.273e-02		11.839
6		0.00		-8.00		5.302e-02		-45.979		1.319e-02		11.626
6		0.00		-7.60		5.180e-02		-45.829		1.483e-02		13.661
6		0.00		-7.20		4.986e-02		-45.763		1.425e-02		17.639
6		0.00		-6.80		4.887e-02		-45.400		1.470e-02		19.193
6		0.00		-6.40		4.647e-02		-45.599		1.382e-02		10.182
6		0.00		-6.00		4.431e-02		-45.690		1.143e-02		8.984
6		0.00		-5.60		4.271e-02		-47.117		9.009e-03		8.474
6		0.00		-5.20		4.051e-02		-48.576		7.616e-03		8.689
6		0.00		-4.80		3.706e-02		-47.631		6.837e-03		10.102
6		0.00		-4.40		3.411e-02		-46.821		6.410e-03		8.637
6		0.00		-4.00		3.079e-02		-46.500		6.369e-03		9.037
6		0.00		-3.60		2.718e-02		-47.189		5.901e-03		12.388
6		0.00		-3.20		2.394e-02		-48.286		5.596e-03		12.166
6		0.00		-2.80		2.043e-02		-46.256		4.898e-03		11.689
6		0.00		-2.40		1.670e-02		-46.560		3.900e-03		10.521
6		0.00		-2.00		1.264e-02		-44.278		2.731e-03		10.720
6		0.00		-1.60		8.886e-03		-39.729		2.001e-03		14.341
6		0.00		-1.20		4.891e-03		-29.462		1.668e-03		22.275
6		0.00		-0.80		2.333e-03		29.732		8.343e-04		57.388
6		0.00		-0.40		4.322e-03		110.427		1.542e-03		25.858
7		0.00		0.00		8.375e-03		119.863		2.257e-03		16.562
7		0.00		0.40		1.228e-02		126.662		3.329e-03		15.970
7		0.00		0.80		1.608e-02		127.734		4.274e-03		20.122
7		0.00		1.20		1.968e-02		126.274		5.616e-03		15.892
7		0.00		1.60		2.366e-02		129.157		6.433e-03		8.005
7		0.00		2.00		2.738e-02		131.386		6.433e-03		7.566
7		0.00		2.40		3.122e-02		130.721		6.862e-03		6.595
7		0.00		2.80		3.489e-02		130.844		6.905e-03		7.876
7		0.00		3.20		3.723e-02		130.839		7.300e-03		7.833
7		0.00		3.60		3.966e-02		131.698		8.195e-03		8.418
7		0.00		4.00		4.287e-02		132.477		9.450e-03		9.194
7		0.00		4.40		4.479e-02		131.929		1.066e-02		12.448
7		0.00		4.80		4.709e-02		130.751		1.200e-02		18.672
7		0.00		5.20		5.013e-02		129.987		1.324e-02		19.004
7		0.00		5.60		5.254e-02		130.350		1.487e-02		14.942
7		0.00		6.00		5.445e-02		132.382		1.455e-02		7.248
7		0.00		6.40		5.623e-02		133.005		1.333e-02		6.868
7		0.00		6.80		5.771e-02		133.055		1.332e-02		7.842
7		0.00		7.20		5.749e-02		132.534		1.364e-02		9.339
7		0.00		7.60		5.831e-02		129.589		1.461e-02		12.709
7		0.00		8.00		5.963e-02		131.624		1.352e-02		12.672
7		0.00		8.40		5.721e-02		128.415		1.668e-02		14.345
7		0.00		8.80		5.850e-02		126.868		1.810e-02		16.472
7		0.00		9.20		5.952e-02		125.230		1.971e-02		24.250
7		0.00		9.60		5.889e-02		125.831		2.114e-02		27.879
7		0.00		10.00		5.600e-02		129.108		2.044e-02		26.397
7		0.00		9.60		5.910e-02		127.648		2.112e-02		26.029
7		0.00		9.20		5.724e-02		131.214		1.856e-02		12.255
7		0.00		8.80		5.648e-02		132.218		1.630e-02		9.310
7		0.00		8.40		5.386e-02		133.058		1.376e-02		9.838
7		0.00		8.00		5.195e-02		132.861		1.221e-02		9.292
7		0.00		7.60		4.805e-02		131.007		1.084e-02		11.392
7		0.00		7.20		4.424e-02		131.222		9.814e-03		11.367
7		0.00		6.80		4.210e-02		132.471		9.624e-03		11.069
7		0.00		6.40		3.893e-02		133.368		9.176e-03		10.150
7		0.00		6.00		3.541e-02		132.660		8.729e-03		11.103
7		0.00		5.60		3.219e-02		131.178		8.233e-03		20.199
7		0.00		5.20		2.898e-02		130.730		7.449e-03		22.264
7		0.00		4.80		2.499e-02		130.304		6.509e-03		23.600
7		0.00		4.40		2.060e-02		134.979		5.820e-03		12.565
7		0.00		4.00		1.680e-02		134.171		4.419e-03		9.894
7		0.00		3.60		1.269e-02		135.332		3.001e-03		10.928
7		0.00		3.20		8.597e-03		137.257		1.766e-03		13.849
7		0.00		2.80		3.367e-03		100.711		1.243e-03		65.851
7		0.00		2.40		2.459e-03		-36.075		1.032e-03		59.343
7		0.00		2.00		6.903e-03		-56.828		1.887e-03		25.097
7		0.00		1.60		1.132e-02		-52.813		2.807e-03		15.108
7		0.00		1.20		1.560e-02		-50.566		3.738e-03		13.858
7		0.00		0.80		1.974e-02		-51.241		4.673e-03		12.435
7		0.00		0.40		2.428e-02		-48.235		5.914e-03		12.942
7		0.00		0.00		2.831e-02		-48.463		7.074e-03		14.994
7		0.00		-0.40		3.296e-02		-47.436		8.675e-03		12.740
7		0.00		-0.80		3.642e-02		-48.703		9.209e-03		9.302
7		0.00		-1.20		3.974e-02		-50.649		9.504e-03		9.783
7		0.00		-1.60		4.364e-02		-49.687		9.116e-03		7.995
7		0.00		-2.00		4.669e-02		-50.677		9.232e-03		8.918
7		0.00		-2.40		4.880e-02		-51.621		9.640e-03		9.175
7		0.00		-2.80		4.973e-02		-51.077		9.606e-03		9.677
7		0.00		-3.20		4.994e-02		-50.894		1.004e-02		11.353
7		0.00		-3.60		5.010e-02		-50.412		1.148e-02		10.620
7		0.00		-4.00		4.935e-02		-48.528		1.253e-02		9.898
7		0.00		-4.40		4.861e-02		-49.393		1.331e-02		11.197
7		0.00		-4.80		5.108e-02		-48.194		1.527e-02		14.128
7		0.00		-5.20		5.012e-02		-47.879		1.543e-02		11.375
7		0.00		-5.60		5.165e-02		-47.029		1.475e-02		7.793
7		0.00		-6.00		5.301e-02		-46.017		1.352e-02		7.312
7		0.00		-6.40		5.416e-02		-46.350		1.290e-02		9.119
7		0.00		-6.80		5.446e-02		-47.316		1.230e-02		10.262
7		0.00		-7.20		5.454e-02		-48.618		1.252e-02		11.577
7		0.00		-7.60		5.539e-02		-46.667		1.305e-02		10.693
7		0.00		-8.00		5.655e-02		-46.683		1.529e-02		12.489
7		0.00		-8.40		5.544e-02		-46.173		1.567e-02		15.193
7		0.00		-8.80		5.487e-02		-41.563		1.643e-02		19.201
7		0.00		-9.20		5.197e-02		-36.328		1.628e-02		18.515
7		0.00		-9.60		4.665e-02		-41.244		1.417e-02		13.893
7		0.00		-10.00		4.056e-02		-41.317		1.076e-02		7.861
7		0.00		-9.60		4.627e-02		-44.254		1.248e-02		10.249
7		0.00		-9.20		5.005e-02		-43.454		1.367e-02		11.575
7		0.00		-8.80		5.161e-02		-43.857		1.334e-02		11.848
7		0.00		-8.40		5.346e-02		-45.469		1.400e-02		11.241
7		0.00		-8.00		5.315e-02		-46.501		1.612e-02		14.736
7		0.00		-7.60		5.251e-02		-47.479		1.630e-02		21.803
7		0.00		-7.20		5.056e-02		-45.866		1.620e-02		17.634
7		0.00		-6.80		4.864e-02		-44.591		1.465e-02		8.670
7		0.00		-6.40		4.689e-02		-45.903		1.248e-02		8.557
7		0.00		-6.00		4.435e-02		-45.943		9.459e-03		8.664
7		0.00		-5.60		4.221e-02		-47.300		8.961e-03		9.725
7		0.00		-5.20		3.840e-02		-47.578		8.520e-03		10.648
7		0.00		-4.80		3.659e-02		-47.710		8.088e-03		10.242
7		0.00		-4.40		3.284e-02		-47.286		7.726e-03		12.132
7		0.00		-4.00		2.956e-02		-47.137		6.938e-03		12.971
7		0.00		-3.60		2.683e-02		-47.469		6.432e-03		14.475
7		0.00		-3.20		2.362e-02		-46.242		5.436e-03		9.100
7		0.00		-2.80		2.036e-02		-44.315		3.989e-03		8.224
7		0.00		-2.40		1.688e-02		-46.007		3.341e-03		9.031
7		0.00		-2.00		1.252e-02		-43.549		2.219e-03		13.441
7		0.00		-1.60		8.965e-03		-41.415		1.777e-03		15.857
7		0.00		-1.20		4.899e-03		-25.378		1.653e-03		23.072
7		0.00		-0.80		2.091e-03		16.328		9.098e-04		54.299
7		0.00		-0.40		4.141e-03		106.370		1.475e-03		30.927
8		0.00		0.00		8.345e-03		120.035		2.396e-03		20.841
8		0.00		0.40		1.211e-02		124.530		3.466e-03		15.933
8		0.00		0.80		1.591e-02		130.196		4.349e-03		9.251
8		0.00		1.20		2.040e-02		131.664		4.637e-03		7.429
8		0.00		1.60		2.426e-02		129.883		4.865e-03		7.885
8		0.00		2.00		2.730e-02		130.133		5.493e-03		8.376
8		0.00		2.40		3.045e-02		130.020		6.662e-03		9.618
8		0.00		2.80		3.360e-02		132.392		8.013e-03		8.891
8		0.00		3.20		3.604e-02		128.359		9.900e-03		17.875
8		0.00		3.60		3.884e-02		129.307		1.107e-02		19.355
8		0.00		4.00		4.217e-02		131.963		1.195e-02		11.041
8		0.00		4.40		4.518e-02		132.363		1.153e-02		6.753
8		0.00		4.80		4.825e-02		132.077		1.107e-02		6.650
8		0.00		5.20		4.931e-02		130.914		1.080e-02		8.319
8		0.00		5.60		5.087e-02		131.016		1.156e-02		10.173
8		0.00		6.00		5.221e-02		131.694		1.280e-02		11.610
8		0.00		6.40		5.386e-02		130.245		1.517e-02		14.852
8		0.00		6.80		5.600e-02		131.846		1.628e-02		20.055
8		0.00		7.20		5.850e-02		130.314		1.826e-02		24.103
8		0.00		7.60		5.968e-02		131.080		1.835e-02		12.824
8		0.00		8.00		6.063e-02		133.123		1.642e-02		9.136
8		0.00		8.40		6.034e-02		131.391		1.662e-02		12.070
8		0.00		8.80		5.960e-02		129.036		1.604e-02		15.895
8		0.00		9.20		5.805e-02		124.557		1.735e-02		24.803
8		0.00		9.60		5.680e-02		123.628		1.979e-02		20.362
8		0.00		10.00		5.514e-02		128.537		2.042e-02		20.140
8		0.00		9.60		5.757e-02		125.952		2.200e-02		28.109
8		0.00		9.20		5.741e-02		126.643		2.064e-02		25.218
8		0.00		8.80		5.461e-02		131.443		1.742e-02		9.578
8		0.00		8.40		5.270e-02		130.366		1.487e-02		10.933
8		0.00		8.00		4.868e-02		131.041		1.301e-02		14.046
8		0.00		7.60		4.692e-02		130.846		1.142e-02		11.788
8		0.00		7.20		4.489e-02		131.875		1.158e-02		11.209
8		0.00		6.80		4.279e-02		132.281		1.178e-02		14.290
8		0.00		6.40		3.927e-02		130.103		1.091e-02		21.819
8		0.00		6.00		3.704e-02		132.553		1.048e-02		12.864
8		0.00		5.60		3.378e-02		134.091		8.455e-03		7.279
8		0.00		5.20		2.994e-02		132.430		6.417e-03		8.081
8		0.00		4.80		2.554e-02		133.920		5.176e-03		9.239
8		0.00		4.40		2.167e-02		132.577		4.389e-03		10.485
8		0.00		4.00		1.716e-02		137.570		3.833e-03		9.948
8		0.00		3.60		1.266e-02		133.705		2.906e-03		16.081
8		0.00		3.20		8.147e-03		129.526		2.145e-03		25.930
8		0.00		2.80		3.551e-03		99.829		1.336e-03		72.700
8		0.00		2.40		2.501e-03		-39.439		1.014e-03		52.209
8		0.00		2.00		6.599e-03		-54.887		2.104e-03		20.495
8		0.00		1.60		1.165e-02		-52.679		2.748e-03		13.308
8		0.00		1.20		1.690e-02		-51.612		3.347e-03		12.312
8		0.00		0.80		2.141e-02		-50.096		4.219e-03		11.771
8		0.00		0.40		2.549e-02		-48.475		5.473e-03		11.605
8		0.00		0.00		2.936e-02		-48.375		6.862e-03		11.696
8		0.00		-0.40		3.344e-02		-50.026		8.250e-03		14.308
8		0.00		-0.80		3.728e-02		-47.802		9.737e-03		13.223
8		0.00		-1.20		4.175e-02		-50.108		1.043e-02		8.938
8		0.00		-1.60		4.518e-02		-50.100		9.722e-03		8.051
8		0.00		-2.00		4.851e-02		-50.871		9.482e-03		8.125
8		0.00		-2.40		5.080e-02		-51.466		9.204e-03		8.170
8		0.00		-2.80		5.112e-02		-50.419		9.364e-03		9.198
8		0.00		-3.20		5.218e-02		-50.005		1.126e-02		9.398
8		0.00		-3.60		5.190e-02		-50.521		1.315e-02		11.471
8		0.00		-4.00		5.404e-02		-50.397		1.398e-02		12.486
8		0.00		-4.40		5.532e-02		-50.618		1.550e-02		11.590
8		0.00		-4.80		5.514e-02		-47.922		1.530e-02		7.252
8		0.00		-5.20		5.461e-02		-46.883		1.389e-02		7.876
8		0.00		-5.60		5.452e-02		-46.755		1.324e-02		8.996
8		0.00		-6.00		5.597e-02		-47.355		1.366e-02		8.995
8		0.00		-6.40		5.476e-02		-49.469		1.397e-02		12.365
8		0.00		-6.80		5.441e-02		-47.072		1.347e-02		11.610
8		0.00		-7.20		5.570e-02		-46.627		1.463e-02		11.864
8		0.00		-7.60		5.645e-02		-47.727		1.711e-02		15.013
8		0.00		-8.00		5.585e-02		-45.593		1.715e-02		17.988
8		0.00		-8.40		5.624e-02		-42.046		1.716e-02		19.899
8		0.00		-8.80		5.536e-02		-43.336		1.686e-02		17.239
8		0.00		-9.20		5.218e-02		-41.947		1.520e-02		10.697
8		0.00		-9.60		4.682e-02		-42.072		1.313e-02		7.743
8		0.00		-10.00		4.041e-02		-41.723		1.052e-02		6.990
8		0.00		-9.60		4.510e-02		-44.156		1.164e-02		9.782
8		0.00		-9.20		5.102e-02		-43.114		1.298e-02		10.492
8		0.00		-8.80		5.177e-02		-42.731		1.156e-02		10.036
8		0.00		-8.40		5.172e-02		-44.654		1.258e-02		10.972
8		0.00		-8.00		5.369e-02		-43.898		1.264e-02		10.442
8		0.00		-7.60		5.387e-02		-44.470		1.305e-02		10.814
8		0.00		-7.20		5.195e-02		-45.266		1.320e-02		14.690
8		0.00		-6.80		5.003e-02		-46.035		1.401e-02		17.344
8		0.00		-6.40		4.749e-02		-46.321		1.388e-02		16.824
8		0.00		-6.00		4.548e-02		-45.269		1.303e-02		11.196
8		0.00		-5.60		4.289e-02		-46.372		1.127e-02		7.212
8		0.00		-5.20		4.063e-02		-45.966		9.397e-03		6.947
8		0.00		-4.80		3.769e-02		-46.967		7.609e-03		6.986
8		0.00		-4.40		3.492e-02		-48.209		6.256e-03		7.431
8		0.00		-4.00		3.161e-02		-48.967		5.477e-03		8.419
8		0.00		-3.60		2.814e-02		-47.281		4.605e-03		8.932
8		0.00		-3.20		2.489e-02		-48.353		4.128e-03		9.520
8		0.00		-2.80		2.087e-02		-43.695		3.535e-03		10.415
8		0.00		-2.40		1.673e-02		-43.317		2.867e-03		9.883
8		0.00		-2.00		1.239e-02		-41.051		2.629e-03		12.535
8		0.00		-1.60		8.395e-03		-36.087		2.130e-03		14.148
8		0.00		-1.20		4.553e-03		-22.165		1.510e-03		27.743
8		0.00		-0.80		2.178e-03		30.944		7.772e-04		64.105
8		0.00		-0.40		4.843e-03		108.706		1.663e-03		35.814
