# Date of analysis: 2024-03-08 10;58
# Segment other properties: height: -46.2207908354012, diff height: 227.45487940336608, deflection: 35.331248814920706, deflection error: 3.243201549404227, adhesion: 49.46691670491305, phase offset: 0
# 
# Loop index	Read Volt (V)	Write Volt (V)	Amplitude (a.u)	Phase (deg)	Sigma Amp (a.u)	Sigma Pha (deg)	
1		0.00		0.00		2.490e-02		-42.879		9.433e-03		35.520
1		0.00		0.40		2.227e-02		-49.993		5.402e-03		14.000
1		0.00		0.80		1.642e-02		-51.978		4.608e-03		14.097
1		0.00		1.20		1.097e-02		-51.889		3.220e-03		15.264
1		0.00		1.60		5.984e-03		-54.308		1.948e-03		16.253
1		0.00		2.00		2.017e-03		-13.509		8.831e-04		59.577
1		0.00		2.40		4.405e-03		114.341		1.636e-03		34.900
1		0.00		2.80		9.006e-03		120.848		2.883e-03		24.106
1		0.00		3.20		1.362e-02		124.305		4.126e-03		21.873
1		0.00		3.60		1.795e-02		126.232		5.213e-03		18.443
1		0.00		4.00		2.248e-02		127.535		6.222e-03		15.916
1		0.00		4.40		2.591e-02		127.992		7.138e-03		18.187
1		0.00		4.80		3.057e-02		126.450		8.625e-03		14.809
1		0.00		5.20		3.342e-02		127.582		9.867e-03		12.770
1		0.00		5.60		3.644e-02		126.023		1.115e-02		16.779
1		0.00		6.00		3.968e-02		127.338		1.216e-02		11.790
1		0.00		6.40		4.298e-02		128.370		1.356e-02		14.521
1		0.00		6.80		4.567e-02		126.385		1.460e-02		13.975
1		0.00		7.20		4.761e-02		127.455		1.506e-02		14.706
1		0.00		7.60		4.895e-02		125.838		1.649e-02		19.940
1		0.00		8.00		5.085e-02		126.155		1.797e-02		21.586
1		0.00		8.40		5.071e-02		127.933		1.748e-02		21.741
1		0.00		8.80		5.271e-02		123.871		1.896e-02		26.684
1		0.00		9.20		5.109e-02		124.268		1.822e-02		30.038
1		0.00		9.60		5.028e-02		122.381		1.882e-02		30.111
1		0.00		10.00		4.737e-02		124.050		1.790e-02		34.217
1		0.00		9.60		4.722e-02		122.434		1.782e-02		31.299
1		0.00		9.20		4.662e-02		121.117		1.649e-02		34.043
1		0.00		8.80		4.494e-02		124.389		1.495e-02		26.215
1		0.00		8.40		4.233e-02		125.718		1.349e-02		25.424
1		0.00		8.00		4.031e-02		126.108		1.250e-02		24.048
1		0.00		7.60		3.749e-02		124.518		1.154e-02		24.364
1		0.00		7.20		3.451e-02		125.569		1.041e-02		22.190
1		0.00		6.80		3.161e-02		125.734		9.541e-03		23.352
1		0.00		6.40		2.857e-02		126.396		8.538e-03		20.498
1		0.00		6.00		2.531e-02		125.786		7.269e-03		20.371
1		0.00		5.60		2.229e-02		126.459		6.186e-03		18.329
1		0.00		5.20		1.900e-02		126.582		5.396e-03		21.710
1		0.00		4.80		1.569e-02		124.275		4.375e-03		18.353
1		0.00		4.40		1.188e-02		124.910		3.211e-03		17.593
1		0.00		4.00		7.855e-03		126.837		2.251e-03		20.128
1		0.00		3.60		4.147e-03		116.402		1.315e-03		27.625
1		0.00		3.20		1.997e-03		10.859		9.354e-04		55.908
1		0.00		2.80		5.299e-03		-47.282		1.971e-03		20.470
1		0.00		2.40		9.781e-03		-52.719		3.090e-03		14.548
1		0.00		2.00		1.456e-02		-48.779		4.263e-03		13.069
1		0.00		1.60		1.873e-02		-54.196		5.366e-03		13.812
1		0.00		1.20		2.410e-02		-50.402		6.361e-03		11.969
1		0.00		0.80		2.856e-02		-50.997		7.497e-03		14.840
1		0.00		0.40		3.341e-02		-50.515		8.763e-03		12.528
1		0.00		0.00		3.748e-02		-50.593		9.503e-03		13.107
1		0.00		-0.40		4.149e-02		-51.433		1.083e-02		14.895
1		0.00		-0.80		4.519e-02		-51.705		1.172e-02		14.116
1		0.00		-1.20		4.797e-02		-51.580		1.259e-02		13.163
1		0.00		-1.60		5.120e-02		-52.692		1.372e-02		13.388
1		0.00		-2.00		5.193e-02		-52.243		1.476e-02		14.436
1		0.00		-2.40		5.304e-02		-50.440		1.514e-02		9.059
1		0.00		-2.80		5.533e-02		-53.318		1.704e-02		13.352
1		0.00		-3.20		5.349e-02		-53.110		1.683e-02		17.560
1		0.00		-3.60		5.610e-02		-51.355		1.863e-02		15.114
1		0.00		-4.00		5.521e-02		-51.638		1.847e-02		13.856
1		0.00		-4.40		5.525e-02		-49.099		1.853e-02		13.049
1		0.00		-4.80		5.410e-02		-48.213		1.807e-02		14.157
1		0.00		-5.20		5.516e-02		-50.293		1.838e-02		15.592
1		0.00		-5.60		5.518e-02		-51.913		1.868e-02		14.131
1		0.00		-6.00		5.522e-02		-49.808		1.832e-02		11.432
1		0.00		-6.40		5.512e-02		-49.115		1.707e-02		7.604
1		0.00		-6.80		5.692e-02		-48.931		1.643e-02		7.189
1		0.00		-7.20		5.670e-02		-47.817		1.527e-02		7.041
1		0.00		-7.60		5.746e-02		-47.890		1.534e-02		8.539
1		0.00		-8.00		5.814e-02		-46.972		1.497e-02		7.563
1		0.00		-8.40		5.666e-02		-46.781		1.441e-02		8.823
1		0.00		-8.80		5.540e-02		-45.208		1.430e-02		8.212
1		0.00		-9.20		4.967e-02		-44.253		1.341e-02		9.415
1		0.00		-9.60		4.571e-02		-45.818		1.271e-02		9.094
1		0.00		-10.00		3.925e-02		-44.028		1.061e-02		10.642
1		0.00		-9.60		4.316e-02		-44.849		1.193e-02		10.176
1		0.00		-9.20		4.613e-02		-44.527		1.285e-02		11.441
1		0.00		-8.80		4.668e-02		-45.735		1.384e-02		13.874
1		0.00		-8.40		4.872e-02		-49.669		1.518e-02		15.783
1		0.00		-8.00		4.893e-02		-49.085		1.466e-02		13.755
1		0.00		-7.60		4.856e-02		-49.904		1.494e-02		13.924
1		0.00		-7.20		4.632e-02		-50.143		1.427e-02		13.918
1		0.00		-6.80		4.433e-02		-49.109		1.378e-02		15.757
1		0.00		-6.40		4.203e-02		-49.985		1.274e-02		17.329
1		0.00		-6.00		3.906e-02		-50.476		1.194e-02		20.693
1		0.00		-5.60		3.672e-02		-49.310		1.058e-02		17.414
1		0.00		-5.20		3.447e-02		-47.548		9.751e-03		12.516
1		0.00		-4.80		3.171e-02		-50.385		8.808e-03		14.466
1		0.00		-4.40		2.803e-02		-50.139		7.440e-03		9.121
1		0.00		-4.00		2.523e-02		-49.129		6.399e-03		8.733
1		0.00		-3.60		2.204e-02		-51.031		5.389e-03		11.480
1		0.00		-3.20		1.864e-02		-49.106		4.249e-03		10.378
1		0.00		-2.80		1.552e-02		-47.178		3.399e-03		10.919
1		0.00		-2.40		1.176e-02		-48.043		2.511e-03		11.678
1		0.00		-2.00		7.808e-03		-51.042		1.864e-03		13.771
1		0.00		-1.60		3.885e-03		-51.599		1.248e-03		23.643
1		0.00		-1.20		1.858e-03		13.120		7.907e-04		80.662
1		0.00		-0.80		4.993e-03		114.336		1.780e-03		28.360
1		0.00		-0.40		8.392e-03		122.982		2.430e-03		13.773
2		0.00		0.00		1.270e-02		127.672		3.786e-03		11.325
2		0.00		0.40		1.642e-02		127.044		4.534e-03		11.967
2		0.00		0.80		1.917e-02		126.684		5.799e-03		15.864
2		0.00		1.20		2.233e-02		126.970		6.884e-03		17.900
2		0.00		1.60		2.590e-02		126.485		7.795e-03		17.412
2		0.00		2.00		2.932e-02		126.128		8.895e-03		22.460
2		0.00		2.40		3.286e-02		127.842		9.333e-03		19.977
2		0.00		2.80		3.576e-02		128.125		1.002e-02		19.073
2		0.00		3.20		3.934e-02		128.911		1.089e-02		15.266
2		0.00		3.60		4.199e-02		130.616		1.144e-02		7.894
2		0.00		4.00		4.443e-02		129.381		1.175e-02		7.367
2		0.00		4.40		4.778e-02		130.089		1.219e-02		7.304
2		0.00		4.80		4.975e-02		130.896		1.229e-02		6.690
2		0.00		5.20		5.177e-02		130.871		1.250e-02		7.056
2		0.00		5.60		5.296e-02		129.968		1.301e-02		9.934
2		0.00		6.00		5.352e-02		128.501		1.397e-02		12.899
2		0.00		6.40		5.261e-02		128.867		1.547e-02		15.274
2		0.00		6.80		5.510e-02		127.832		1.755e-02		14.674
2		0.00		7.20		5.752e-02		128.771		1.846e-02		13.861
2		0.00		7.60		5.648e-02		128.654		1.933e-02		19.115
2		0.00		8.00		5.678e-02		125.132		1.920e-02		28.198
2		0.00		8.40		5.849e-02		127.399		2.003e-02		25.042
2		0.00		8.80		5.842e-02		126.401		1.988e-02		20.450
2		0.00		9.20		5.964e-02		128.529		1.993e-02		14.423
2		0.00		9.60		5.671e-02		128.273		1.854e-02		9.715
2		0.00		10.00		5.293e-02		130.175		1.631e-02		10.703
2		0.00		9.60		5.334e-02		127.689		1.508e-02		11.004
2		0.00		9.20		5.093e-02		127.403		1.307e-02		13.164
2		0.00		8.80		4.895e-02		128.669		1.256e-02		12.745
2		0.00		8.40		4.687e-02		128.959		1.291e-02		12.660
2		0.00		8.00		4.560e-02		127.608		1.312e-02		13.233
2		0.00		7.60		4.228e-02		127.752		1.287e-02		23.091
2		0.00		7.20		4.015e-02		126.795		1.189e-02		24.998
2		0.00		6.80		3.721e-02		129.605		1.075e-02		18.275
2		0.00		6.40		3.499e-02		130.443		8.946e-03		7.443
2		0.00		6.00		3.218e-02		129.305		7.209e-03		8.674
2		0.00		5.60		2.795e-02		130.484		6.023e-03		9.676
2		0.00		5.20		2.402e-02		131.318		5.339e-03		9.839
2		0.00		4.80		2.009e-02		129.526		4.737e-03		10.263
2		0.00		4.40		1.605e-02		129.335		4.125e-03		13.855
2		0.00		4.00		1.156e-02		126.669		3.339e-03		20.642
2		0.00		3.60		7.531e-03		124.690		2.245e-03		25.372
2		0.00		3.20		3.162e-03		97.430		1.067e-03		57.968
2		0.00		2.80		2.605e-03		-38.100		1.230e-03		47.270
2		0.00		2.40		6.774e-03		-53.881		2.384e-03		22.345
2		0.00		2.00		1.148e-02		-52.596		3.229e-03		12.798
2		0.00		1.60		1.625e-02		-51.188		3.844e-03		11.532
2		0.00		1.20		2.113e-02		-51.280		5.240e-03		10.401
2		0.00		0.80		2.548e-02		-49.342		6.147e-03		9.920
2		0.00		0.40		2.968e-02		-49.132		7.450e-03		11.710
2		0.00		0.00		3.398e-02		-49.389		8.975e-03		11.721
2		0.00		-0.40		3.810e-02		-49.673		1.059e-02		13.952
2		0.00		-0.80		4.279e-02		-50.765		1.120e-02		7.394
2		0.00		-1.20		4.658e-02		-51.265		1.121e-02		6.352
2		0.00		-1.60		5.156e-02		-52.090		1.114e-02		6.223
2		0.00		-2.00		5.412e-02		-52.446		1.146e-02		8.638
2		0.00		-2.40		5.448e-02		-53.976		1.287e-02		13.067
2		0.00		-2.80		5.620e-02		-53.607		1.492e-02		13.210
2		0.00		-3.20		5.900e-02		-55.347		1.784e-02		17.301
2		0.00		-3.60		5.844e-02		-51.553		1.762e-02		18.141
2		0.00		-4.00		5.805e-02		-51.256		1.787e-02		18.938
2		0.00		-4.40		5.897e-02		-52.760		1.965e-02		12.212
2		0.00		-4.80		5.947e-02		-49.476		1.702e-02		8.431
2		0.00		-5.20		6.092e-02		-49.265		1.639e-02		8.538
2		0.00		-5.60		6.063e-02		-49.723		1.555e-02		10.300
2		0.00		-6.00		6.049e-02		-52.106		1.572e-02		11.575
2		0.00		-6.40		5.748e-02		-50.856		1.563e-02		14.416
2		0.00		-6.80		5.568e-02		-49.523		1.468e-02		13.294
2		0.00		-7.20		5.790e-02		-50.458		1.651e-02		13.244
2		0.00		-7.60		5.817e-02		-48.781		1.688e-02		15.018
2		0.00		-8.00		5.740e-02		-47.574		1.766e-02		17.591
2		0.00		-8.40		5.582e-02		-45.438		1.772e-02		27.639
2		0.00		-8.80		5.346e-02		-41.220		1.717e-02		25.327
2		0.00		-9.20		5.144e-02		-40.813		1.617e-02		16.936
2		0.00		-9.60		4.590e-02		-45.319		1.385e-02		8.050
2		0.00		-10.00		4.054e-02		-44.454		1.177e-02		8.601
2		0.00		-9.60		4.433e-02		-45.596		1.259e-02		10.324
2		0.00		-9.20		4.868e-02		-44.544		1.337e-02		10.304
2		0.00		-8.80		4.999e-02		-44.987		1.306e-02		11.610
2		0.00		-8.40		4.996e-02		-48.410		1.487e-02		15.341
2		0.00		-8.00		5.052e-02		-49.556		1.560e-02		14.249
2		0.00		-7.60		4.895e-02		-50.679		1.599e-02		16.264
2		0.00		-7.20		4.635e-02		-50.161		1.517e-02		15.423
2		0.00		-6.80		4.439e-02		-51.257		1.475e-02		21.504
2		0.00		-6.40		4.173e-02		-45.975		1.392e-02		25.293
2		0.00		-6.00		3.991e-02		-48.191		1.274e-02		12.511
2		0.00		-5.60		3.732e-02		-47.858		1.135e-02		8.291
2		0.00		-5.20		3.486e-02		-48.838		8.629e-03		8.540
2		0.00		-4.80		3.172e-02		-50.449		6.746e-03		8.843
2		0.00		-4.40		2.859e-02		-50.311		5.720e-03		9.128
2		0.00		-4.00		2.512e-02		-49.630		4.955e-03		10.081
2		0.00		-3.60		2.154e-02		-49.484		4.559e-03		13.240
2		0.00		-3.20		1.812e-02		-50.421		4.136e-03		12.435
2		0.00		-2.80		1.466e-02		-48.145		3.391e-03		13.612
2		0.00		-2.40		1.080e-02		-45.089		2.699e-03		14.389
2		0.00		-2.00		7.337e-03		-45.401		2.331e-03		18.726
2		0.00		-1.60		4.033e-03		-34.170		1.215e-03		27.706
2		0.00		-1.20		1.887e-03		6.583		9.121e-04		76.072
2		0.00		-0.80		4.611e-03		114.287		1.662e-03		28.308
2		0.00		-0.40		8.138e-03		121.347		2.430e-03		13.554
3		0.00		0.00		1.231e-02		129.472		3.217e-03		12.242
3		0.00		0.40		1.583e-02		127.894		3.516e-03		9.690
3		0.00		0.80		1.950e-02		129.055		4.545e-03		9.346
3		0.00		1.20		2.307e-02		129.017		5.689e-03		9.011
3		0.00		1.60		2.663e-02		128.871		6.990e-03		12.367
3		0.00		2.00		2.911e-02		127.578		8.105e-03		18.243
3		0.00		2.40		3.240e-02		127.769		9.370e-03		19.782
3		0.00		2.80		3.588e-02		128.227		1.073e-02		13.788
3		0.00		3.20		3.939e-02		130.882		1.098e-02		7.244
3		0.00		3.60		4.256e-02		131.114		1.048e-02		7.076
3		0.00		4.00		4.515e-02		131.064		1.044e-02		7.702
3		0.00		4.40		4.719e-02		130.898		1.063e-02		7.273
3		0.00		4.80		4.822e-02		130.415		1.122e-02		8.638
3		0.00		5.20		5.023e-02		130.086		1.271e-02		11.170
3		0.00		5.60		5.280e-02		129.212		1.502e-02		13.735
3		0.00		6.00		5.379e-02		127.784		1.619e-02		21.026
3		0.00		6.40		5.628e-02		129.908		1.701e-02		19.989
3		0.00		6.80		5.903e-02		127.866		1.837e-02		19.571
3		0.00		7.20		6.040e-02		130.073		1.871e-02		9.985
3		0.00		7.60		6.105e-02		132.568		1.826e-02		7.546
3		0.00		8.00		6.058e-02		132.965		1.741e-02		10.791
3		0.00		8.40		6.050e-02		131.194		1.702e-02		11.374
3		0.00		8.80		5.919e-02		128.781		1.643e-02		20.937
3		0.00		9.20		5.978e-02		125.183		1.810e-02		21.884
3		0.00		9.60		5.829e-02		124.027		2.016e-02		17.067
3		0.00		10.00		5.311e-02		125.380		1.958e-02		19.374
3		0.00		9.60		5.334e-02		124.753		1.994e-02		32.528
3		0.00		9.20		5.374e-02		123.548		1.871e-02		28.988
3		0.00		8.80		5.296e-02		128.258		1.663e-02		19.671
3		0.00		8.40		5.090e-02		130.597		1.421e-02		8.635
3		0.00		8.00		4.898e-02		131.212		1.168e-02		8.351
3		0.00		7.60		4.598e-02		130.946		9.833e-03		8.372
3		0.00		7.20		4.345e-02		131.145		8.712e-03		8.457
3		0.00		6.80		3.992e-02		131.108		8.258e-03		8.928
3		0.00		6.40		3.685e-02		131.035		8.153e-03		8.394
3		0.00		6.00		3.327e-02		130.608		7.836e-03		9.168
3		0.00		5.60		2.976e-02		130.053		7.176e-03		12.098
3		0.00		5.20		2.613e-02		128.224		6.588e-03		18.973
3		0.00		4.80		2.168e-02		128.329		5.450e-03		19.205
3		0.00		4.40		1.765e-02		130.494		4.780e-03		17.550
3		0.00		4.00		1.312e-02		133.036		3.485e-03		9.611
3		0.00		3.60		8.999e-03		133.556		2.210e-03		12.250
3		0.00		3.20		4.432e-03		124.550		1.285e-03		32.225
3		0.00		2.80		1.956e-03		-2.260		8.871e-04		64.095
3		0.00		2.40		5.800e-03		-64.738		1.835e-03		19.477
3		0.00		2.00		1.038e-02		-54.330		2.549e-03		9.849
3		0.00		1.60		1.572e-02		-49.910		3.301e-03		10.364
3		0.00		1.20		2.068e-02		-48.791		4.345e-03		9.696
3		0.00		0.80		2.379e-02		-51.835		6.201e-03		10.952
3		0.00		0.40		2.931e-02		-48.266		6.554e-03		9.314
3		0.00		0.00		3.339e-02		-49.926		8.282e-03		12.012
3		0.00		-0.40		3.697e-02		-49.288		9.615e-03		11.256
3		0.00		-0.80		4.135e-02		-50.830		1.118e-02		11.094
3		0.00		-1.20		4.531e-02		-50.488		1.234e-02		8.146
3		0.00		-1.60		4.962e-02		-52.414		1.254e-02		6.588
3		0.00		-2.00		5.303e-02		-51.976		1.230e-02		6.050
3		0.00		-2.40		5.686e-02		-52.421		1.242e-02		5.602
3		0.00		-2.80		5.752e-02		-51.494		1.122e-02		6.688
3		0.00		-3.20		5.879e-02		-54.262		1.297e-02		11.052
3		0.00		-3.60		5.886e-02		-54.801		1.503e-02		13.558
3		0.00		-4.00		5.799e-02		-53.039		1.624e-02		13.590
3		0.00		-4.40		5.984e-02		-54.073		1.822e-02		13.059
3		0.00		-4.80		5.830e-02		-50.796		1.789e-02		11.957
3		0.00		-5.20		5.736e-02		-50.319		1.803e-02		16.153
3		0.00		-5.60		5.829e-02		-49.151		1.889e-02		14.298
3		0.00		-6.00		5.866e-02		-46.042		1.863e-02		12.807
3		0.00		-6.40		5.924e-02		-48.045		1.872e-02		8.612
3		0.00		-6.80		5.976e-02		-48.463		1.817e-02		6.569
3		0.00		-7.20		6.212e-02		-47.923		1.598e-02		7.472
3		0.00		-7.60		6.115e-02		-47.222		1.486e-02		8.092
3		0.00		-8.00		5.897e-02		-48.513		1.448e-02		11.236
3		0.00		-8.40		5.625e-02		-48.031		1.434e-02		11.390
3		0.00		-8.80		5.439e-02		-44.933		1.434e-02		9.043
3		0.00		-9.20		5.161e-02		-44.799		1.540e-02		11.155
3		0.00		-9.60		4.638e-02		-47.609		1.484e-02		17.589
3		0.00		-10.00		4.021e-02		-45.298		1.265e-02		18.180
3		0.00		-9.60		4.631e-02		-38.743		1.485e-02		20.702
3		0.00		-9.20		5.069e-02		-41.735		1.576e-02		17.997
3		0.00		-8.80		5.334e-02		-44.237		1.546e-02		6.541
3		0.00		-8.40		5.420e-02		-45.592		1.428e-02		7.703
3		0.00		-8.00		5.306e-02		-45.462		1.370e-02		8.664
3		0.00		-7.60		5.177e-02		-47.188		1.256e-02		9.897
3		0.00		-7.20		4.897e-02		-47.771		1.264e-02		10.133
3		0.00		-6.80		4.662e-02		-47.870		1.254e-02		9.805
3		0.00		-6.40		4.371e-02		-48.046		1.242e-02		11.532
3		0.00		-6.00		4.109e-02		-48.285		1.200e-02		14.689
3		0.00		-5.60		3.783e-02		-50.324		1.138e-02		20.870
3		0.00		-5.20		3.526e-02		-49.121		1.037e-02		12.756
3		0.00		-4.80		3.263e-02		-48.619		8.262e-03		7.768
3		0.00		-4.40		3.029e-02		-49.824		6.400e-03		7.829
3		0.00		-4.00		2.654e-02		-49.902		5.166e-03		8.180
3		0.00		-3.60		2.290e-02		-48.845		4.563e-03		10.558
3		0.00		-3.20		1.905e-02		-48.131		3.968e-03		10.118
3		0.00		-2.80		1.534e-02		-46.346		3.405e-03		11.936
3		0.00		-2.40		1.183e-02		-47.468		2.875e-03		15.356
3		0.00		-2.00		8.077e-03		-45.353		2.040e-03		14.957
3		0.00		-1.60		4.742e-03		-45.595		1.307e-03		21.368
3		0.00		-1.20		1.932e-03		1.483		7.433e-04		72.561
3		0.00		-0.80		4.313e-03		120.175		1.273e-03		30.581
3		0.00		-0.40		8.108e-03		124.112		2.054e-03		12.961
4		0.00		0.00		1.196e-02		127.208		2.591e-03		11.162
4		0.00		0.40		1.597e-02		127.298		3.652e-03		7.161
4		0.00		0.80		1.926e-02		127.543		4.754e-03		9.303
4		0.00		1.20		2.308e-02		129.145		6.037e-03		12.076
4		0.00		1.60		2.575e-02		126.729		7.486e-03		16.544
4		0.00		2.00		2.911e-02		128.797		8.782e-03		18.367
4		0.00		2.40		3.260e-02		129.729		9.581e-03		8.597
4		0.00		2.80		3.587e-02		130.329		9.782e-03		6.870
4		0.00		3.20		3.893e-02		131.525		9.716e-03		6.861
4		0.00		3.60		4.134e-02		131.018		9.473e-03		6.982
4		0.00		4.00		4.372e-02		130.614		9.818e-03		8.323
4		0.00		4.40		4.575e-02		130.359		1.075e-02		8.816
4		0.00		4.80		4.894e-02		130.523		1.265e-02		9.790
4		0.00		5.20		5.135e-02		130.249		1.419e-02		11.262
4		0.00		5.60		5.291e-02		129.320		1.488e-02		17.758
4		0.00		6.00		5.614e-02		127.476		1.653e-02		20.433
4		0.00		6.40		5.764e-02		129.641		1.677e-02		10.591
4		0.00		6.80		5.924e-02		131.708		1.579e-02		6.673
4		0.00		7.20		6.140e-02		133.533		1.534e-02		7.331
4		0.00		7.60		6.213e-02		131.370		1.555e-02		10.086
4		0.00		8.00		6.173e-02		128.996		1.643e-02		12.092
4		0.00		8.40		6.145e-02		127.665		1.767e-02		17.704
4		0.00		8.80		6.369e-02		125.873		2.098e-02		29.377
4		0.00		9.20		6.324e-02		122.759		2.211e-02		19.327
4		0.00		9.60		6.156e-02		124.688		2.323e-02		19.150
4		0.00		10.00		5.618e-02		128.470		2.053e-02		23.001
4		0.00		9.60		5.784e-02		126.445		2.051e-02		19.212
4		0.00		9.20		5.690e-02		129.793		1.820e-02		11.891
4		0.00		8.80		5.481e-02		131.402		1.600e-02		8.285
4		0.00		8.40		5.236e-02		132.127		1.337e-02		7.267
4		0.00		8.00		4.886e-02		130.864		1.192e-02		9.588
4		0.00		7.60		4.664e-02		131.975		1.045e-02		9.206
4		0.00		7.20		4.443e-02		130.832		1.098e-02		8.703
4		0.00		6.80		4.127e-02		131.706		1.094e-02		9.352
4		0.00		6.40		3.766e-02		129.376		1.073e-02		18.234
4		0.00		6.00		3.435e-02		127.570		9.378e-03		23.969
4		0.00		5.60		3.152e-02		130.459		8.839e-03		17.275
4		0.00		5.20		2.761e-02		131.975		6.747e-03		7.316
4		0.00		4.80		2.438e-02		132.145		5.092e-03		9.312
4		0.00		4.40		1.991e-02		132.536		3.715e-03		8.982
4		0.00		4.00		1.531e-02		132.328		2.903e-03		7.761
4		0.00		3.60		1.091e-02		133.496		2.428e-03		10.838
4		0.00		3.20		6.347e-03		127.944		1.782e-03		19.432
4		0.00		2.80		2.364e-03		71.740		1.020e-03		64.881
4		0.00		2.40		3.523e-03		-53.108		1.515e-03		35.032
4		0.00		2.00		7.981e-03		-50.561		2.767e-03		16.940
4		0.00		1.60		1.262e-02		-53.017		4.076e-03		10.959
4		0.00		1.20		1.714e-02		-51.562		4.364e-03		9.099
4		0.00		0.80		2.152e-02		-48.618		5.100e-03		9.105
4		0.00		0.40		2.617e-02		-49.240		6.224e-03		9.143
4		0.00		0.00		3.003e-02		-49.989		7.030e-03		8.484
4		0.00		-0.40		3.422e-02		-50.005		8.329e-03		10.221
4		0.00		-0.80		3.796e-02		-50.528		9.848e-03		13.432
4		0.00		-1.20		4.241e-02		-52.085		1.158e-02		12.304
4		0.00		-1.60		4.616e-02		-52.797		1.210e-02		7.640
4		0.00		-2.00		5.013e-02		-51.267		1.099e-02		6.142
4		0.00		-2.40		5.208e-02		-51.956		1.113e-02		7.839
4		0.00		-2.80		5.434e-02		-52.647		1.232e-02		9.827
4		0.00		-3.20		5.548e-02		-53.063		1.479e-02		13.198
4		0.00		-3.60		5.707e-02		-51.099		1.683e-02		15.835
4		0.00		-4.00		6.038e-02		-49.428		1.731e-02		13.321
4		0.00		-4.40		6.096e-02		-51.611		1.683e-02		8.236
4		0.00		-4.80		6.149e-02		-49.468		1.491e-02		8.663
4		0.00		-5.20		6.066e-02		-50.859		1.528e-02		11.907
4		0.00		-5.60		5.781e-02		-49.489		1.472e-02		12.844
4		0.00		-6.00		5.771e-02		-50.652		1.658e-02		12.796
4		0.00		-6.40		5.690e-02		-50.023		1.761e-02		15.865
4		0.00		-6.80		5.835e-02		-45.280		1.829e-02		17.906
4		0.00		-7.20		6.014e-02		-46.424		1.871e-02		10.030
4		0.00		-7.60		6.060e-02		-46.037		1.634e-02		7.116
4		0.00		-8.00		5.931e-02		-45.647		1.485e-02		8.972
4		0.00		-8.40		5.610e-02		-48.234		1.439e-02		12.061
4		0.00		-8.80		5.574e-02		-44.670		1.524e-02		9.418
4		0.00		-9.20		5.189e-02		-45.374		1.596e-02		17.262
4		0.00		-9.60		4.838e-02		-38.889		1.527e-02		20.629
4		0.00		-10.00		4.231e-02		-42.372		1.283e-02		12.793
4		0.00		-9.60		4.703e-02		-45.683		1.352e-02		6.297
4		0.00		-9.20		5.213e-02		-43.228		1.331e-02		6.903
4		0.00		-8.80		5.318e-02		-44.809		1.258e-02		10.201
4		0.00		-8.40		5.427e-02		-45.331		1.337e-02		9.557
4		0.00		-8.00		5.431e-02		-46.471		1.493e-02		12.498
4		0.00		-7.60		5.327e-02		-48.008		1.497e-02		16.243
4		0.00		-7.20		5.162e-02		-45.871		1.535e-02		19.984
4		0.00		-6.80		4.943e-02		-46.803		1.438e-02		9.993
4		0.00		-6.40		4.745e-02		-46.911		1.185e-02		6.717
4		0.00		-6.00		4.414e-02		-47.432		9.861e-03		7.082
4		0.00		-5.60		3.985e-02		-47.191		8.804e-03		8.489
4		0.00		-5.20		3.621e-02		-48.706		9.147e-03		8.921
4		0.00		-4.80		3.273e-02		-47.736		8.929e-03		10.531
4		0.00		-4.40		2.906e-02		-49.299		8.579e-03		12.551
4		0.00		-4.00		2.612e-02		-51.768		7.545e-03		10.663
4		0.00		-3.60		2.261e-02		-48.702		5.685e-03		7.226
4		0.00		-3.20		1.955e-02		-49.013		4.011e-03		9.434
4		0.00		-2.80		1.631e-02		-46.497		3.193e-03		10.364
4		0.00		-2.40		1.303e-02		-46.490		2.603e-03		10.031
4		0.00		-2.00		8.539e-03		-46.085		2.185e-03		14.774
4		0.00		-1.60		4.639e-03		-32.674		1.217e-03		20.814
4		0.00		-1.20		1.996e-03		7.095		8.593e-04		52.334
4		0.00		-0.80		4.148e-03		104.945		1.379e-03		43.890
4		0.00		-0.40		8.160e-03		125.502		2.077e-03		12.165
5		0.00		0.00		1.196e-02		126.676		2.583e-03		10.166
5		0.00		0.40		1.635e-02		126.040		3.214e-03		8.583
5		0.00		0.80		1.997e-02		128.991		3.839e-03		9.421
5		0.00		1.20		2.370e-02		130.170		5.054e-03		9.439
5		0.00		1.60		2.647e-02		128.722		6.581e-03		14.186
5		0.00		2.00		2.962e-02		128.149		8.087e-03		20.020
5		0.00		2.40		3.335e-02		128.140		9.432e-03		16.069
5		0.00		2.80		3.647e-02		129.953		9.838e-03		7.939
5		0.00		3.20		3.985e-02		131.530		9.213e-03		7.127
5		0.00		3.60		4.249e-02		131.456		9.117e-03		6.618
5		0.00		4.00		4.452e-02		131.252		9.661e-03		7.827
5		0.00		4.40		4.666e-02		131.620		1.102e-02		8.265
5		0.00		4.80		4.884e-02		130.088		1.376e-02		11.513
5		0.00		5.20		5.036e-02		127.793		1.515e-02		19.422
5		0.00		5.60		5.315e-02		128.672		1.585e-02		20.025
5		0.00		6.00		5.685e-02		131.407		1.623e-02		7.255
5		0.00		6.40		5.900e-02		131.267		1.563e-02		7.070
5		0.00		6.80		5.968e-02		131.944		1.430e-02		8.295
5		0.00		7.20		6.036e-02		130.502		1.465e-02		9.793
5		0.00		7.60		5.949e-02		130.606		1.576e-02		12.658
5		0.00		8.00		6.163e-02		129.232		1.696e-02		13.458
5		0.00		8.40		6.252e-02		130.201		1.931e-02		17.851
5		0.00		8.80		6.400e-02		129.983		2.061e-02		21.143
5		0.00		9.20		6.589e-02		126.856		2.180e-02		21.024
5		0.00		9.60		6.450e-02		127.112		2.123e-02		19.712
5		0.00		10.00		5.947e-02		132.817		1.927e-02		9.447
5		0.00		9.60		5.919e-02		128.589		1.732e-02		11.164
5		0.00		9.20		5.817e-02		128.192		1.621e-02		12.976
5		0.00		8.80		5.458e-02		129.495		1.585e-02		12.257
5		0.00		8.40		5.147e-02		129.243		1.654e-02		15.124
5		0.00		8.00		4.937e-02		128.352		1.631e-02		19.337
5		0.00		7.60		4.777e-02		126.799		1.576e-02		26.529
5		0.00		7.20		4.543e-02		128.061		1.430e-02		20.165
5		0.00		6.80		4.293e-02		131.170		1.195e-02		7.183
5		0.00		6.40		4.061e-02		131.881		9.192e-03		7.655
5		0.00		6.00		3.726e-02		131.078		7.444e-03		8.050
5		0.00		5.60		3.381e-02		131.475		6.483e-03		7.862
5		0.00		5.20		2.974e-02		131.367		6.222e-03		8.354
5		0.00		4.80		2.586e-02		133.190		5.698e-03		7.678
5		0.00		4.40		2.153e-02		132.510		5.292e-03		11.801
5		0.00		4.00		1.733e-02		130.560		3.999e-03		20.430
5		0.00		3.60		1.299e-02		128.928		3.320e-03		18.682
5		0.00		3.20		8.175e-03		132.546		2.204e-03		27.000
5		0.00		2.80		3.848e-03		115.949		1.165e-03		44.603
5		0.00		2.40		2.392e-03		-44.169		1.056e-03		45.678
5		0.00		2.00		5.938e-03		-51.243		1.737e-03		17.268
5		0.00		1.60		1.130e-02		-50.651		2.708e-03		10.151
5		0.00		1.20		1.576e-02		-48.898		3.297e-03		10.147
5		0.00		0.80		2.020e-02		-48.058		4.471e-03		9.494
5		0.00		0.40		2.507e-02		-47.566		5.827e-03		8.117
5		0.00		0.00		2.943e-02		-48.509		7.245e-03		9.011
5		0.00		-0.40		3.350e-02		-49.620		9.033e-03		12.632
5		0.00		-0.80		3.732e-02		-50.671		1.037e-02		12.223
5		0.00		-1.20		4.140e-02		-51.191		1.190e-02		9.236
5		0.00		-1.60		4.608e-02		-49.733		1.203e-02		7.183
5		0.00		-2.00		5.020e-02		-51.440		1.143e-02		5.809
5		0.00		-2.40		5.488e-02		-51.196		1.120e-02		5.582
5		0.00		-2.80		5.672e-02		-51.679		1.110e-02		6.311
5		0.00		-3.20		5.854e-02		-53.717		1.296e-02		9.762
5		0.00		-3.60		5.887e-02		-52.735		1.361e-02		10.252
5		0.00		-4.00		5.953e-02		-52.150		1.529e-02		11.983
5		0.00		-4.40		6.221e-02		-50.704		1.603e-02		9.872
5		0.00		-4.80		6.158e-02		-48.388		1.682e-02		9.725
5		0.00		-5.20		6.236e-02		-46.935		1.819e-02		12.722
5		0.00		-5.60		6.360e-02		-47.285		1.812e-02		10.649
5		0.00		-6.00		6.390e-02		-46.427		1.880e-02		8.131
5		0.00		-6.40		6.285e-02		-47.724		1.786e-02		6.731
5		0.00		-6.80		6.195e-02		-46.321		1.692e-02		6.527
5		0.00		-7.20		6.151e-02		-48.238		1.571e-02		7.820
5		0.00		-7.60		6.069e-02		-49.296		1.590e-02		11.517
5		0.00		-8.00		5.834e-02		-47.480		1.513e-02		10.853
5		0.00		-8.40		5.702e-02		-45.920		1.545e-02		10.973
5		0.00		-8.80		5.495e-02		-45.769		1.631e-02		10.843
5		0.00		-9.20		5.098e-02		-45.404		1.708e-02		14.700
5		0.00		-9.60		4.704e-02		-48.344		1.623e-02		23.298
5		0.00		-10.00		4.064e-02		-37.715		1.315e-02		20.945
5		0.00		-9.60		4.687e-02		-40.113		1.506e-02		19.409
5		0.00		-9.20		5.128e-02		-43.078		1.556e-02		9.219
5		0.00		-8.80		5.412e-02		-44.267		1.468e-02		6.317
5		0.00		-8.40		5.594e-02		-44.342		1.334e-02		7.165
5		0.00		-8.00		5.532e-02		-47.450		1.289e-02		9.248
5		0.00		-7.60		5.275e-02		-46.845		1.191e-02		10.506
5		0.00		-7.20		5.066e-02		-46.888		1.178e-02		9.732
5		0.00		-6.80		4.889e-02		-46.216		1.205e-02		9.027
5		0.00		-6.40		4.608e-02		-46.458		1.219e-02		10.842
5		0.00		-6.00		4.321e-02		-47.520		1.176e-02		15.384
5		0.00		-5.60		3.985e-02		-48.309		1.146e-02		16.187
5		0.00		-5.20		3.693e-02		-48.335		1.010e-02		8.520
5		0.00		-4.80		3.406e-02		-48.581		8.433e-03		7.514
5		0.00		-4.40		3.054e-02		-48.651		6.490e-03		7.305
5		0.00		-4.00		2.689e-02		-48.195		5.174e-03		7.230
5		0.00		-3.60		2.337e-02		-49.055		4.361e-03		8.669
5		0.00		-3.20		1.998e-02		-47.057		3.956e-03		9.426
5		0.00		-2.80		1.594e-02		-44.724		3.312e-03		9.972
5		0.00		-2.40		1.220e-02		-44.272		2.878e-03		12.942
5		0.00		-2.00		8.330e-03		-38.394		2.209e-03		13.859
5		0.00		-1.60		4.514e-03		-38.221		1.547e-03		27.198
5		0.00		-1.20		1.882e-03		5.558		7.115e-04		65.933
5		0.00		-0.80		4.331e-03		110.002		1.613e-03		29.954
5		0.00		-0.40		8.338e-03		125.681		2.001e-03		11.369
6		0.00		0.00		1.208e-02		129.577		2.674e-03		8.779
6		0.00		0.40		1.614e-02		128.713		2.982e-03		7.816
6		0.00		0.80		1.979e-02		130.212		4.255e-03		10.262
6		0.00		1.20		2.354e-02		130.170		5.475e-03		12.135
6		0.00		1.60		2.700e-02		128.395		6.734e-03		15.698
6		0.00		2.00		3.067e-02		128.616		8.068e-03		12.232
6		0.00		2.40		3.419e-02		131.696		8.441e-03		6.901
6		0.00		2.80		3.739e-02		132.352		8.835e-03		5.838
6		0.00		3.20		4.035e-02		131.197		9.040e-03		6.107
6		0.00		3.60		4.184e-02		131.372		9.707e-03		6.924
6		0.00		4.00		4.432e-02		131.148		1.155e-02		7.182
6		0.00		4.40		4.653e-02		130.505		1.325e-02		10.513
6		0.00		4.80		4.791e-02		128.168		1.481e-02		17.541
6		0.00		5.20		5.103e-02		126.314		1.645e-02		23.999
6		0.00		5.60		5.319e-02		129.946		1.684e-02		12.054
6		0.00		6.00		5.570e-02		131.395		1.570e-02		6.010
6		0.00		6.40		5.782e-02		132.742		1.439e-02		6.969
6		0.00		6.80		5.933e-02		130.801		1.422e-02		9.919
6		0.00		7.20		5.831e-02		130.165		1.459e-02		13.161
6		0.00		7.60		6.139e-02		130.210		1.647e-02		11.574
6		0.00		8.00		6.155e-02		131.349		1.795e-02		12.480
6		0.00		8.40		6.326e-02		129.124		1.863e-02		18.315
6		0.00		8.80		6.359e-02		128.514		1.946e-02		26.910
6		0.00		9.20		6.403e-02		130.641		1.975e-02		25.666
6		0.00		9.60		6.492e-02		128.964		2.118e-02		23.046
6		0.00		10.00		6.249e-02		131.316		1.965e-02		8.376
6		0.00		9.60		6.191e-02		130.978		1.740e-02		9.602
6		0.00		9.20		6.067e-02		130.429		1.591e-02		9.920
6		0.00		8.80		5.779e-02		130.576		1.472e-02		11.476
6		0.00		8.40		5.318e-02		128.835		1.463e-02		13.861
6		0.00		8.00		5.150e-02		130.903		1.408e-02		9.618
6		0.00		7.60		4.821e-02		128.385		1.517e-02		14.817
6		0.00		7.20		4.606e-02		127.742		1.427e-02		21.345
6		0.00		6.80		4.333e-02		129.160		1.350e-02		20.010
6		0.00		6.40		4.063e-02		130.814		1.217e-02		13.176
6		0.00		6.00		3.807e-02		131.832		1.008e-02		6.517
6		0.00		5.60		3.501e-02		131.798		7.554e-03		7.406
6		0.00		5.20		3.132e-02		133.433		6.048e-03		7.170
6		0.00		4.80		2.759e-02		133.389		5.526e-03		9.015
6		0.00		4.40		2.296e-02		133.700		4.714e-03		7.329
6		0.00		4.00		1.854e-02		132.501		4.163e-03		8.968
6		0.00		3.60		1.371e-02		131.793		3.345e-03		14.741
6		0.00		3.20		9.385e-03		130.662		2.141e-03		19.382
6		0.00		2.80		4.793e-03		124.694		1.442e-03		38.260
6		0.00		2.40		2.111e-03		-26.947		7.397e-04		58.550
6		0.00		2.00		5.754e-03		-48.491		1.851e-03		17.409
6		0.00		1.60		1.067e-02		-52.180		2.370e-03		12.494
6		0.00		1.20		1.540e-02		-51.391		3.183e-03		10.551
6		0.00		0.80		1.961e-02		-48.815		4.055e-03		9.707
6		0.00		0.40		2.423e-02		-48.179		5.764e-03		10.049
6		0.00		0.00		2.810e-02		-49.129		7.360e-03		13.170
6		0.00		-0.40		3.250e-02		-51.898		8.965e-03		17.475
6		0.00		-0.80		3.638e-02		-49.803		1.046e-02		7.892
6		0.00		-1.20		4.070e-02		-50.698		1.032e-02		6.760
6		0.00		-1.60		4.521e-02		-51.634		9.860e-03		5.870
6		0.00		-2.00		4.769e-02		-51.177		1.001e-02		7.525
6		0.00		-2.40		5.035e-02		-52.376		1.191e-02		9.887
6		0.00		-2.80		5.281e-02		-51.718		1.292e-02		11.047
6		0.00		-3.20		5.578e-02		-50.459		1.471e-02		11.821
6		0.00		-3.60		5.787e-02		-51.447		1.624e-02		14.926
6		0.00		-4.00		6.065e-02		-52.433		1.630e-02		7.378
6		0.00		-4.40		6.140e-02		-50.783		1.364e-02		7.406
6		0.00		-4.80		6.162e-02		-50.183		1.271e-02		7.545
6		0.00		-5.20		5.962e-02		-51.186		1.438e-02		12.458
6		0.00		-5.60		6.060e-02		-49.856		1.578e-02		11.163
6		0.00		-6.00		6.046e-02		-48.434		1.699e-02		11.375
6		0.00		-6.40		6.030e-02		-45.490		1.767e-02		15.450
6		0.00		-6.80		6.087e-02		-47.205		1.805e-02		10.100
6		0.00		-7.20		6.099e-02		-46.694		1.584e-02		5.683
6		0.00		-7.60		6.108e-02		-47.287		1.468e-02		7.989
6		0.00		-8.00		5.888e-02		-47.429		1.434e-02		10.933
6		0.00		-8.40		5.836e-02		-46.178		1.649e-02		9.585
6		0.00		-8.80		5.447e-02		-46.283		1.723e-02		15.539
6		0.00		-9.20		5.183e-02		-44.213		1.727e-02		23.128
6		0.00		-9.60		4.876e-02		-42.678		1.650e-02		21.256
6		0.00		-10.00		4.242e-02		-43.005		1.312e-02		6.834
6		0.00		-9.60		4.747e-02		-44.059		1.371e-02		6.723
6		0.00		-9.20		5.068e-02		-42.414		1.284e-02		7.797
6		0.00		-8.80		5.212e-02		-43.964		1.242e-02		9.891
6		0.00		-8.40		5.399e-02		-45.567		1.448e-02		11.329
6		0.00		-8.00		5.537e-02		-47.344		1.546e-02		18.418
6		0.00		-7.60		5.542e-02		-47.323		1.590e-02		17.504
6		0.00		-7.20		5.316e-02		-46.693		1.431e-02		7.358
6		0.00		-6.80		5.138e-02		-46.275		1.117e-02		6.453
6		0.00		-6.40		4.885e-02		-46.244		9.617e-03		5.950
6		0.00		-6.00		4.551e-02		-47.659		8.603e-03		7.659
6		0.00		-5.60		4.192e-02		-46.486		8.450e-03		7.745
6		0.00		-5.20		3.886e-02		-46.465		8.356e-03		8.359
6		0.00		-4.80		3.518e-02		-48.747		8.623e-03		12.447
6		0.00		-4.40		3.138e-02		-49.245		8.406e-03		11.143
6		0.00		-4.00		2.733e-02		-48.940		7.131e-03		7.266
6		0.00		-3.60		2.400e-02		-48.234		5.432e-03		7.293
6		0.00		-3.20		2.078e-02		-48.136		4.269e-03		7.479
6		0.00		-2.80		1.665e-02		-48.062		3.528e-03		9.958
6		0.00		-2.40		1.265e-02		-43.203		2.955e-03		11.187
6		0.00		-2.00		8.940e-03		-42.929		2.276e-03		12.653
6		0.00		-1.60		4.675e-03		-30.620		1.511e-03		19.886
6		0.00		-1.20		1.884e-03		-8.388		8.258e-04		53.317
6		0.00		-0.80		3.695e-03		101.432		1.452e-03		41.808
6		0.00		-0.40		7.976e-03		122.219		2.190e-03		14.725
7		0.00		0.00		1.194e-02		126.682		2.228e-03		9.965
7		0.00		0.40		1.628e-02		129.339		3.213e-03		7.725
7		0.00		0.80		2.043e-02		129.328		3.861e-03		9.047
7		0.00		1.20		2.384e-02		129.952		5.132e-03		8.755
7		0.00		1.60		2.728e-02		129.335		6.477e-03		14.763
7		0.00		2.00		3.091e-02		129.172		7.609e-03		15.530
7		0.00		2.40		3.492e-02		130.764		8.829e-03		6.908
7		0.00		2.80		3.830e-02		131.444		8.323e-03		7.293
7		0.00		3.20		4.137e-02		131.712		7.679e-03		5.912
7		0.00		3.60		4.392e-02		132.168		8.507e-03		6.804
7		0.00		4.00		4.639e-02		132.471		1.010e-02		7.583
7		0.00		4.40		4.747e-02		131.095		1.261e-02		8.172
7		0.00		4.80		4.923e-02		128.888		1.440e-02		16.038
7		0.00		5.20		5.168e-02		128.553		1.620e-02		19.476
7		0.00		5.60		5.464e-02		130.711		1.650e-02		8.243
7		0.00		6.00		5.606e-02		133.270		1.469e-02		5.765
7		0.00		6.40		5.719e-02		133.165		1.437e-02		6.803
7		0.00		6.80		5.664e-02		130.446		1.459e-02		11.136
7		0.00		7.20		5.731e-02		130.005		1.610e-02		11.708
7		0.00		7.60		5.945e-02		128.781		1.815e-02		13.424
7		0.00		8.00		6.119e-02		132.499		1.874e-02		14.322
7		0.00		8.40		6.354e-02		128.459		1.975e-02		23.733
7		0.00		8.80		6.490e-02		129.392		2.013e-02		19.203
7		0.00		9.20		6.637e-02		132.479		1.960e-02		13.244
7		0.00		9.60		6.540e-02		130.349		1.949e-02		8.825
7		0.00		10.00		6.180e-02		129.897		1.749e-02		10.812
7		0.00		9.60		6.129e-02		129.058		1.546e-02		11.084
7		0.00		9.20		6.056e-02		127.933		1.631e-02		11.493
7		0.00		8.80		5.999e-02		130.071		1.704e-02		10.094
7		0.00		8.40		5.491e-02		128.825		1.627e-02		19.375
7		0.00		8.00		5.324e-02		129.385		1.605e-02		22.149
7		0.00		7.60		5.072e-02		127.510		1.619e-02		23.954
7		0.00		7.20		4.730e-02		130.496		1.408e-02		11.535
7		0.00		6.80		4.475e-02		131.703		1.163e-02		7.794
7		0.00		6.40		4.164e-02		131.806		9.056e-03		7.314
7		0.00		6.00		3.851e-02		131.889		7.976e-03		6.977
7		0.00		5.60		3.461e-02		132.048		8.018e-03		8.159
7		0.00		5.20		3.033e-02		131.914		7.625e-03		8.909
7		0.00		4.80		2.610e-02		131.154		7.303e-03		16.187
7		0.00		4.40		2.221e-02		130.437		6.167e-03		20.350
7		0.00		4.00		1.863e-02		130.805		4.916e-03		14.251
7		0.00		3.60		1.433e-02		131.980		3.268e-03		6.795
7		0.00		3.20		9.540e-03		134.867		2.163e-03		11.817
7		0.00		2.80		5.050e-03		127.940		1.259e-03		26.225
7		0.00		2.40		1.739e-03		-18.539		7.153e-04		75.194
7		0.00		2.00		5.558e-03		-51.687		1.694e-03		22.296
7		0.00		1.60		1.052e-02		-50.788		2.553e-03		14.448
7		0.00		1.20		1.534e-02		-48.595		3.871e-03		12.136
7		0.00		0.80		1.985e-02		-49.795		5.120e-03		10.251
7		0.00		0.40		2.446e-02		-50.047		6.082e-03		8.372
7		0.00		0.00		2.992e-02		-51.282		6.389e-03		6.642
7		0.00		-0.40		3.456e-02		-49.258		6.097e-03		6.306
7		0.00		-0.80		3.843e-02		-50.837		7.142e-03		7.287
7		0.00		-1.20		4.274e-02		-51.116		8.266e-03		7.609
7		0.00		-1.60		4.509e-02		-51.705		1.017e-02		10.029
7		0.00		-2.00		4.793e-02		-50.923		1.275e-02		12.549
7		0.00		-2.40		5.081e-02		-52.369		1.441e-02		13.859
7		0.00		-2.80		5.449e-02		-52.163		1.594e-02		12.139
7		0.00		-3.20		5.711e-02		-52.418		1.549e-02		6.781
7		0.00		-3.60		5.885e-02		-52.240		1.378e-02		6.563
7		0.00		-4.00		5.987e-02		-51.463		1.281e-02		8.360
7		0.00		-4.40		5.987e-02		-52.248		1.373e-02		11.283
7		0.00		-4.80		6.014e-02		-51.328		1.453e-02		11.882
7		0.00		-5.20		6.079e-02		-49.108		1.526e-02		10.276
7		0.00		-5.60		6.038e-02		-47.588		1.662e-02		11.605
7		0.00		-6.00		6.070e-02		-47.619		1.699e-02		15.761
7		0.00		-6.40		6.275e-02		-47.389		1.812e-02		13.012
7		0.00		-6.80		6.130e-02		-46.187		1.594e-02		6.457
7		0.00		-7.20		6.288e-02		-45.975		1.481e-02		6.608
7		0.00		-7.60		6.255e-02		-47.510		1.378e-02		6.888
7		0.00		-8.00		6.202e-02		-46.480		1.432e-02		10.472
7		0.00		-8.40		5.898e-02		-43.697		1.385e-02		11.419
7		0.00		-8.80		5.714e-02		-43.915		1.604e-02		10.470
7		0.00		-9.20		5.226e-02		-44.768		1.731e-02		12.648
7		0.00		-9.60		4.801e-02		-45.684		1.728e-02		17.831
7		0.00		-10.00		4.192e-02		-38.864		1.481e-02		16.766
7		0.00		-9.60		4.757e-02		-41.178		1.646e-02		14.287
7		0.00		-9.20		5.172e-02		-44.145		1.657e-02		6.821
7		0.00		-8.80		5.367e-02		-43.572		1.492e-02		6.508
7		0.00		-8.40		5.538e-02		-46.707		1.358e-02		8.732
7		0.00		-8.00		5.443e-02		-47.064		1.376e-02		10.547
7		0.00		-7.60		5.411e-02		-46.660		1.298e-02		8.797
7		0.00		-7.20		5.356e-02		-45.974		1.321e-02		8.603
7		0.00		-6.80		5.014e-02		-46.050		1.329e-02		11.684
7		0.00		-6.40		4.862e-02		-47.586		1.278e-02		16.089
7		0.00		-6.00		4.648e-02		-48.003		1.206e-02		14.056
7		0.00		-5.60		4.338e-02		-46.900		1.062e-02		5.876
7		0.00		-5.20		4.046e-02		-47.826		8.383e-03		5.499
7		0.00		-4.80		3.687e-02		-47.540		6.786e-03		5.890
7		0.00		-4.40		3.246e-02		-49.904		5.686e-03		9.172
7		0.00		-4.00		2.890e-02		-47.741		5.363e-03		7.764
7		0.00		-3.60		2.511e-02		-47.468		5.016e-03		7.832
7		0.00		-3.20		2.102e-02		-46.232		4.495e-03		11.133
7		0.00		-2.80		1.718e-02		-48.854		4.370e-03		17.406
7		0.00		-2.40		1.288e-02		-45.790		3.358e-03		13.136
7		0.00		-2.00		9.577e-03		-37.534		2.420e-03		11.906
7		0.00		-1.60		5.752e-03		-37.471		1.492e-03		15.156
7		0.00		-1.20		2.251e-03		-11.683		9.348e-04		61.848
7		0.00		-0.80		3.452e-03		102.882		1.262e-03		27.979
7		0.00		-0.40		7.469e-03		127.501		1.913e-03		12.617
8		0.00		0.00		1.174e-02		127.136		2.745e-03		12.306
8		0.00		0.40		1.551e-02		128.738		3.903e-03		14.597
8		0.00		0.80		1.960e-02		127.747		5.023e-03		15.589
8		0.00		1.20		2.389e-02		128.685		5.944e-03		8.919
8		0.00		1.60		2.814e-02		130.316		5.782e-03		5.910
8		0.00		2.00		3.204e-02		131.094		5.898e-03		6.130
8		0.00		2.40		3.534e-02		130.228		6.701e-03		6.770
8		0.00		2.80		3.816e-02		131.873		7.610e-03		6.008
8		0.00		3.20		4.051e-02		131.819		9.371e-03		7.305
8		0.00		3.60		4.353e-02		130.109		1.084e-02		14.282
8		0.00		4.00		4.631e-02		129.855		1.241e-02		13.767
8		0.00		4.40		4.984e-02		131.622		1.293e-02		4.919
8		0.00		4.80		5.247e-02		132.403		1.157e-02		4.907
8		0.00		5.20		5.385e-02		133.154		1.156e-02		5.671
8		0.00		5.60		5.419e-02		132.944		1.255e-02		7.278
8		0.00		6.00		5.443e-02		131.304		1.560e-02		11.532
8		0.00		6.40		5.530e-02		131.117		1.792e-02		16.577
8		0.00		6.80		5.759e-02		128.030		1.964e-02		28.091
8		0.00		7.20		6.052e-02		129.645		2.021e-02		19.502
8		0.00		7.60		6.238e-02		131.028		2.015e-02		8.574
8		0.00		8.00		6.128e-02		133.933		1.684e-02		9.349
8		0.00		8.40		6.175e-02		131.820		1.552e-02		13.310
8		0.00		8.80		6.177e-02		128.588		1.712e-02		19.597
8		0.00		9.20		6.559e-02		125.698		2.083e-02		26.065
8		0.00		9.60		6.326e-02		130.233		2.033e-02		13.068
8		0.00		10.00		6.138e-02		130.198		2.038e-02		19.589
8		0.00		9.60		6.304e-02		129.825		1.943e-02		15.780
8		0.00		9.20		6.350e-02		131.438		1.848e-02		7.894
8		0.00		8.80		6.135e-02		132.224		1.585e-02		7.609
8		0.00		8.40		5.815e-02		131.331		1.350e-02		8.412
8		0.00		8.00		5.433e-02		130.832		1.262e-02		9.876
8		0.00		7.60		5.256e-02		132.682		1.262e-02		8.821
8		0.00		7.20		4.906e-02		130.679		1.315e-02		11.219
8		0.00		6.80		4.671e-02		129.988		1.301e-02		16.812
8		0.00		6.40		4.401e-02		129.762		1.230e-02		14.289
8		0.00		6.00		4.008e-02		132.243		1.045e-02		6.260
8		0.00		5.60		3.653e-02		132.377		8.501e-03		6.757
8		0.00		5.20		3.270e-02		133.214		6.890e-03		7.395
8		0.00		4.80		2.879e-02		132.663		5.906e-03		7.485
8		0.00		4.40		2.408e-02		134.401		4.901e-03		7.215
8		0.00		4.00		1.985e-02		133.622		4.704e-03		12.677
8		0.00		3.60		1.465e-02		130.082		3.700e-03		19.377
8		0.00		3.20		1.041e-02		129.905		2.781e-03		19.602
8		0.00		2.80		5.752e-03		135.357		1.570e-03		16.993
8		0.00		2.40		1.858e-03		26.329		7.606e-04		87.489
8		0.00		2.00		4.916e-03		-56.713		1.496e-03		19.004
8		0.00		1.60		9.957e-03		-48.438		2.234e-03		10.732
8		0.00		1.20		1.485e-02		-48.355		3.109e-03		12.057
8		0.00		0.80		1.986e-02		-48.661		4.404e-03		10.146
8		0.00		0.40		2.435e-02		-48.324		5.325e-03		9.781
8		0.00		0.00		2.895e-02		-48.740		6.934e-03		9.165
8		0.00		-0.40		3.366e-02		-49.028		7.445e-03		7.831
8		0.00		-0.80		3.854e-02		-49.910		7.246e-03		6.813
8		0.00		-1.20		4.381e-02		-50.141		7.063e-03		5.880
8		0.00		-1.60		4.787e-02		-50.685		7.252e-03		5.594
8		0.00		-2.00		4.970e-02		-50.049		9.676e-03		5.899
8		0.00		-2.40		5.270e-02		-50.667		1.283e-02		8.887
8		0.00		-2.80		5.543e-02		-52.078		1.509e-02		13.965
8		0.00		-3.20		5.748e-02		-53.445		1.657e-02		13.890
8		0.00		-3.60		5.895e-02		-51.019		1.756e-02		7.392
8		0.00		-4.00		5.942e-02		-51.697		1.674e-02		7.758
8		0.00		-4.40		6.138e-02		-49.985		1.533e-02		7.545
8		0.00		-4.80		6.148e-02		-49.218		1.386e-02		7.819
8		0.00		-5.20		6.221e-02		-50.915		1.481e-02		10.254
8		0.00		-5.60		6.100e-02		-48.485		1.459e-02		12.045
8		0.00		-6.00		6.242e-02		-48.599		1.607e-02		13.727
8		0.00		-6.40		6.297e-02		-46.971		1.691e-02		12.103
8		0.00		-6.80		6.170e-02		-45.587		1.670e-02		15.084
8		0.00		-7.20		6.286e-02		-44.681		1.824e-02		13.209
8		0.00		-7.60		6.400e-02		-46.923		1.635e-02		6.870
8		0.00		-8.00		6.246e-02		-45.102		1.497e-02		6.938
8		0.00		-8.40		6.139e-02		-45.973		1.375e-02		7.075
8		0.00		-8.80		5.723e-02		-44.727		1.325e-02		9.518
8		0.00		-9.20		5.377e-02		-42.355		1.364e-02		8.783
8		0.00		-9.60		4.856e-02		-43.525		1.361e-02		6.685
8		0.00		-10.00		4.185e-02		-43.651		1.253e-02		14.499
8		0.00		-9.60		4.655e-02		-46.021		1.475e-02		20.155
8		0.00		-9.20		5.187e-02		-43.981		1.643e-02		21.408
8		0.00		-8.80		5.474e-02		-44.426		1.712e-02		16.298
8		0.00		-8.40		5.711e-02		-44.801		1.631e-02		7.452
8		0.00		-8.00		5.696e-02		-45.339		1.351e-02		6.117
8		0.00		-7.60		5.652e-02		-46.107		1.216e-02		6.763
8		0.00		-7.20		5.413e-02		-45.974		1.048e-02		6.527
8		0.00		-6.80		5.018e-02		-45.538		9.197e-03		6.769
8		0.00		-6.40		4.819e-02		-46.235		9.759e-03		8.036
8		0.00		-6.00		4.559e-02		-44.531		9.410e-03		6.840
8		0.00		-5.60		4.225e-02		-46.284		9.463e-03		7.616
8		0.00		-5.20		3.857e-02		-46.925		9.121e-03		8.954
8		0.00		-4.80		3.541e-02		-47.826		8.621e-03		11.341
8		0.00		-4.40		3.189e-02		-49.999		7.781e-03		9.769
8		0.00		-4.00		2.778e-02		-47.685		6.546e-03		7.119
8		0.00		-3.60		2.451e-02		-46.287		5.132e-03		7.522
8		0.00		-3.20		2.112e-02		-46.528		3.776e-03		6.701
8		0.00		-2.80		1.715e-02		-45.761		2.931e-03		8.732
8		0.00		-2.40		1.339e-02		-44.637		2.131e-03		10.186
8		0.00		-2.00		9.102e-03		-42.313		1.592e-03		14.022
8		0.00		-1.60		4.838e-03		-22.547		1.339e-03		16.052
8		0.00		-1.20		1.952e-03		-6.468		7.440e-04		62.345
8		0.00		-0.80		4.173e-03		102.092		1.428e-03		35.190
8		0.00		-0.40		7.958e-03		122.693		2.354e-03		21.793
