# Date of analysis: 2024-03-08 10;59
# Segment other properties: height: -63.024798461953445, diff height: 541.3209327375106, deflection: 33.275917433307946, deflection error: 3.2690163444526337, adhesion: 47.218666309808924, phase offset: 0
# 
# Loop index	Read Volt (V)	Write Volt (V)	Amplitude (a.u)	Phase (deg)	Sigma Amp (a.u)	Sigma Pha (deg)	
1		0.00		0.00		1.259e-02		-51.066		2.645e-03		16.507
1		0.00		0.40		8.142e-03		-46.015		2.146e-03		14.981
1		0.00		0.80		3.183e-03		-40.924		1.306e-03		37.907
1		0.00		1.20		2.583e-03		90.734		1.078e-03		59.892
1		0.00		1.60		6.684e-03		126.054		1.834e-03		16.402
1		0.00		2.00		1.117e-02		125.735		2.458e-03		11.335
1		0.00		2.40		1.577e-02		129.008		3.619e-03		10.074
1		0.00		2.80		2.004e-02		128.779		4.735e-03		10.679
1		0.00		3.20		2.465e-02		129.320		6.047e-03		11.267
1		0.00		3.60		2.825e-02		131.428		6.887e-03		10.866
1		0.00		4.00		3.242e-02		128.995		7.748e-03		11.359
1		0.00		4.40		3.607e-02		128.230		9.222e-03		10.279
1		0.00		4.80		3.890e-02		130.182		9.934e-03		10.456
1		0.00		5.20		4.199e-02		130.378		1.104e-02		10.086
1		0.00		5.60		4.487e-02		129.985		1.191e-02		10.647
1		0.00		6.00		4.695e-02		130.496		1.279e-02		9.606
1		0.00		6.40		4.970e-02		129.315		1.442e-02		16.561
1		0.00		6.80		5.206e-02		131.152		1.534e-02		13.976
1		0.00		7.20		5.458e-02		129.633		1.682e-02		25.159
1		0.00		7.60		5.582e-02		129.880		1.715e-02		19.539
1		0.00		8.00		5.625e-02		128.356		1.888e-02		29.555
1		0.00		8.40		5.618e-02		131.478		1.770e-02		20.705
1		0.00		8.80		5.896e-02		129.412		1.942e-02		21.450
1		0.00		9.20		5.893e-02		124.203		2.119e-02		28.768
1		0.00		9.60		5.861e-02		124.784		2.023e-02		25.707
1		0.00		10.00		5.706e-02		128.517		1.999e-02		23.156
1		0.00		9.60		5.834e-02		128.425		1.961e-02		20.092
1		0.00		9.20		5.826e-02		127.485		1.918e-02		21.640
1		0.00		8.80		5.820e-02		131.086		1.722e-02		10.252
1		0.00		8.40		5.562e-02		131.595		1.506e-02		8.229
1		0.00		8.00		5.400e-02		131.345		1.382e-02		6.803
1		0.00		7.60		5.195e-02		131.182		1.259e-02		6.530
1		0.00		7.20		5.049e-02		130.739		1.199e-02		6.036
1		0.00		6.80		4.661e-02		131.415		1.095e-02		7.639
1		0.00		6.40		4.360e-02		131.510		9.699e-03		7.074
1		0.00		6.00		3.981e-02		130.752		8.490e-03		7.215
1		0.00		5.60		3.630e-02		131.977		7.281e-03		7.101
1		0.00		5.20		3.279e-02		130.726		6.611e-03		8.588
1		0.00		4.80		2.898e-02		130.181		6.037e-03		8.271
1		0.00		4.40		2.482e-02		130.471		4.920e-03		7.834
1		0.00		4.00		2.023e-02		131.675		4.418e-03		9.574
1		0.00		3.60		1.644e-02		132.667		3.494e-03		9.641
1		0.00		3.20		1.184e-02		132.885		2.561e-03		12.310
1		0.00		2.80		7.322e-03		131.967		1.917e-03		12.410
1		0.00		2.40		3.208e-03		104.165		1.300e-03		41.751
1		0.00		2.00		2.441e-03		-50.276		1.058e-03		41.947
1		0.00		1.60		6.981e-03		-54.011		2.102e-03		15.955
1		0.00		1.20		1.171e-02		-51.056		3.251e-03		11.862
1		0.00		0.80		1.609e-02		-51.108		3.994e-03		11.360
1		0.00		0.40		2.111e-02		-49.518		5.130e-03		12.592
1		0.00		0.00		2.568e-02		-50.245		6.256e-03		11.203
1		0.00		-0.40		3.072e-02		-49.428		7.459e-03		8.189
1		0.00		-0.80		3.491e-02		-51.540		8.889e-03		10.942
1		0.00		-1.20		3.892e-02		-52.513		9.806e-03		10.590
1		0.00		-1.60		4.327e-02		-53.268		1.131e-02		9.473
1		0.00		-2.00		4.755e-02		-52.711		1.230e-02		8.842
1		0.00		-2.40		5.140e-02		-53.776		1.343e-02		7.537
1		0.00		-2.80		5.486e-02		-53.896		1.398e-02		8.671
1		0.00		-3.20		5.669e-02		-52.878		1.334e-02		9.023
1		0.00		-3.60		6.013e-02		-52.029		1.376e-02		6.451
1		0.00		-4.00		6.072e-02		-53.530		1.636e-02		11.562
1		0.00		-4.40		6.277e-02		-51.137		1.697e-02		13.047
1		0.00		-4.80		6.151e-02		-48.784		1.651e-02		18.417
1		0.00		-5.20		5.987e-02		-45.419		1.728e-02		20.339
1		0.00		-5.60		5.909e-02		-38.928		1.623e-02		18.849
1		0.00		-6.00		6.189e-02		-48.839		2.085e-02		26.000
1		0.00		-6.40		6.338e-02		-43.321		2.240e-02		23.330
1		0.00		-6.80		6.504e-02		-46.035		2.326e-02		27.505
1		0.00		-7.20		6.171e-02		-39.763		2.150e-02		24.218
1		0.00		-7.60		6.305e-02		-39.607		2.314e-02		23.241
1		0.00		-8.00		6.355e-02		-40.303		2.055e-02		27.342
1		0.00		-8.40		6.345e-02		-47.522		1.869e-02		22.579
1		0.00		-8.80		6.144e-02		-44.074		1.963e-02		23.267
1		0.00		-9.20		6.193e-02		-38.691		1.850e-02		20.575
1		0.00		-9.60		6.110e-02		-42.898		1.787e-02		10.888
1		0.00		-10.00		5.408e-02		-42.086		1.352e-02		7.083
1		0.00		-9.60		5.936e-02		-44.404		1.601e-02		9.740
1		0.00		-9.20		6.076e-02		-42.252		1.689e-02		14.956
1		0.00		-8.80		6.263e-02		-40.638		1.710e-02		16.715
1		0.00		-8.40		6.327e-02		-41.696		1.879e-02		13.661
1		0.00		-8.00		6.155e-02		-42.284		1.978e-02		15.318
1		0.00		-7.60		5.936e-02		-44.733		1.943e-02		15.166
1		0.00		-7.20		5.999e-02		-47.396		1.974e-02		17.009
1		0.00		-6.80		5.731e-02		-45.541		1.804e-02		16.062
1		0.00		-6.40		5.463e-02		-47.891		1.661e-02		9.486
1		0.00		-6.00		5.346e-02		-50.731		1.543e-02		8.115
1		0.00		-5.60		5.032e-02		-50.097		1.298e-02		6.795
1		0.00		-5.20		4.642e-02		-49.873		1.095e-02		6.626
1		0.00		-4.80		4.219e-02		-50.888		9.135e-03		6.019
1		0.00		-4.40		3.874e-02		-51.954		8.348e-03		7.329
1		0.00		-4.00		3.448e-02		-52.275		8.164e-03		7.914
1		0.00		-3.60		3.069e-02		-52.040		7.237e-03		8.183
1		0.00		-3.20		2.711e-02		-50.155		6.353e-03		9.245
1		0.00		-2.80		2.223e-02		-51.855		5.614e-03		12.085
1		0.00		-2.40		1.857e-02		-50.129		4.536e-03		12.525
1		0.00		-2.00		1.408e-02		-46.620		3.399e-03		10.241
1		0.00		-1.60		9.808e-03		-44.758		2.555e-03		13.992
1		0.00		-1.20		5.818e-03		-38.579		1.638e-03		16.807
1		0.00		-0.80		2.276e-03		-20.279		9.931e-04		55.160
1		0.00		-0.40		3.788e-03		115.323		1.212e-03		27.050
2		0.00		0.00		7.851e-03		118.764		2.061e-03		11.729
2		0.00		0.40		1.175e-02		127.559		3.058e-03		10.903
2		0.00		0.80		1.540e-02		126.842		4.421e-03		14.791
2		0.00		1.20		1.926e-02		128.042		5.600e-03		14.507
2		0.00		1.60		2.315e-02		126.648		6.734e-03		17.698
2		0.00		2.00		2.706e-02		127.469		8.010e-03		14.196
2		0.00		2.40		3.080e-02		127.822		8.621e-03		8.865
2		0.00		2.80		3.400e-02		129.253		8.315e-03		7.150
2		0.00		3.20		3.719e-02		129.788		8.710e-03		6.576
2		0.00		3.60		3.976e-02		131.691		8.475e-03		5.679
2		0.00		4.00		4.247e-02		131.178		9.521e-03		8.257
2		0.00		4.40		4.522e-02		129.963		1.101e-02		8.920
2		0.00		4.80		4.710e-02		130.037		1.287e-02		11.871
2		0.00		5.20		4.996e-02		129.401		1.379e-02		13.023
2		0.00		5.60		5.321e-02		129.531		1.525e-02		15.257
2		0.00		6.00		5.398e-02		128.585		1.555e-02		16.562
2		0.00		6.40		5.537e-02		128.889		1.565e-02		20.223
2		0.00		6.80		5.879e-02		133.405		1.496e-02		5.996
2		0.00		7.20		5.808e-02		134.928		1.324e-02		14.880
2		0.00		7.60		6.402e-02		134.374		1.671e-02		11.685
2		0.00		8.00		5.939e-02		131.095		1.704e-02		25.533
2		0.00		8.40		6.139e-02		126.274		1.963e-02		36.596
2		0.00		8.80		6.288e-02		124.983		2.081e-02		38.217
2		0.00		9.20		6.331e-02		128.215		2.226e-02		21.801
2		0.00		9.60		5.972e-02		125.577		2.190e-02		44.827
2		0.00		10.00		5.978e-02		128.224		2.143e-02		24.567
2		0.00		9.60		6.045e-02		123.943		2.078e-02		29.386
2		0.00		9.20		6.010e-02		125.195		1.927e-02		38.118
2		0.00		8.80		5.900e-02		133.444		1.668e-02		10.174
2		0.00		8.40		5.880e-02		133.893		1.516e-02		9.824
2		0.00		8.00		5.559e-02		130.999		1.515e-02		14.465
2		0.00		7.60		5.439e-02		129.703		1.550e-02		14.242
2		0.00		7.20		5.262e-02		131.839		1.451e-02		9.449
2		0.00		6.80		4.972e-02		130.241		1.425e-02		12.174
2		0.00		6.40		4.626e-02		129.985		1.329e-02		14.415
2		0.00		6.00		4.333e-02		127.163		1.238e-02		15.142
2		0.00		5.60		4.008e-02		129.671		1.101e-02		9.793
2		0.00		5.20		3.658e-02		130.507		8.996e-03		8.772
2		0.00		4.80		3.283e-02		130.266		7.539e-03		8.156
2		0.00		4.40		2.915e-02		131.007		6.267e-03		7.645
2		0.00		4.00		2.483e-02		131.187		5.982e-03		8.599
2		0.00		3.60		2.057e-02		131.653		5.392e-03		11.230
2		0.00		3.20		1.629e-02		129.140		4.843e-03		16.144
2		0.00		2.80		1.200e-02		126.642		3.475e-03		24.740
2		0.00		2.40		8.095e-03		127.564		2.405e-03		24.796
2		0.00		2.00		4.262e-03		117.646		1.576e-03		24.990
2		0.00		1.60		1.717e-03		-19.569		7.294e-04		71.396
2		0.00		1.20		4.821e-03		-50.044		1.756e-03		20.832
2		0.00		0.80		8.963e-03		-49.332		2.402e-03		14.336
2		0.00		0.40		1.314e-02		-47.837		3.293e-03		14.062
2		0.00		0.00		1.715e-02		-52.473		4.637e-03		11.930
2		0.00		-0.40		2.166e-02		-52.588		5.862e-03		15.424
2		0.00		-0.80		2.626e-02		-51.690		6.826e-03		11.731
2		0.00		-1.20		3.049e-02		-51.727		8.035e-03		8.503
2		0.00		-1.60		3.477e-02		-52.836		8.182e-03		8.618
2		0.00		-2.00		3.901e-02		-51.687		8.327e-03		6.301
2		0.00		-2.40		4.234e-02		-52.060		9.149e-03		7.428
2		0.00		-2.80		4.531e-02		-53.476		1.110e-02		9.982
2		0.00		-3.20		4.955e-02		-53.926		1.328e-02		11.092
2		0.00		-3.60		5.153e-02		-52.668		1.482e-02		13.897
2		0.00		-4.00		5.575e-02		-54.203		1.566e-02		10.541
2		0.00		-4.40		5.760e-02		-52.382		1.606e-02		7.481
2		0.00		-4.80		5.944e-02		-49.696		1.546e-02		8.525
2		0.00		-5.20		6.135e-02		-49.782		1.551e-02		11.621
2		0.00		-5.60		6.461e-02		-52.101		2.027e-02		16.104
2		0.00		-6.00		6.425e-02		-44.068		2.060e-02		15.374
2		0.00		-6.40		6.163e-02		-46.931		2.130e-02		15.398
2		0.00		-6.80		6.223e-02		-42.447		2.110e-02		23.673
2		0.00		-7.20		6.502e-02		-45.668		2.081e-02		21.715
2		0.00		-7.60		6.535e-02		-44.835		1.935e-02		16.390
2		0.00		-8.00		6.373e-02		-41.909		1.566e-02		19.421
2		0.00		-8.40		6.402e-02		-41.345		1.731e-02		17.407
2		0.00		-8.80		6.468e-02		-40.200		1.862e-02		15.107
2		0.00		-9.20		6.118e-02		-42.302		1.966e-02		13.634
2		0.00		-9.60		5.848e-02		-42.939		1.958e-02		17.794
2		0.00		-10.00		5.301e-02		-44.440		1.670e-02		16.726
2		0.00		-9.60		5.608e-02		-37.524		1.727e-02		30.831
2		0.00		-9.20		5.925e-02		-42.082		1.692e-02		18.163
2		0.00		-8.80		6.158e-02		-41.723		1.651e-02		10.144
2		0.00		-8.40		6.325e-02		-46.026		1.500e-02		11.998
2		0.00		-8.00		6.284e-02		-46.243		1.599e-02		13.401
2		0.00		-7.60		6.234e-02		-49.787		1.702e-02		14.456
2		0.00		-7.20		5.817e-02		-46.889		1.761e-02		12.068
2		0.00		-6.80		5.635e-02		-48.680		1.837e-02		10.787
2		0.00		-6.40		5.244e-02		-48.279		1.700e-02		15.063
2		0.00		-6.00		4.966e-02		-50.576		1.570e-02		8.830
2		0.00		-5.60		4.738e-02		-50.281		1.326e-02		5.504
2		0.00		-5.20		4.365e-02		-49.330		1.103e-02		6.705
2		0.00		-4.80		3.934e-02		-50.688		9.572e-03		7.483
2		0.00		-4.40		3.513e-02		-51.252		9.136e-03		8.204
2		0.00		-4.00		3.157e-02		-52.905		8.549e-03		8.609
2		0.00		-3.60		2.767e-02		-51.804		7.396e-03		9.410
2		0.00		-3.20		2.410e-02		-50.326		6.254e-03		14.611
2		0.00		-2.80		2.005e-02		-50.269		5.286e-03		13.284
2		0.00		-2.40		1.677e-02		-49.246		3.969e-03		8.642
2		0.00		-2.00		1.253e-02		-46.947		3.000e-03		10.532
2		0.00		-1.60		8.062e-03		-42.919		1.796e-03		14.001
2		0.00		-1.20		4.385e-03		-50.355		1.428e-03		22.154
2		0.00		-0.80		1.693e-03		17.503		8.074e-04		79.597
2		0.00		-0.40		4.669e-03		114.284		1.643e-03		35.997
3		0.00		0.00		8.372e-03		128.610		2.377e-03		19.601
3		0.00		0.40		1.259e-02		128.960		3.435e-03		16.569
3		0.00		0.80		1.642e-02		126.539		4.430e-03		16.688
3		0.00		1.20		1.985e-02		130.207		5.370e-03		9.142
3		0.00		1.60		2.429e-02		128.830		5.942e-03		7.925
3		0.00		2.00		2.770e-02		130.523		6.068e-03		7.431
3		0.00		2.40		3.082e-02		128.963		6.768e-03		8.062
3		0.00		2.80		3.403e-02		129.902		8.132e-03		7.277
3		0.00		3.20		3.696e-02		129.831		9.981e-03		8.707
3		0.00		3.60		3.945e-02		128.686		1.130e-02		13.710
3		0.00		4.00		4.161e-02		127.411		1.280e-02		19.095
3		0.00		4.40		4.372e-02		129.603		1.324e-02		12.990
3		0.00		4.80		4.784e-02		131.090		1.233e-02		6.355
3		0.00		5.20		5.053e-02		132.963		1.173e-02		6.922
3		0.00		5.60		5.251e-02		131.753		1.235e-02		6.789
3		0.00		6.00		5.331e-02		130.529		1.437e-02		12.588
3		0.00		6.40		5.473e-02		130.545		1.649e-02		13.770
3		0.00		6.80		5.905e-02		131.173		1.751e-02		13.340
3		0.00		7.20		5.930e-02		130.932		1.744e-02		17.025
3		0.00		7.60		5.981e-02		129.740		1.676e-02		23.845
3		0.00		8.00		6.279e-02		135.487		1.692e-02		10.716
3		0.00		8.40		6.513e-02		132.240		1.730e-02		23.192
3		0.00		8.80		6.725e-02		129.923		1.878e-02		22.396
3		0.00		9.20		6.471e-02		123.250		2.130e-02		42.879
3		0.00		9.60		6.117e-02		126.603		2.234e-02		37.055
3		0.00		10.00		5.890e-02		127.661		2.202e-02		32.990
3		0.00		9.60		6.080e-02		125.500		2.150e-02		27.048
3		0.00		9.20		6.056e-02		131.922		1.975e-02		17.917
3		0.00		8.80		6.068e-02		131.571		1.891e-02		16.000
3		0.00		8.40		5.847e-02		128.301		1.841e-02		18.424
3		0.00		8.00		5.466e-02		129.074		1.807e-02		26.882
3		0.00		7.60		5.358e-02		129.433		1.832e-02		15.691
3		0.00		7.20		5.130e-02		126.746		1.686e-02		19.286
3		0.00		6.80		4.878e-02		129.172		1.435e-02		9.031
3		0.00		6.40		4.718e-02		130.918		1.163e-02		7.680
3		0.00		6.00		4.363e-02		132.581		9.437e-03		5.958
3		0.00		5.60		4.137e-02		131.706		9.991e-03		8.962
3		0.00		5.20		3.739e-02		130.931		9.819e-03		11.123
3		0.00		4.80		3.356e-02		128.410		9.019e-03		18.884
3		0.00		4.40		3.020e-02		128.989		7.820e-03		17.703
3		0.00		4.00		2.662e-02		130.665		6.232e-03		8.407
3		0.00		3.60		2.261e-02		131.191		4.842e-03		8.749
3		0.00		3.20		1.868e-02		130.178		4.125e-03		8.854
3		0.00		2.80		1.458e-02		130.365		2.965e-03		10.370
3		0.00		2.40		9.806e-03		127.801		2.278e-03		14.727
3		0.00		2.00		5.559e-03		129.238		1.513e-03		26.800
3		0.00		1.60		2.151e-03		75.216		1.028e-03		59.057
3		0.00		1.20		3.303e-03		-41.902		1.193e-03		32.176
3		0.00		0.80		7.622e-03		-45.202		2.151e-03		15.575
3		0.00		0.40		1.236e-02		-46.235		2.902e-03		12.872
3		0.00		0.00		1.625e-02		-47.676		3.501e-03		11.354
3		0.00		-0.40		2.069e-02		-49.598		4.907e-03		10.108
3		0.00		-0.80		2.411e-02		-50.565		6.475e-03		11.784
3		0.00		-1.20		2.844e-02		-52.079		7.646e-03		12.779
3		0.00		-1.60		3.301e-02		-51.824		8.998e-03		8.190
3		0.00		-2.00		3.783e-02		-52.463		8.687e-03		7.216
3		0.00		-2.40		4.239e-02		-52.288		8.816e-03		5.392
3		0.00		-2.80		4.577e-02		-52.125		9.795e-03		6.961
3		0.00		-3.20		4.925e-02		-53.088		1.153e-02		9.628
3		0.00		-3.60		5.099e-02		-52.819		1.372e-02		13.003
3		0.00		-4.00		5.524e-02		-53.078		1.510e-02		16.419
3		0.00		-4.40		5.783e-02		-53.411		1.611e-02		9.729
3		0.00		-4.80		6.158e-02		-50.984		1.407e-02		8.326
3		0.00		-5.20		6.510e-02		-51.419		1.548e-02		9.397
3		0.00		-5.60		6.459e-02		-49.140		1.650e-02		13.716
3		0.00		-6.00		6.346e-02		-47.085		1.790e-02		16.153
3		0.00		-6.40		6.286e-02		-44.560		1.970e-02		19.402
3		0.00		-6.80		6.270e-02		-46.014		1.937e-02		22.937
3		0.00		-7.20		6.321e-02		-44.526		2.011e-02		22.556
3		0.00		-7.60		6.416e-02		-43.766		1.805e-02		16.960
3		0.00		-8.00		6.814e-02		-43.744		1.922e-02		19.199
3		0.00		-8.40		6.524e-02		-41.227		1.916e-02		17.909
3		0.00		-8.80		6.334e-02		-36.669		2.043e-02		15.001
3		0.00		-9.20		5.883e-02		-40.568		2.203e-02		15.885
3		0.00		-9.60		5.662e-02		-40.625		2.025e-02		17.590
3		0.00		-10.00		4.876e-02		-41.600		1.520e-02		16.661
3		0.00		-9.60		5.533e-02		-43.341		1.637e-02		13.117
3		0.00		-9.20		5.958e-02		-42.123		1.527e-02		8.781
3		0.00		-8.80		6.267e-02		-43.899		1.596e-02		11.112
3		0.00		-8.40		6.275e-02		-45.147		1.700e-02		14.096
3		0.00		-8.00		6.344e-02		-49.489		1.812e-02		14.743
3		0.00		-7.60		6.288e-02		-46.919		1.921e-02		9.871
3		0.00		-7.20		5.889e-02		-49.116		1.645e-02		14.028
3		0.00		-6.80		5.652e-02		-48.793		1.463e-02		8.802
3		0.00		-6.40		5.577e-02		-48.627		1.282e-02		5.444
3		0.00		-6.00		5.275e-02		-47.698		1.039e-02		5.362
3		0.00		-5.60		4.806e-02		-48.079		1.005e-02		6.963
3		0.00		-5.20		4.402e-02		-50.858		1.042e-02		8.540
3		0.00		-4.80		3.920e-02		-51.086		1.070e-02		10.309
3		0.00		-4.40		3.549e-02		-52.701		9.936e-03		13.246
3		0.00		-4.00		3.120e-02		-51.915		8.659e-03		10.114
3		0.00		-3.60		2.803e-02		-51.281		6.899e-03		7.624
3		0.00		-3.20		2.408e-02		-50.779		5.011e-03		7.049
3		0.00		-2.80		2.032e-02		-49.406		4.136e-03		8.422
3		0.00		-2.40		1.610e-02		-47.302		3.591e-03		10.525
3		0.00		-2.00		1.194e-02		-45.144		3.217e-03		13.685
3		0.00		-1.60		7.794e-03		-43.345		2.160e-03		15.105
3		0.00		-1.20		3.909e-03		-41.140		1.423e-03		21.723
3		0.00		-0.80		1.780e-03		44.005		7.440e-04		59.074
3		0.00		-0.40		4.845e-03		115.572		1.522e-03		27.721
4		0.00		0.00		9.223e-03		125.900		2.109e-03		10.513
4		0.00		0.40		1.296e-02		129.441		2.861e-03		7.512
4		0.00		0.80		1.671e-02		127.250		3.954e-03		12.490
4		0.00		1.20		2.042e-02		127.585		5.124e-03		15.271
4		0.00		1.60		2.464e-02		130.061		6.209e-03		12.462
4		0.00		2.00		2.849e-02		128.931		6.398e-03		7.165
4		0.00		2.40		3.232e-02		130.107		6.459e-03		6.926
4		0.00		2.80		3.595e-02		131.075		6.765e-03		5.757
4		0.00		3.20		3.763e-02		130.777		8.876e-03		8.069
4		0.00		3.60		3.955e-02		129.893		1.100e-02		10.850
4		0.00		4.00		4.197e-02		126.987		1.276e-02		16.751
4		0.00		4.40		4.469e-02		127.445		1.389e-02		15.947
4		0.00		4.80		4.741e-02		128.926		1.405e-02		10.003
4		0.00		5.20		5.027e-02		130.773		1.391e-02		5.838
4		0.00		5.60		5.195e-02		132.393		1.362e-02		6.074
4		0.00		6.00		5.403e-02		132.736		1.303e-02		7.170
4		0.00		6.40		5.483e-02		128.693		1.640e-02		14.160
4		0.00		6.80		5.887e-02		126.322		1.872e-02		20.754
4		0.00		7.20		5.955e-02		125.177		1.932e-02		33.682
4		0.00		7.60		6.325e-02		129.584		1.896e-02		17.315
4		0.00		8.00		6.256e-02		130.121		1.792e-02		18.172
4		0.00		8.40		6.466e-02		128.588		1.872e-02		29.296
4		0.00		8.80		6.443e-02		132.666		1.762e-02		16.825
4		0.00		9.20		6.890e-02		136.048		1.828e-02		12.966
4		0.00		9.60		6.701e-02		130.164		1.785e-02		16.561
4		0.00		10.00		6.472e-02		134.979		1.769e-02		12.930
4		0.00		9.60		6.383e-02		130.528		1.840e-02		25.685
4		0.00		9.20		6.441e-02		130.994		1.914e-02		16.349
4		0.00		8.80		6.412e-02		130.695		2.000e-02		20.980
4		0.00		8.40		5.942e-02		129.793		1.893e-02		25.407
4		0.00		8.00		5.830e-02		126.884		1.927e-02		23.293
4		0.00		7.60		5.579e-02		127.518		1.780e-02		18.200
4		0.00		7.20		5.343e-02		128.977		1.638e-02		16.807
4		0.00		6.80		5.172e-02		131.334		1.407e-02		5.773
4		0.00		6.40		4.939e-02		130.980		1.209e-02		6.690
4		0.00		6.00		4.557e-02		131.441		1.055e-02		7.278
4		0.00		5.60		4.198e-02		131.793		9.548e-03		6.014
4		0.00		5.20		3.875e-02		132.303		8.450e-03		6.525
4		0.00		4.80		3.548e-02		131.994		8.060e-03		7.567
4		0.00		4.40		3.183e-02		131.484		7.515e-03		7.998
4		0.00		4.00		2.782e-02		129.864		6.745e-03		10.625
4		0.00		3.60		2.389e-02		130.821		5.985e-03		13.189
4		0.00		3.20		2.006e-02		133.081		4.948e-03		14.781
4		0.00		2.80		1.555e-02		127.088		3.766e-03		19.747
4		0.00		2.40		1.122e-02		129.843		2.851e-03		20.691
4		0.00		2.00		7.148e-03		123.634		1.984e-03		24.637
4		0.00		1.60		3.129e-03		98.737		1.077e-03		48.012
4		0.00		1.20		2.246e-03		-44.777		8.695e-04		44.138
4		0.00		0.80		6.225e-03		-49.182		1.830e-03		16.816
4		0.00		0.40		1.063e-02		-46.224		2.780e-03		12.418
4		0.00		0.00		1.499e-02		-51.414		3.416e-03		9.320
4		0.00		-0.40		1.912e-02		-51.233		4.492e-03		9.229
4		0.00		-0.80		2.289e-02		-50.140		5.133e-03		9.523
4		0.00		-1.20		2.730e-02		-52.857		6.054e-03		7.877
4		0.00		-1.60		3.076e-02		-52.063		7.068e-03		8.665
4		0.00		-2.00		3.447e-02		-51.768		8.210e-03		8.076
4		0.00		-2.40		3.767e-02		-52.635		9.849e-03		10.997
4		0.00		-2.80		4.174e-02		-52.788		1.101e-02		10.318
4		0.00		-3.20		4.528e-02		-53.676		1.208e-02		14.061
4		0.00		-3.60		4.919e-02		-52.342		1.307e-02		11.967
4		0.00		-4.00		5.280e-02		-54.942		1.453e-02		16.939
4		0.00		-4.40		5.555e-02		-51.947		1.552e-02		17.649
4		0.00		-4.80		5.831e-02		-50.370		1.605e-02		17.981
4		0.00		-5.20		6.018e-02		-48.941		1.681e-02		10.904
4		0.00		-5.60		6.358e-02		-49.073		1.613e-02		8.393
4		0.00		-6.00		6.250e-02		-46.904		1.630e-02		9.593
4		0.00		-6.40		6.594e-02		-46.124		1.591e-02		10.281
4		0.00		-6.80		6.740e-02		-44.687		1.715e-02		12.624
4		0.00		-7.20		6.568e-02		-42.849		1.563e-02		12.537
4		0.00		-7.60		6.900e-02		-40.556		1.894e-02		15.839
4		0.00		-8.00		6.658e-02		-41.088		1.709e-02		14.438
4		0.00		-8.40		6.604e-02		-42.047		1.872e-02		18.328
4		0.00		-8.80		6.391e-02		-41.111		2.049e-02		17.048
4		0.00		-9.20		6.167e-02		-42.137		2.070e-02		12.856
4		0.00		-9.60		5.705e-02		-45.255		1.941e-02		11.374
4		0.00		-10.00		5.068e-02		-46.567		1.659e-02		12.642
4		0.00		-9.60		5.317e-02		-44.140		1.802e-02		9.728
4		0.00		-9.20		5.960e-02		-42.961		2.064e-02		16.240
4		0.00		-8.80		6.025e-02		-47.630		1.803e-02		18.711
4		0.00		-8.40		6.295e-02		-43.463		1.925e-02		17.545
4		0.00		-8.00		6.125e-02		-46.894		1.750e-02		14.173
4		0.00		-7.60		6.074e-02		-49.751		1.705e-02		16.832
4		0.00		-7.20		5.884e-02		-48.743		1.662e-02		15.813
4		0.00		-6.80		5.767e-02		-46.600		1.585e-02		13.997
4		0.00		-6.40		5.387e-02		-49.098		1.485e-02		12.076
4		0.00		-6.00		5.137e-02		-49.988		1.392e-02		9.527
4		0.00		-5.60		4.785e-02		-50.029		1.246e-02		7.997
4		0.00		-5.20		4.451e-02		-49.689		1.113e-02		6.566
4		0.00		-4.80		4.021e-02		-51.699		9.990e-03		6.016
4		0.00		-4.40		3.599e-02		-51.801		8.937e-03		6.892
4		0.00		-4.00		3.121e-02		-50.719		7.630e-03		8.038
4		0.00		-3.60		2.754e-02		-51.845		6.650e-03		7.825
4		0.00		-3.20		2.355e-02		-50.063		5.425e-03		7.384
4		0.00		-2.80		1.962e-02		-49.733		4.212e-03		8.836
4		0.00		-2.40		1.573e-02		-46.387		3.348e-03		9.698
4		0.00		-2.00		1.164e-02		-48.635		2.463e-03		10.235
4		0.00		-1.60		7.813e-03		-45.940		1.768e-03		14.191
4		0.00		-1.20		3.854e-03		-41.445		1.309e-03		23.839
4		0.00		-0.80		1.979e-03		38.353		8.413e-04		66.441
4		0.00		-0.40		4.869e-03		119.667		1.409e-03		22.987
5		0.00		0.00		8.966e-03		127.657		1.810e-03		11.694
5		0.00		0.40		1.295e-02		127.722		2.487e-03		10.951
5		0.00		0.80		1.693e-02		128.213		3.165e-03		8.436
5		0.00		1.20		2.059e-02		131.164		4.019e-03		8.418
5		0.00		1.60		2.417e-02		130.026		4.666e-03		7.336
5		0.00		2.00		2.863e-02		130.466		5.660e-03		6.831
5		0.00		2.40		3.134e-02		131.389		6.431e-03		7.701
5		0.00		2.80		3.501e-02		131.212		7.800e-03		7.613
5		0.00		3.20		3.767e-02		129.579		8.901e-03		9.448
5		0.00		3.60		3.939e-02		130.709		9.962e-03		9.781
5		0.00		4.00		4.268e-02		130.330		1.153e-02		11.757
5		0.00		4.40		4.435e-02		130.059		1.231e-02		13.863
5		0.00		4.80		4.668e-02		130.805		1.358e-02		12.766
5		0.00		5.20		4.948e-02		130.414		1.414e-02		13.072
5		0.00		5.60		5.204e-02		131.307		1.539e-02		14.028
5		0.00		6.00		5.406e-02		130.293		1.666e-02		17.574
5		0.00		6.40		5.663e-02		130.056		1.726e-02		15.921
5		0.00		6.80		5.807e-02		129.681		1.735e-02		20.231
5		0.00		7.20		6.138e-02		129.906		1.754e-02		18.144
5		0.00		7.60		6.144e-02		132.106		1.742e-02		16.821
5		0.00		8.00		6.119e-02		133.203		1.723e-02		15.830
5		0.00		8.40		6.373e-02		129.743		1.874e-02		26.801
5		0.00		8.80		6.466e-02		128.188		1.879e-02		26.168
5		0.00		9.20		6.358e-02		128.111		1.923e-02		26.563
5		0.00		9.60		6.352e-02		127.806		1.856e-02		23.333
5		0.00		10.00		6.401e-02		130.580		1.982e-02		22.627
5		0.00		9.60		6.173e-02		122.383		1.995e-02		37.897
5		0.00		9.20		6.040e-02		129.267		1.832e-02		22.301
5		0.00		8.80		6.161e-02		133.858		1.900e-02		16.162
5		0.00		8.40		6.149e-02		131.513		1.806e-02		11.738
5		0.00		8.00		6.012e-02		134.091		1.694e-02		8.056
5		0.00		7.60		5.782e-02		132.354		1.528e-02		6.743
5		0.00		7.20		5.414e-02		132.882		1.372e-02		7.725
5		0.00		6.80		5.187e-02		132.316		1.269e-02		7.182
5		0.00		6.40		4.901e-02		132.162		1.178e-02		7.804
5		0.00		6.00		4.561e-02		132.357		1.045e-02		6.681
5		0.00		5.60		4.339e-02		133.156		9.270e-03		5.811
5		0.00		5.20		4.021e-02		132.130		7.733e-03		5.997
5		0.00		4.80		3.693e-02		132.540		7.196e-03		5.416
5		0.00		4.40		3.332e-02		133.165		6.467e-03		6.141
5		0.00		4.00		2.908e-02		132.747		6.112e-03		8.327
5		0.00		3.60		2.483e-02		133.934		5.338e-03		8.449
5		0.00		3.20		2.099e-02		131.745		4.471e-03		9.074
5		0.00		2.80		1.740e-02		132.602		3.649e-03		11.490
5		0.00		2.40		1.296e-02		130.572		2.957e-03		12.376
5		0.00		2.00		8.690e-03		133.920		2.103e-03		16.538
5		0.00		1.60		4.538e-03		123.294		1.462e-03		24.763
5		0.00		1.20		1.834e-03		15.631		7.791e-04		78.638
5		0.00		0.80		4.613e-03		-57.503		1.466e-03		19.680
5		0.00		0.40		8.762e-03		-49.111		2.491e-03		13.766
5		0.00		0.00		1.285e-02		-49.231		3.621e-03		16.840
5		0.00		-0.40		1.675e-02		-50.341		4.489e-03		12.994
5		0.00		-0.80		2.155e-02		-49.977		6.019e-03		14.414
5		0.00		-1.20		2.554e-02		-50.954		6.684e-03		11.635
5		0.00		-1.60		2.918e-02		-52.501		7.882e-03		10.258
5		0.00		-2.00		3.339e-02		-51.730		8.743e-03		7.884
5		0.00		-2.40		3.737e-02		-53.322		9.141e-03		8.136
5		0.00		-2.80		4.211e-02		-52.231		9.950e-03		7.564
5		0.00		-3.20		4.666e-02		-52.833		1.032e-02		5.822
5		0.00		-3.60		4.998e-02		-53.209		1.114e-02		7.047
5		0.00		-4.00		5.312e-02		-52.271		1.189e-02		6.413
5		0.00		-4.40		5.723e-02		-52.448		1.233e-02		8.208
5		0.00		-4.80		6.069e-02		-51.421		1.266e-02		5.695
5		0.00		-5.20		6.234e-02		-48.539		1.418e-02		9.773
5		0.00		-5.60		6.423e-02		-49.384		1.482e-02		10.403
5		0.00		-6.00		6.641e-02		-47.058		1.477e-02		12.365
5		0.00		-6.40		6.749e-02		-47.498		1.834e-02		16.156
5		0.00		-6.80		6.530e-02		-42.761		1.742e-02		13.011
5		0.00		-7.20		6.531e-02		-49.512		2.044e-02		22.196
5		0.00		-7.60		6.669e-02		-44.775		2.045e-02		17.864
5		0.00		-8.00		6.645e-02		-46.165		1.997e-02		19.979
5		0.00		-8.40		6.533e-02		-40.957		2.010e-02		15.233
5		0.00		-8.80		6.548e-02		-41.169		2.163e-02		15.269
5		0.00		-9.20		6.050e-02		-44.161		2.058e-02		14.012
5		0.00		-9.60		5.540e-02		-45.550		1.831e-02		10.803
5		0.00		-10.00		5.043e-02		-45.185		1.598e-02		10.833
5		0.00		-9.60		5.497e-02		-43.781		1.732e-02		8.658
5		0.00		-9.20		5.906e-02		-42.452		1.862e-02		12.056
5		0.00		-8.80		6.037e-02		-43.828		1.852e-02		17.791
5		0.00		-8.40		6.288e-02		-44.214		1.933e-02		15.371
5		0.00		-8.00		6.338e-02		-46.306		1.898e-02		17.145
5		0.00		-7.60		5.948e-02		-46.000		1.746e-02		9.939
5		0.00		-7.20		5.897e-02		-47.240		1.668e-02		12.371
5		0.00		-6.80		5.671e-02		-48.025		1.552e-02		12.365
5		0.00		-6.40		5.351e-02		-50.097		1.438e-02		15.384
5		0.00		-6.00		5.062e-02		-49.941		1.341e-02		12.795
5		0.00		-5.60		4.658e-02		-49.845		1.353e-02		13.179
5		0.00		-5.20		4.224e-02		-50.703		1.204e-02		9.555
5		0.00		-4.80		3.856e-02		-51.659		1.089e-02		10.051
5		0.00		-4.40		3.441e-02		-51.575		9.098e-03		8.306
5		0.00		-4.00		3.053e-02		-52.188		7.893e-03		8.649
5		0.00		-3.60		2.699e-02		-50.690		6.770e-03		7.704
5		0.00		-3.20		2.299e-02		-51.659		5.231e-03		7.085
5		0.00		-2.80		1.939e-02		-50.580		4.458e-03		7.792
5		0.00		-2.40		1.574e-02		-49.037		3.362e-03		9.097
5		0.00		-2.00		1.200e-02		-50.724		2.485e-03		11.888
5		0.00		-1.60		7.588e-03		-39.587		1.625e-03		13.986
5		0.00		-1.20		3.466e-03		-43.691		1.302e-03		31.319
5		0.00		-0.80		2.140e-03		51.718		8.228e-04		63.058
5		0.00		-0.40		5.401e-03		117.679		1.586e-03		28.254
6		0.00		0.00		9.230e-03		124.876		2.020e-03		12.072
6		0.00		0.40		1.314e-02		126.018		2.657e-03		9.821
6		0.00		0.80		1.709e-02		128.427		3.474e-03		7.879
6		0.00		1.20		2.145e-02		128.475		4.366e-03		7.265
6		0.00		1.60		2.526e-02		130.370		4.766e-03		6.489
6		0.00		2.00		2.869e-02		129.820		5.542e-03		7.877
6		0.00		2.40		3.189e-02		131.111		7.196e-03		7.056
6		0.00		2.80		3.462e-02		132.103		8.189e-03		7.328
6		0.00		3.20		3.741e-02		131.175		9.404e-03		7.727
6		0.00		3.60		4.006e-02		131.712		1.016e-02		7.443
6		0.00		4.00		4.230e-02		131.002		1.131e-02		7.929
6		0.00		4.40		4.450e-02		130.445		1.263e-02		10.462
6		0.00		4.80		4.699e-02		130.742		1.343e-02		9.141
6		0.00		5.20		4.846e-02		131.221		1.435e-02		11.438
6		0.00		5.60		5.149e-02		129.521		1.525e-02		14.105
6		0.00		6.00		5.410e-02		130.440		1.555e-02		12.048
6		0.00		6.40		5.647e-02		128.877		1.686e-02		18.667
6		0.00		6.80		5.904e-02		130.131		1.698e-02		17.819
6		0.00		7.20		6.115e-02		130.408		1.758e-02		16.284
6		0.00		7.60		6.254e-02		129.390		1.825e-02		16.401
6		0.00		8.00		6.095e-02		131.657		1.670e-02		14.721
6		0.00		8.40		6.380e-02		127.675		1.821e-02		23.458
6		0.00		8.80		6.538e-02		129.026		1.965e-02		27.430
6		0.00		9.20		6.668e-02		127.972		2.067e-02		25.798
6		0.00		9.60		6.608e-02		127.668		2.123e-02		32.261
6		0.00		10.00		6.165e-02		120.884		2.106e-02		40.465
6		0.00		9.60		6.356e-02		128.264		2.097e-02		22.142
6		0.00		9.20		6.233e-02		130.346		2.003e-02		22.539
6		0.00		8.80		6.170e-02		132.998		1.914e-02		16.824
6		0.00		8.40		6.128e-02		135.122		1.807e-02		8.174
6		0.00		8.00		5.816e-02		132.895		1.635e-02		10.113
6		0.00		7.60		5.738e-02		133.401		1.483e-02		8.033
6		0.00		7.20		5.530e-02		133.430		1.365e-02		5.762
6		0.00		6.80		5.212e-02		132.944		1.262e-02		6.834
6		0.00		6.40		4.989e-02		132.693		1.123e-02		6.748
6		0.00		6.00		4.637e-02		131.434		9.926e-03		7.745
6		0.00		5.60		4.384e-02		131.850		9.548e-03		7.844
6		0.00		5.20		4.024e-02		132.385		8.501e-03		6.483
6		0.00		4.80		3.666e-02		132.363		7.579e-03		6.666
6		0.00		4.40		3.310e-02		132.875		6.829e-03		7.195
6		0.00		4.00		2.898e-02		133.229		6.112e-03		7.507
6		0.00		3.60		2.556e-02		130.854		5.579e-03		9.476
6		0.00		3.20		2.141e-02		132.753		4.651e-03		8.548
6		0.00		2.80		1.730e-02		132.075		3.858e-03		11.117
6		0.00		2.40		1.350e-02		131.656		3.300e-03		11.980
6		0.00		2.00		9.209e-03		126.054		2.234e-03		14.088
6		0.00		1.60		5.065e-03		131.748		1.447e-03		19.563
6		0.00		1.20		1.763e-03		17.288		7.473e-04		80.484
6		0.00		0.80		3.849e-03		-47.197		1.313e-03		27.333
6		0.00		0.40		8.110e-03		-45.330		2.328e-03		14.091
6		0.00		0.00		1.165e-02		-49.444		3.357e-03		12.970
6		0.00		-0.40		1.600e-02		-49.158		4.411e-03		13.262
6		0.00		-0.80		2.012e-02		-49.586		5.556e-03		14.235
6		0.00		-1.20		2.410e-02		-50.638		6.691e-03		10.689
6		0.00		-1.60		2.854e-02		-50.994		7.178e-03		11.464
6		0.00		-2.00		3.209e-02		-51.153		7.947e-03		9.043
6		0.00		-2.40		3.651e-02		-51.651		9.205e-03		8.559
6		0.00		-2.80		4.162e-02		-53.235		1.022e-02		7.523
6		0.00		-3.20		4.510e-02		-53.936		1.119e-02		6.745
6		0.00		-3.60		4.869e-02		-53.196		1.196e-02		6.055
6		0.00		-4.00		5.233e-02		-54.365		1.237e-02		5.729
6		0.00		-4.40		5.582e-02		-53.022		1.278e-02		5.933
6		0.00		-4.80		5.858e-02		-51.639		1.311e-02		6.756
6		0.00		-5.20		6.121e-02		-50.628		1.359e-02		6.102
6		0.00		-5.60		6.425e-02		-48.855		1.468e-02		8.232
6		0.00		-6.00		6.357e-02		-47.967		1.484e-02		10.075
6		0.00		-6.40		6.485e-02		-46.224		1.565e-02		10.874
6		0.00		-6.80		6.523e-02		-45.392		1.545e-02		13.660
6		0.00		-7.20		6.750e-02		-41.246		1.742e-02		13.354
6		0.00		-7.60		6.734e-02		-48.172		1.869e-02		17.464
6		0.00		-8.00		6.852e-02		-41.306		2.070e-02		14.434
6		0.00		-8.40		6.777e-02		-46.308		2.225e-02		20.763
6		0.00		-8.80		6.261e-02		-43.121		1.859e-02		16.535
6		0.00		-9.20		6.106e-02		-40.053		2.013e-02		14.375
6		0.00		-9.60		5.675e-02		-43.150		1.840e-02		12.667
6		0.00		-10.00		5.163e-02		-40.887		1.616e-02		16.470
6		0.00		-9.60		5.693e-02		-45.833		1.836e-02		21.529
6		0.00		-9.20		5.979e-02		-39.391		1.857e-02		23.910
6		0.00		-8.80		6.259e-02		-44.724		1.762e-02		18.464
6		0.00		-8.40		6.098e-02		-45.141		1.744e-02		16.592
6		0.00		-8.00		6.207e-02		-44.494		1.741e-02		18.102
6		0.00		-7.60		6.195e-02		-46.830		1.621e-02		9.318
6		0.00		-7.20		5.959e-02		-46.807		1.507e-02		12.397
6		0.00		-6.80		5.850e-02		-48.473		1.464e-02		7.247
6		0.00		-6.40		5.517e-02		-47.980		1.418e-02		6.236
6		0.00		-6.00		5.155e-02		-49.197		1.290e-02		6.252
6		0.00		-5.60		4.766e-02		-49.221		1.094e-02		5.496
6		0.00		-5.20		4.392e-02		-49.386		9.819e-03		6.286
6		0.00		-4.80		3.939e-02		-50.477		8.256e-03		6.055
6		0.00		-4.40		3.566e-02		-51.558		7.155e-03		5.364
6		0.00		-4.00		3.145e-02		-51.725		6.224e-03		6.953
6		0.00		-3.60		2.741e-02		-51.413		5.501e-03		7.668
6		0.00		-3.20		2.303e-02		-51.982		4.512e-03		7.546
6		0.00		-2.80		1.967e-02		-49.206		3.733e-03		9.303
6		0.00		-2.40		1.582e-02		-47.819		2.924e-03		9.720
6		0.00		-2.00		1.169e-02		-44.799		2.051e-03		12.929
6		0.00		-1.60		8.042e-03		-38.954		1.738e-03		11.693
6		0.00		-1.20		3.892e-03		-34.708		1.399e-03		27.087
6		0.00		-0.80		1.765e-03		38.568		7.840e-04		69.743
6		0.00		-0.40		4.787e-03		119.099		1.385e-03		22.293
7		0.00		0.00		8.592e-03		125.807		2.215e-03		17.134
7		0.00		0.40		1.276e-02		127.817		3.046e-03		13.060
7		0.00		0.80		1.660e-02		128.370		3.690e-03		12.264
7		0.00		1.20		2.048e-02		126.596		4.896e-03		14.338
7		0.00		1.60		2.412e-02		128.030		6.077e-03		15.160
7		0.00		2.00		2.701e-02		127.437		7.295e-03		14.215
7		0.00		2.40		3.083e-02		129.174		8.395e-03		12.520
7		0.00		2.80		3.406e-02		128.910		9.288e-03		9.893
7		0.00		3.20		3.722e-02		130.530		9.855e-03		6.988
7		0.00		3.60		4.019e-02		130.400		1.026e-02		6.439
7		0.00		4.00		4.317e-02		130.679		1.025e-02		5.385
7		0.00		4.40		4.628e-02		130.667		1.065e-02		5.771
7		0.00		4.80		4.865e-02		132.522		1.104e-02		6.578
7		0.00		5.20		5.137e-02		133.368		1.079e-02		5.733
7		0.00		5.60		5.359e-02		132.417		1.100e-02		6.030
7		0.00		6.00		5.539e-02		131.425		1.232e-02		8.436
7		0.00		6.40		5.659e-02		133.137		1.318e-02		10.055
7		0.00		6.80		6.017e-02		132.060		1.508e-02		10.275
7		0.00		7.20		6.118e-02		129.103		1.756e-02		14.913
7		0.00		7.60		6.360e-02		131.940		1.817e-02		14.464
7		0.00		8.00		6.354e-02		126.897		1.897e-02		28.209
7		0.00		8.40		6.600e-02		127.903		2.043e-02		26.244
7		0.00		8.80		6.401e-02		127.229		2.042e-02		25.653
7		0.00		9.20		6.365e-02		124.959		2.008e-02		29.558
7		0.00		9.60		6.063e-02		126.346		2.076e-02		34.781
7		0.00		10.00		5.960e-02		129.311		2.133e-02		28.526
7		0.00		9.60		6.207e-02		128.170		2.166e-02		19.939
7		0.00		9.20		5.986e-02		124.561		1.980e-02		30.457
7		0.00		8.80		6.124e-02		132.453		1.887e-02		13.004
7		0.00		8.40		6.054e-02		130.728		1.823e-02		17.922
7		0.00		8.00		5.875e-02		132.310		1.680e-02		7.413
7		0.00		7.60		5.671e-02		132.841		1.495e-02		7.327
7		0.00		7.20		5.540e-02		132.631		1.323e-02		6.342
7		0.00		6.80		5.308e-02		132.905		1.186e-02		6.456
7		0.00		6.40		4.936e-02		132.546		1.040e-02		6.668
7		0.00		6.00		4.703e-02		132.527		9.330e-03		5.535
7		0.00		5.60		4.355e-02		132.413		8.928e-03		5.469
7		0.00		5.20		4.042e-02		133.459		8.233e-03		5.902
7		0.00		4.80		3.694e-02		132.698		7.624e-03		6.389
7		0.00		4.40		3.322e-02		132.926		7.060e-03		6.974
7		0.00		4.00		2.899e-02		130.770		6.495e-03		6.948
7		0.00		3.60		2.517e-02		132.221		5.681e-03		9.986
7		0.00		3.20		2.113e-02		134.905		4.774e-03		9.588
7		0.00		2.80		1.687e-02		131.413		4.060e-03		10.242
7		0.00		2.40		1.287e-02		128.737		3.163e-03		15.379
7		0.00		2.00		8.835e-03		129.244		2.608e-03		18.115
7		0.00		1.60		4.752e-03		117.754		1.504e-03		32.067
7		0.00		1.20		1.720e-03		33.591		7.455e-04		71.116
7		0.00		0.80		3.564e-03		-52.197		1.375e-03		34.330
7		0.00		0.40		7.710e-03		-48.734		2.170e-03		15.701
7		0.00		0.00		1.202e-02		-49.363		3.445e-03		11.641
7		0.00		-0.40		1.641e-02		-48.753		4.094e-03		8.457
7		0.00		-0.80		2.076e-02		-50.154		4.625e-03		8.701
7		0.00		-1.20		2.534e-02		-51.500		5.309e-03		7.114
7		0.00		-1.60		2.977e-02		-50.941		5.824e-03		6.854
7		0.00		-2.00		3.349e-02		-51.399		6.115e-03		6.169
7		0.00		-2.40		3.732e-02		-51.456		6.844e-03		5.656
7		0.00		-2.80		4.123e-02		-52.152		7.622e-03		7.627
7		0.00		-3.20		4.467e-02		-52.877		9.044e-03		7.064
7		0.00		-3.60		4.816e-02		-52.743		1.054e-02		8.030
7		0.00		-4.00		5.057e-02		-53.476		1.272e-02		11.741
7		0.00		-4.40		5.387e-02		-52.650		1.421e-02		12.281
7		0.00		-4.80		5.651e-02		-51.560		1.561e-02		14.558
7		0.00		-5.20		5.806e-02		-45.686		1.841e-02		26.851
7		0.00		-5.60		6.141e-02		-48.594		1.934e-02		16.385
7		0.00		-6.00		6.091e-02		-48.370		1.899e-02		13.182
7		0.00		-6.40		6.232e-02		-47.422		1.929e-02		11.919
7		0.00		-6.80		6.352e-02		-46.040		1.833e-02		10.714
7		0.00		-7.20		6.616e-02		-44.191		1.845e-02		12.966
7		0.00		-7.60		6.828e-02		-42.095		1.718e-02		11.144
7		0.00		-8.00		6.908e-02		-45.972		1.854e-02		15.952
7		0.00		-8.40		6.678e-02		-42.248		1.899e-02		15.664
7		0.00		-8.80		6.654e-02		-45.106		1.933e-02		14.442
7		0.00		-9.20		6.177e-02		-41.577		1.820e-02		12.175
7		0.00		-9.60		5.678e-02		-45.055		1.786e-02		9.391
7		0.00		-10.00		5.052e-02		-46.160		1.536e-02		15.918
7		0.00		-9.60		5.640e-02		-43.781		1.841e-02		19.216
7		0.00		-9.20		5.934e-02		-41.688		1.769e-02		20.701
7		0.00		-8.80		5.983e-02		-42.302		1.710e-02		22.955
7		0.00		-8.40		6.149e-02		-45.970		1.688e-02		11.071
7		0.00		-8.00		6.226e-02		-46.312		1.552e-02		7.146
7		0.00		-7.60		6.194e-02		-47.168		1.390e-02		6.314
7		0.00		-7.20		5.987e-02		-48.047		1.238e-02		5.590
7		0.00		-6.80		5.531e-02		-47.157		1.202e-02		7.133
7		0.00		-6.40		5.232e-02		-48.956		1.288e-02		9.707
7		0.00		-6.00		4.852e-02		-49.069		1.277e-02		8.841
7		0.00		-5.60		4.455e-02		-50.460		1.279e-02		10.137
7		0.00		-5.20		4.108e-02		-49.277		1.172e-02		10.649
7		0.00		-4.80		3.750e-02		-52.585		1.078e-02		13.194
7		0.00		-4.40		3.369e-02		-51.308		9.555e-03		10.640
7		0.00		-4.00		3.055e-02		-51.285		8.063e-03		6.728
7		0.00		-3.60		2.707e-02		-50.704		6.389e-03		6.841
7		0.00		-3.20		2.332e-02		-49.738		4.899e-03		8.059
7		0.00		-2.80		1.912e-02		-48.521		3.868e-03		7.898
7		0.00		-2.40		1.564e-02		-48.401		2.995e-03		10.172
7		0.00		-2.00		1.165e-02		-48.591		2.474e-03		9.851
7		0.00		-1.60		7.673e-03		-40.245		1.963e-03		15.878
7		0.00		-1.20		3.362e-03		-35.572		1.113e-03		29.481
7		0.00		-0.80		1.891e-03		42.912		7.380e-04		64.249
7		0.00		-0.40		5.039e-03		112.388		1.678e-03		30.246
8		0.00		0.00		8.659e-03		123.985		2.443e-03		16.351
8		0.00		0.40		1.247e-02		126.031		3.373e-03		10.739
8		0.00		0.80		1.667e-02		130.047		3.656e-03		8.954
8		0.00		1.20		2.049e-02		128.983		4.171e-03		6.844
8		0.00		1.60		2.419e-02		129.474		5.116e-03		6.837
8		0.00		2.00		2.759e-02		129.140		6.023e-03		5.586
8		0.00		2.40		2.998e-02		129.412		7.392e-03		8.282
8		0.00		2.80		3.361e-02		130.647		8.009e-03		7.467
8		0.00		3.20		3.624e-02		129.538		9.946e-03		9.665
8		0.00		3.60		3.858e-02		129.858		1.122e-02		14.986
8		0.00		4.00		4.077e-02		127.780		1.232e-02		20.536
8		0.00		4.40		4.358e-02		129.133		1.327e-02		17.322
8		0.00		4.80		4.657e-02		130.155		1.291e-02		10.214
8		0.00		5.20		4.994e-02		131.702		1.185e-02		5.426
8		0.00		5.60		5.239e-02		132.038		1.113e-02		6.485
8		0.00		6.00		5.409e-02		131.922		1.181e-02		7.473
8		0.00		6.40		5.764e-02		132.622		1.299e-02		6.815
8		0.00		6.80		5.790e-02		131.219		1.593e-02		11.563
8		0.00		7.20		5.998e-02		131.587		1.741e-02		16.041
8		0.00		7.60		6.196e-02		126.694		1.865e-02		32.195
8		0.00		8.00		6.288e-02		131.050		1.768e-02		18.025
8		0.00		8.40		6.236e-02		132.261		1.749e-02		19.425
8		0.00		8.80		6.635e-02		133.764		1.902e-02		12.416
8		0.00		9.20		6.635e-02		130.740		1.714e-02		14.632
8		0.00		9.60		6.773e-02		132.109		1.984e-02		15.474
8		0.00		10.00		6.494e-02		133.887		1.943e-02		15.960
8		0.00		9.60		6.323e-02		134.884		1.914e-02		13.434
8		0.00		9.20		6.289e-02		122.409		2.160e-02		38.082
8		0.00		8.80		6.189e-02		125.771		2.109e-02		31.305
8		0.00		8.40		6.104e-02		128.315		1.911e-02		18.523
8		0.00		8.00		5.915e-02		129.761		1.807e-02		15.787
8		0.00		7.60		5.774e-02		133.620		1.496e-02		5.962
8		0.00		7.20		5.535e-02		133.299		1.348e-02		6.131
8		0.00		6.80		5.296e-02		132.671		1.187e-02		7.153
8		0.00		6.40		5.010e-02		131.780		1.193e-02		8.551
8		0.00		6.00		4.714e-02		131.616		1.187e-02		8.747
8		0.00		5.60		4.337e-02		131.746		1.182e-02		12.794
8		0.00		5.20		4.035e-02		129.391		1.061e-02		17.103
8		0.00		4.80		3.706e-02		130.082		9.668e-03		12.687
8		0.00		4.40		3.385e-02		131.860		7.944e-03		6.617
8		0.00		4.00		3.049e-02		132.420		6.284e-03		7.756
8		0.00		3.60		2.606e-02		131.858		5.264e-03		8.134
8		0.00		3.20		2.235e-02		132.479		4.209e-03		7.291
8		0.00		2.80		1.813e-02		130.563		3.783e-03		8.682
8		0.00		2.40		1.384e-02		132.369		3.129e-03		13.228
8		0.00		2.00		9.570e-03		130.586		2.614e-03		18.673
8		0.00		1.60		5.283e-03		125.616		1.528e-03		31.407
8		0.00		1.20		1.655e-03		48.342		6.613e-04		79.362
8		0.00		0.80		3.606e-03		-65.742		1.382e-03		23.801
8		0.00		0.40		7.524e-03		-51.047		1.663e-03		14.949
8		0.00		0.00		1.193e-02		-52.953		2.544e-03		8.422
8		0.00		-0.40		1.602e-02		-48.771		3.408e-03		10.743
8		0.00		-0.80		1.950e-02		-51.590		5.079e-03		11.157
8		0.00		-1.20		2.344e-02		-51.796		6.610e-03		10.735
8		0.00		-1.60		2.786e-02		-52.125		7.405e-03		9.157
8		0.00		-2.00		3.241e-02		-52.117		7.387e-03		6.885
8		0.00		-2.40		3.642e-02		-51.107		6.906e-03		6.845
8		0.00		-2.80		4.054e-02		-51.233		6.890e-03		5.569
8		0.00		-3.20		4.392e-02		-51.677		8.411e-03		6.780
8		0.00		-3.60		4.721e-02		-52.143		1.033e-02		8.337
8		0.00		-4.00		5.013e-02		-52.453		1.232e-02		10.699
8		0.00		-4.40		5.462e-02		-53.577		1.417e-02		12.571
8		0.00		-4.80		5.763e-02		-51.807		1.398e-02		6.631
8		0.00		-5.20		6.140e-02		-51.562		1.374e-02		6.983
8		0.00		-5.60		6.218e-02		-49.225		1.387e-02		11.172
8		0.00		-6.00		6.384e-02		-48.812		1.599e-02		12.624
8		0.00		-6.40		6.510e-02		-43.449		1.844e-02		12.133
8		0.00		-6.80		6.226e-02		-44.190		1.956e-02		17.115
8		0.00		-7.20		6.276e-02		-48.518		1.861e-02		17.600
8		0.00		-7.60		6.549e-02		-42.380		1.885e-02		14.208
8		0.00		-8.00		6.923e-02		-42.512		1.715e-02		14.150
8		0.00		-8.40		6.851e-02		-44.850		1.768e-02		13.144
8		0.00		-8.80		6.524e-02		-40.979		1.916e-02		12.264
8		0.00		-9.20		6.061e-02		-46.217		2.077e-02		16.136
8		0.00		-9.60		5.706e-02		-41.818		1.976e-02		16.601
8		0.00		-10.00		5.148e-02		-41.992		1.566e-02		15.203
8		0.00		-9.60		5.841e-02		-45.003		1.612e-02		7.111
8		0.00		-9.20		6.184e-02		-42.485		1.594e-02		8.363
8		0.00		-8.80		6.346e-02		-42.888		1.563e-02		8.865
8		0.00		-8.40		6.490e-02		-45.823		1.776e-02		11.576
8		0.00		-8.00		6.317e-02		-47.712		1.898e-02		19.243
8		0.00		-7.60		6.188e-02		-48.426		1.725e-02		15.745
8		0.00		-7.20		5.907e-02		-45.014		1.553e-02		12.336
8		0.00		-6.80		5.929e-02		-47.465		1.307e-02		6.038
8		0.00		-6.40		5.580e-02		-48.315		1.043e-02		5.819
8		0.00		-6.00		5.274e-02		-48.477		1.095e-02		6.398
8		0.00		-5.60		4.822e-02		-47.812		1.122e-02		6.997
8		0.00		-5.20		4.292e-02		-49.438		1.194e-02		13.436
8		0.00		-4.80		3.941e-02		-52.074		1.143e-02		15.311
8		0.00		-4.40		3.584e-02		-51.901		9.263e-03		7.180
8		0.00		-4.00		3.189e-02		-50.186		6.919e-03		6.252
8		0.00		-3.60		2.804e-02		-50.772		6.042e-03		7.402
8		0.00		-3.20		2.374e-02		-50.160		5.603e-03		7.704
8		0.00		-2.80		2.004e-02		-50.767		5.271e-03		12.310
8		0.00		-2.40		1.622e-02		-48.074		4.547e-03		10.155
8		0.00		-2.00		1.231e-02		-44.732		3.193e-03		11.374
8		0.00		-1.60		8.536e-03		-44.649		2.059e-03		10.916
8		0.00		-1.20		4.756e-03		-39.465		1.339e-03		21.650
8		0.00		-0.80		1.730e-03		-8.553		7.583e-04		71.277
8		0.00		-0.40		4.067e-03		115.808		1.225e-03		26.739
