# Date of analysis: 2024-03-08 10;59
# Segment other properties: height: -82.3524047559115, diff height: 522.8454188461159, deflection: 33.255038858945355, deflection error: 2.35908955322144, adhesion: 35.708992822404255, phase offset: 0
# 
# Loop index	Read Volt (V)	Write Volt (V)	Amplitude (a.u)	Phase (deg)	Sigma Amp (a.u)	Sigma Pha (deg)	
1		0.00		0.00		1.577e-02		-44.397		2.611e-03		10.412
1		0.00		0.40		1.060e-02		-49.588		2.264e-03		12.525
1		0.00		0.80		5.917e-03		-48.442		1.697e-03		14.935
1		0.00		1.20		2.075e-03		8.746		8.672e-04		57.435
1		0.00		1.60		4.199e-03		114.707		1.190e-03		19.128
1		0.00		2.00		9.052e-03		126.785		1.753e-03		14.684
1		0.00		2.40		1.286e-02		128.593		2.947e-03		12.520
1		0.00		2.80		1.759e-02		128.098		3.918e-03		10.960
1		0.00		3.20		2.228e-02		129.773		3.824e-03		7.700
1		0.00		3.60		2.653e-02		131.814		4.184e-03		6.312
1		0.00		4.00		3.003e-02		130.560		5.707e-03		8.020
1		0.00		4.40		3.311e-02		128.632		7.724e-03		11.656
1		0.00		4.80		3.711e-02		129.692		8.055e-03		8.402
1		0.00		5.20		4.091e-02		130.737		6.990e-03		6.901
1		0.00		5.60		4.377e-02		131.708		7.764e-03		5.662
1		0.00		6.00		4.641e-02		130.464		9.931e-03		9.819
1		0.00		6.40		4.936e-02		131.299		1.141e-02		9.276
1		0.00		6.80		5.188e-02		131.791		1.084e-02		6.051
1		0.00		7.20		5.394e-02		133.534		9.850e-03		6.151
1		0.00		7.60		5.452e-02		132.612		1.187e-02		10.723
1		0.00		8.00		5.711e-02		132.861		1.317e-02		14.210
1		0.00		8.40		6.192e-02		132.568		1.434e-02		9.186
1		0.00		8.80		6.160e-02		135.334		1.202e-02		10.465
1		0.00		9.20		5.870e-02		131.368		1.408e-02		20.603
1		0.00		9.60		6.147e-02		131.936		1.676e-02		10.769
1		0.00		10.00		6.050e-02		132.405		1.840e-02		16.526
1		0.00		9.60		6.273e-02		131.593		1.616e-02		9.883
1		0.00		9.20		5.913e-02		131.639		1.462e-02		14.202
1		0.00		8.80		5.668e-02		126.392		1.554e-02		27.124
1		0.00		8.40		5.672e-02		130.563		1.508e-02		14.311
1		0.00		8.00		5.439e-02		131.032		1.390e-02		12.601
1		0.00		7.60		5.208e-02		132.061		1.124e-02		7.699
1		0.00		7.20		4.906e-02		133.372		8.809e-03		5.836
1		0.00		6.80		4.583e-02		131.161		1.010e-02		10.732
1		0.00		6.40		4.301e-02		131.593		9.950e-03		9.248
1		0.00		6.00		4.005e-02		132.364		8.749e-03		8.016
1		0.00		5.60		3.682e-02		131.470		6.041e-03		7.230
1		0.00		5.20		3.274e-02		132.889		5.429e-03		6.987
1		0.00		4.80		2.847e-02		130.985		5.680e-03		11.326
1		0.00		4.40		2.428e-02		131.714		5.100e-03		9.712
1		0.00		4.00		2.054e-02		131.276		3.573e-03		8.141
1		0.00		3.60		1.664e-02		131.914		2.379e-03		8.632
1		0.00		3.20		1.189e-02		133.081		2.043e-03		10.342
1		0.00		2.80		7.159e-03		130.327		1.753e-03		19.690
1		0.00		2.40		3.020e-03		90.505		1.154e-03		45.269
1		0.00		2.00		3.371e-03		-42.106		1.342e-03		34.656
1		0.00		1.60		7.683e-03		-39.535		1.946e-03		14.946
1		0.00		1.20		1.249e-02		-47.960		2.715e-03		10.428
1		0.00		0.80		1.738e-02		-47.879		4.001e-03		11.046
1		0.00		0.40		2.248e-02		-47.483		3.911e-03		8.076
1		0.00		0.00		2.744e-02		-48.612		3.745e-03		6.823
1		0.00		-0.40		3.131e-02		-49.300		4.798e-03		6.887
1		0.00		-0.80		3.535e-02		-49.427		6.964e-03		7.546
1		0.00		-1.20		3.970e-02		-50.954		8.387e-03		7.522
1		0.00		-1.60		4.413e-02		-52.929		8.299e-03		7.538
1		0.00		-2.00		4.846e-02		-51.656		6.852e-03		5.284
1		0.00		-2.40		5.143e-02		-50.808		9.256e-03		5.593
1		0.00		-2.80		5.392e-02		-50.850		1.069e-02		6.135
1		0.00		-3.20		5.782e-02		-51.849		1.224e-02		7.530
1		0.00		-3.60		6.047e-02		-51.725		1.112e-02		7.185
1		0.00		-4.00		5.977e-02		-50.600		9.741e-03		8.411
1		0.00		-4.40		6.239e-02		-49.471		1.314e-02		12.498
1		0.00		-4.80		6.468e-02		-49.497		1.698e-02		14.631
1		0.00		-5.20		6.475e-02		-43.494		1.455e-02		16.074
1		0.00		-5.60		6.932e-02		-48.250		1.548e-02		16.747
1		0.00		-6.00		6.309e-02		-39.618		1.245e-02		18.769
1		0.00		-6.40		6.462e-02		-39.637		1.672e-02		22.035
1		0.00		-6.80		6.624e-02		-43.956		1.817e-02		27.639
1		0.00		-7.20		6.862e-02		-44.599		1.811e-02		22.531
1		0.00		-7.60		6.829e-02		-44.960		1.836e-02		26.418
1		0.00		-8.00		6.569e-02		-47.702		1.790e-02		27.936
1		0.00		-8.40		6.759e-02		-48.201		1.950e-02		26.510
1		0.00		-8.80		6.412e-02		-36.732		1.951e-02		28.260
1		0.00		-9.20		6.630e-02		-39.647		1.805e-02		20.355
1		0.00		-9.60		6.223e-02		-38.600		1.800e-02		19.989
1		0.00		-10.00		5.459e-02		-44.656		1.507e-02		18.804
1		0.00		-9.60		5.817e-02		-41.065		1.750e-02		16.267
1		0.00		-9.20		6.151e-02		-37.799		1.777e-02		18.605
1		0.00		-8.80		6.516e-02		-36.810		1.648e-02		15.410
1		0.00		-8.40		6.564e-02		-45.351		1.395e-02		19.381
1		0.00		-8.00		6.401e-02		-39.548		1.399e-02		14.454
1		0.00		-7.60		6.422e-02		-40.367		1.679e-02		14.783
1		0.00		-7.20		6.496e-02		-42.217		1.478e-02		11.140
1		0.00		-6.80		6.460e-02		-46.591		1.389e-02		10.473
1		0.00		-6.40		5.982e-02		-47.568		1.040e-02		10.056
1		0.00		-6.00		5.909e-02		-48.115		1.206e-02		11.586
1		0.00		-5.60		5.727e-02		-48.698		1.274e-02		10.730
1		0.00		-5.20		5.549e-02		-49.540		1.229e-02		7.952
1		0.00		-4.80		5.295e-02		-50.998		9.210e-03		5.023
1		0.00		-4.40		4.845e-02		-51.585		7.400e-03		6.009
1		0.00		-4.00		4.438e-02		-50.028		7.362e-03		6.145
1		0.00		-3.60		3.950e-02		-50.907		8.500e-03		8.497
1		0.00		-3.20		3.547e-02		-51.863		7.436e-03		8.677
1		0.00		-2.80		3.189e-02		-49.433		4.449e-03		6.400
1		0.00		-2.40		2.787e-02		-48.436		4.010e-03		7.288
1		0.00		-2.00		2.309e-02		-47.721		4.449e-03		7.613
1		0.00		-1.60		1.828e-02		-45.850		3.959e-03		10.884
1		0.00		-1.20		1.343e-02		-42.774		2.450e-03		9.485
1		0.00		-0.80		9.459e-03		-40.034		1.479e-03		12.762
1		0.00		-0.40		4.802e-03		-37.645		1.167e-03		17.288
2		0.00		0.00		1.710e-03		11.470		7.191e-04		63.306
2		0.00		0.40		4.966e-03		111.206		1.452e-03		20.685
2		0.00		0.80		9.779e-03		126.971		1.838e-03		11.420
2		0.00		1.20		1.430e-02		125.466		2.332e-03		9.992
2		0.00		1.60		1.840e-02		131.526		2.826e-03		6.978
2		0.00		2.00		2.260e-02		129.858		4.512e-03		10.458
2		0.00		2.40		2.654e-02		129.266		5.635e-03		9.422
2		0.00		2.80		3.083e-02		127.831		5.459e-03		7.037
2		0.00		3.20		3.491e-02		132.001		5.293e-03		6.140
2		0.00		3.60		3.785e-02		131.062		6.727e-03		7.680
2		0.00		4.00		3.993e-02		130.172		8.664e-03		9.019
2		0.00		4.40		4.264e-02		130.231		9.694e-03		8.501
2		0.00		4.80		4.655e-02		129.869		9.077e-03		6.222
2		0.00		5.20		4.795e-02		132.681		8.815e-03		6.926
2		0.00		5.60		5.078e-02		131.166		1.137e-02		10.483
2		0.00		6.00		5.135e-02		131.395		1.305e-02		14.380
2		0.00		6.40		5.506e-02		131.773		1.392e-02		8.170
2		0.00		6.80		5.659e-02		134.376		1.094e-02		6.824
2		0.00		7.20		5.703e-02		131.376		1.409e-02		13.846
2		0.00		7.60		5.791e-02		131.802		1.481e-02		14.371
2		0.00		8.00		6.007e-02		130.969		1.672e-02		16.586
2		0.00		8.40		6.370e-02		129.993		1.626e-02		27.028
2		0.00		8.80		6.100e-02		128.821		1.366e-02		54.025
2		0.00		9.20		6.410e-02		133.232		1.553e-02		17.952
2		0.00		9.60		6.358e-02		130.410		1.638e-02		20.624
2		0.00		10.00		6.497e-02		133.411		1.656e-02		22.217
2		0.00		9.60		6.421e-02		136.339		1.290e-02		12.358
2		0.00		9.20		6.052e-02		131.668		1.445e-02		19.290
2		0.00		8.80		6.471e-02		134.385		1.452e-02		12.231
2		0.00		8.40		6.119e-02		133.807		1.464e-02		12.201
2		0.00		8.00		6.030e-02		133.439		1.450e-02		8.119
2		0.00		7.60		5.785e-02		132.897		1.087e-02		8.083
2		0.00		7.20		5.439e-02		133.841		1.050e-02		9.317
2		0.00		6.80		5.290e-02		131.948		1.103e-02		10.466
2		0.00		6.40		4.880e-02		132.133		1.118e-02		12.828
2		0.00		6.00		4.585e-02		131.495		9.122e-03		7.095
2		0.00		5.60		4.230e-02		131.809		6.527e-03		5.427
2		0.00		5.20		3.863e-02		132.496		6.879e-03		8.342
2		0.00		4.80		3.413e-02		131.160		7.454e-03		8.448
2		0.00		4.40		3.013e-02		130.413		6.757e-03		9.139
2		0.00		4.00		2.672e-02		132.969		4.459e-03		6.603
2		0.00		3.60		2.304e-02		133.132		3.451e-03		7.861
2		0.00		3.20		1.802e-02		132.484		3.515e-03		10.045
2		0.00		2.80		1.298e-02		130.565		2.765e-03		12.550
2		0.00		2.40		8.546e-03		128.963		1.733e-03		13.428
2		0.00		2.00		4.280e-03		121.065		1.166e-03		30.792
2		0.00		1.60		1.872e-03		-11.901		7.993e-04		58.196
2		0.00		1.20		5.305e-03		-54.796		1.389e-03		20.975
2		0.00		0.80		1.006e-02		-48.914		2.342e-03		14.828
2		0.00		0.40		1.507e-02		-50.613		2.707e-03		9.256
2		0.00		0.00		2.043e-02		-47.149		2.925e-03		8.533
2		0.00		-0.40		2.476e-02		-47.917		4.181e-03		6.779
2		0.00		-0.80		2.853e-02		-49.733		5.158e-03		7.558
2		0.00		-1.20		3.320e-02		-50.626		6.702e-03		9.498
2		0.00		-1.60		3.818e-02		-51.618		6.187e-03		7.190
2		0.00		-2.00		4.283e-02		-50.878		5.750e-03		6.219
2		0.00		-2.40		4.622e-02		-49.397		6.818e-03		4.612
2		0.00		-2.80		4.858e-02		-52.166		1.037e-02		7.573
2		0.00		-3.20		5.153e-02		-52.599		1.229e-02		7.358
2		0.00		-3.60		5.494e-02		-52.221		9.922e-03		6.437
2		0.00		-4.00		5.747e-02		-51.153		1.105e-02		6.968
2		0.00		-4.40		5.853e-02		-51.870		1.385e-02		10.346
2		0.00		-4.80		6.187e-02		-48.981		1.493e-02		9.460
2		0.00		-5.20		6.390e-02		-49.361		1.514e-02		12.388
2		0.00		-5.60		6.184e-02		-46.529		1.268e-02		12.419
2		0.00		-6.00		6.341e-02		-42.506		1.401e-02		12.630
2		0.00		-6.40		6.519e-02		-45.707		1.775e-02		16.634
2		0.00		-6.80		6.446e-02		-35.995		1.644e-02		21.789
2		0.00		-7.20		6.757e-02		-40.419		1.478e-02		17.866
2		0.00		-7.60		7.121e-02		-43.520		1.725e-02		21.710
2		0.00		-8.00		6.708e-02		-40.379		1.647e-02		22.945
2		0.00		-8.40		6.605e-02		-39.929		1.867e-02		26.563
2		0.00		-8.80		6.514e-02		-36.248		1.652e-02		23.390
2		0.00		-9.20		6.621e-02		-36.070		1.652e-02		16.911
2		0.00		-9.60		6.224e-02		-39.662		1.567e-02		16.119
2		0.00		-10.00		5.702e-02		-42.862		1.387e-02		13.315
2		0.00		-9.60		6.007e-02		-41.317		1.547e-02		16.657
2		0.00		-9.20		6.137e-02		-36.525		1.549e-02		19.283
2		0.00		-8.80		6.595e-02		-36.331		1.576e-02		12.710
2		0.00		-8.40		6.616e-02		-40.551		1.300e-02		15.864
2		0.00		-8.00		6.584e-02		-43.175		1.398e-02		16.776
2		0.00		-7.60		6.557e-02		-44.467		1.703e-02		16.365
2		0.00		-7.20		6.373e-02		-44.992		1.790e-02		12.985
2		0.00		-6.80		6.327e-02		-45.766		1.511e-02		10.632
2		0.00		-6.40		6.082e-02		-47.729		1.102e-02		7.954
2		0.00		-6.00		5.853e-02		-47.874		9.282e-03		7.870
2		0.00		-5.60		5.685e-02		-47.841		1.015e-02		6.707
2		0.00		-5.20		5.315e-02		-49.343		1.206e-02		8.591
2		0.00		-4.80		5.025e-02		-49.657		1.178e-02		8.241
2		0.00		-4.40		4.718e-02		-52.465		7.320e-03		6.426
2		0.00		-4.00		4.373e-02		-49.883		5.888e-03		5.815
2		0.00		-3.60		3.934e-02		-50.612		6.211e-03		6.013
2		0.00		-3.20		3.451e-02		-49.127		6.562e-03		7.930
2		0.00		-2.80		2.973e-02		-49.200		5.831e-03		9.007
2		0.00		-2.40		2.594e-02		-49.542		3.868e-03		6.692
2		0.00		-2.00		2.193e-02		-50.063		2.621e-03		8.163
2		0.00		-1.60		1.695e-02		-42.537		2.485e-03		8.820
2		0.00		-1.20		1.214e-02		-44.506		2.292e-03		10.043
2		0.00		-0.80		7.528e-03		-45.190		1.806e-03		15.187
2		0.00		-0.40		2.851e-03		-45.651		1.200e-03		28.508
3		0.00		0.00		2.488e-03		92.859		9.429e-04		42.388
3		0.00		0.40		6.993e-03		118.417		1.475e-03		17.718
3		0.00		0.80		1.107e-02		127.666		2.185e-03		11.742
3		0.00		1.20		1.528e-02		126.527		3.781e-03		12.942
3		0.00		1.60		1.964e-02		127.565		4.522e-03		7.763
3		0.00		2.00		2.396e-02		128.908		4.368e-03		7.707
3		0.00		2.40		2.845e-02		129.623		4.695e-03		6.968
3		0.00		2.80		3.141e-02		130.654		5.977e-03		6.476
3		0.00		3.20		3.458e-02		129.305		7.850e-03		9.832
3		0.00		3.60		3.705e-02		129.916		8.943e-03		9.586
3		0.00		4.00		4.042e-02		129.790		8.089e-03		7.044
3		0.00		4.40		4.414e-02		131.833		6.532e-03		5.870
3		0.00		4.80		4.695e-02		132.626		7.631e-03		6.291
3		0.00		5.20		4.952e-02		131.588		1.005e-02		8.701
3		0.00		5.60		5.143e-02		130.941		1.174e-02		11.207
3		0.00		6.00		5.402e-02		132.012		1.225e-02		7.236
3		0.00		6.40		5.570e-02		132.949		1.002e-02		6.137
3		0.00		6.80		5.719e-02		135.316		9.980e-03		8.479
3		0.00		7.20		5.968e-02		132.098		1.317e-02		15.132
3		0.00		7.60		6.145e-02		132.530		1.454e-02		15.050
3		0.00		8.00		6.394e-02		135.285		1.602e-02		8.932
3		0.00		8.40		6.347e-02		137.412		1.238e-02		9.633
3		0.00		8.80		6.194e-02		136.353		1.274e-02		20.209
3		0.00		9.20		6.427e-02		131.205		1.734e-02		31.336
3		0.00		9.60		6.640e-02		134.322		1.785e-02		15.947
3		0.00		10.00		6.452e-02		134.464		1.850e-02		26.635
3		0.00		9.60		6.564e-02		132.596		1.608e-02		26.712
3		0.00		9.20		6.265e-02		135.865		1.336e-02		13.980
3		0.00		8.80		6.095e-02		132.615		1.474e-02		17.816
3		0.00		8.40		6.056e-02		132.244		1.505e-02		12.007
3		0.00		8.00		5.858e-02		132.789		1.556e-02		11.887
3		0.00		7.60		5.703e-02		133.280		1.296e-02		7.195
3		0.00		7.20		5.474e-02		132.564		1.032e-02		7.215
3		0.00		6.80		5.145e-02		134.253		9.157e-03		6.865
3		0.00		6.40		4.942e-02		132.898		1.019e-02		9.412
3		0.00		6.00		4.624e-02		131.937		1.054e-02		12.131
3		0.00		5.60		4.283e-02		132.097		8.644e-03		7.252
3		0.00		5.20		3.999e-02		131.908		5.942e-03		5.033
3		0.00		4.80		3.576e-02		133.462		5.232e-03		6.693
3		0.00		4.40		3.188e-02		133.413		5.604e-03		8.070
3		0.00		4.00		2.725e-02		132.362		5.504e-03		9.390
3		0.00		3.60		2.320e-02		131.584		4.570e-03		8.857
3		0.00		3.20		1.920e-02		131.736		2.790e-03		6.856
3		0.00		2.80		1.476e-02		129.617		2.510e-03		8.521
3		0.00		2.40		1.002e-02		129.943		1.893e-03		12.698
3		0.00		2.00		5.132e-03		125.125		1.446e-03		36.231
3		0.00		1.60		1.623e-03		-0.355		6.413e-04		72.154
3		0.00		1.20		5.018e-03		-40.787		1.235e-03		22.261
3		0.00		0.80		9.551e-03		-46.726		1.946e-03		14.319
3		0.00		0.40		1.356e-02		-51.033		3.098e-03		13.262
3		0.00		0.00		1.813e-02		-50.091		4.194e-03		11.413
3		0.00		-0.40		2.313e-02		-49.281		4.721e-03		7.450
3		0.00		-0.80		2.799e-02		-49.579		4.588e-03		8.169
3		0.00		-1.20		3.206e-02		-50.394		5.846e-03		7.887
3		0.00		-1.60		3.671e-02		-50.472		7.693e-03		9.120
3		0.00		-2.00		3.920e-02		-52.007		8.142e-03		8.254
3		0.00		-2.40		4.414e-02		-50.645		6.821e-03		6.028
3		0.00		-2.80		4.812e-02		-51.030		7.242e-03		6.569
3		0.00		-3.20		5.205e-02		-50.104		8.775e-03		6.708
3		0.00		-3.60		5.505e-02		-51.173		1.171e-02		6.695
3		0.00		-4.00		5.850e-02		-51.725		1.105e-02		7.277
3		0.00		-4.40		6.005e-02		-50.708		9.621e-03		6.572
3		0.00		-4.80		6.071e-02		-48.849		1.152e-02		10.875
3		0.00		-5.20		6.305e-02		-47.800		1.377e-02		11.075
3		0.00		-5.60		6.383e-02		-45.523		1.421e-02		11.800
3		0.00		-6.00		6.444e-02		-42.608		9.644e-03		12.119
3		0.00		-6.40		6.611e-02		-45.694		1.290e-02		15.601
3		0.00		-6.80		6.721e-02		-46.085		1.724e-02		20.854
3		0.00		-7.20		6.390e-02		-37.025		1.733e-02		20.433
3		0.00		-7.60		6.781e-02		-38.478		1.754e-02		21.586
3		0.00		-8.00		6.543e-02		-32.428		1.220e-02		18.219
3		0.00		-8.40		6.704e-02		-37.342		1.971e-02		20.255
3		0.00		-8.80		6.513e-02		-37.395		2.050e-02		26.026
3		0.00		-9.20		6.288e-02		-38.251		1.686e-02		22.455
3		0.00		-9.60		6.105e-02		-40.018		1.528e-02		15.022
3		0.00		-10.00		5.648e-02		-43.538		1.371e-02		11.879
3		0.00		-9.60		5.931e-02		-39.600		1.703e-02		19.147
3		0.00		-9.20		6.648e-02		-37.931		1.702e-02		13.806
3		0.00		-8.80		6.315e-02		-36.788		1.260e-02		17.003
3		0.00		-8.40		6.647e-02		-44.400		1.599e-02		16.540
3		0.00		-8.00		6.389e-02		-38.871		1.579e-02		16.497
3		0.00		-7.60		6.599e-02		-41.246		1.251e-02		12.257
3		0.00		-7.20		6.559e-02		-43.811		1.063e-02		8.852
3		0.00		-6.80		6.289e-02		-44.918		1.285e-02		10.328
3		0.00		-6.40		6.119e-02		-45.586		1.380e-02		7.142
3		0.00		-6.00		6.069e-02		-46.835		1.113e-02		6.090
3		0.00		-5.60		5.693e-02		-46.963		8.196e-03		5.015
3		0.00		-5.20		5.387e-02		-48.541		9.649e-03		6.997
3		0.00		-4.80		5.021e-02		-50.031		1.042e-02		8.800
3		0.00		-4.40		4.607e-02		-50.279		8.159e-03		6.664
3		0.00		-4.00		4.239e-02		-51.103		6.417e-03		5.731
3		0.00		-3.60		3.661e-02		-50.880		7.709e-03		8.828
3		0.00		-3.20		3.220e-02		-50.963		7.253e-03		8.390
3		0.00		-2.80		2.885e-02		-48.597		4.412e-03		7.346
3		0.00		-2.40		2.464e-02		-48.561		4.298e-03		7.359
3		0.00		-2.00		1.974e-02		-47.609		4.392e-03		10.522
3		0.00		-1.60		1.575e-02		-46.894		2.987e-03		9.913
3		0.00		-1.20		1.166e-02		-43.137		1.844e-03		10.713
3		0.00		-0.80		6.675e-03		-43.339		1.596e-03		17.902
3		0.00		-0.40		2.784e-03		-25.755		1.107e-03		41.834
4		0.00		0.00		2.855e-03		84.534		1.033e-03		45.020
4		0.00		0.40		7.007e-03		120.255		1.332e-03		13.786
4		0.00		0.80		1.130e-02		126.779		2.244e-03		13.807
4		0.00		1.20		1.570e-02		128.389		3.221e-03		10.759
4		0.00		1.60		2.002e-02		129.259		2.853e-03		7.972
4		0.00		2.00		2.409e-02		132.625		3.413e-03		6.568
4		0.00		2.40		2.819e-02		129.913		5.334e-03		8.217
4		0.00		2.80		3.151e-02		130.909		6.225e-03		7.258
4		0.00		3.20		3.550e-02		130.726		5.102e-03		5.564
4		0.00		3.60		3.872e-02		132.602		6.628e-03		5.977
4		0.00		4.00		4.053e-02		130.753		8.734e-03		10.416
4		0.00		4.40		4.402e-02		130.895		8.720e-03		7.495
4		0.00		4.80		4.776e-02		132.918		7.432e-03		4.629
4		0.00		5.20		4.990e-02		132.023		9.196e-03		6.250
4		0.00		5.60		5.090e-02		131.490		1.238e-02		8.316
4		0.00		6.00		5.284e-02		131.524		1.160e-02		7.659
4		0.00		6.40		5.480e-02		134.268		8.641e-03		5.550
4		0.00		6.80		5.581e-02		132.026		1.257e-02		11.175
4		0.00		7.20		5.812e-02		130.967		1.564e-02		15.434
4		0.00		7.60		6.030e-02		133.992		1.306e-02		9.400
4		0.00		8.00		5.890e-02		133.272		1.203e-02		15.525
4		0.00		8.40		6.202e-02		131.491		1.668e-02		17.785
4		0.00		8.80		6.536e-02		133.603		1.796e-02		16.438
4		0.00		9.20		6.526e-02		135.385		1.515e-02		16.419
4		0.00		9.60		6.346e-02		128.001		1.695e-02		21.414
4		0.00		10.00		6.454e-02		133.497		1.827e-02		16.292
4		0.00		9.60		6.580e-02		136.204		1.563e-02		13.151
4		0.00		9.20		6.302e-02		133.538		1.282e-02		16.483
4		0.00		8.80		6.010e-02		131.873		1.413e-02		22.539
4		0.00		8.40		6.248e-02		134.145		1.431e-02		13.085
4		0.00		8.00		6.087e-02		134.247		1.365e-02		8.316
4		0.00		7.60		5.843e-02		133.700		1.114e-02		7.687
4		0.00		7.20		5.465e-02		132.312		1.251e-02		12.171
4		0.00		6.80		5.212e-02		131.850		1.243e-02		13.998
4		0.00		6.40		4.988e-02		132.888		8.869e-03		6.892
4		0.00		6.00		4.689e-02		135.068		8.095e-03		5.755
4		0.00		5.60		4.219e-02		132.436		9.983e-03		10.091
4		0.00		5.20		3.864e-02		132.729		8.994e-03		7.042
4		0.00		4.80		3.530e-02		132.162		6.407e-03		5.731
4		0.00		4.40		3.199e-02		131.998		6.908e-03		8.345
4		0.00		4.00		2.750e-02		130.462		6.463e-03		10.971
4		0.00		3.60		2.419e-02		132.162		4.333e-03		8.284
4		0.00		3.20		1.989e-02		131.886		3.443e-03		8.599
4		0.00		2.80		1.532e-02		130.510		3.375e-03		14.790
4		0.00		2.40		1.100e-02		130.947		2.495e-03		11.209
4		0.00		2.00		6.698e-03		130.206		1.462e-03		15.430
4		0.00		1.60		2.527e-03		87.785		9.552e-04		59.082
4		0.00		1.20		3.083e-03		-47.247		1.088e-03		36.576
4		0.00		0.80		7.716e-03		-41.346		1.561e-03		13.489
4		0.00		0.40		1.208e-02		-51.399		2.169e-03		11.383
4		0.00		0.00		1.680e-02		-46.274		3.171e-03		9.215
4		0.00		-0.40		2.135e-02		-49.272		4.053e-03		8.533
4		0.00		-0.80		2.646e-02		-49.170		3.598e-03		6.656
4		0.00		-1.20		3.030e-02		-49.333		4.932e-03		7.403
4		0.00		-1.60		3.421e-02		-50.960		6.812e-03		7.883
4		0.00		-2.00		3.912e-02		-51.571		6.419e-03		6.639
4		0.00		-2.40		4.300e-02		-50.778		6.189e-03		5.031
4		0.00		-2.80		4.596e-02		-50.785		8.681e-03		5.751
4		0.00		-3.20		4.928e-02		-52.492		1.046e-02		7.351
4		0.00		-3.60		5.274e-02		-52.080		8.012e-03		5.678
4		0.00		-4.00		5.448e-02		-51.585		1.085e-02		7.695
4		0.00		-4.40		5.692e-02		-52.605		1.417e-02		11.565
4		0.00		-4.80		6.183e-02		-50.032		1.262e-02		7.613
4		0.00		-5.20		6.148e-02		-47.130		1.182e-02		10.292
4		0.00		-5.60		6.361e-02		-49.152		1.688e-02		15.391
4		0.00		-6.00		6.511e-02		-45.179		1.605e-02		10.969
4		0.00		-6.40		6.302e-02		-43.710		1.252e-02		12.896
4		0.00		-6.80		6.748e-02		-41.530		1.504e-02		12.944
4		0.00		-7.20		6.567e-02		-42.147		1.633e-02		19.696
4		0.00		-7.60		6.651e-02		-37.693		1.558e-02		20.047
4		0.00		-8.00		6.837e-02		-37.470		1.463e-02		16.417
4		0.00		-8.40		6.843e-02		-40.527		1.743e-02		19.859
4		0.00		-8.80		6.580e-02		-34.900		1.678e-02		17.739
4		0.00		-9.20		6.344e-02		-41.853		1.544e-02		18.037
4		0.00		-9.60		5.991e-02		-41.459		1.624e-02		15.289
4		0.00		-10.00		5.590e-02		-43.201		1.505e-02		16.308
4		0.00		-9.60		6.341e-02		-42.341		1.625e-02		11.372
4		0.00		-9.20		6.041e-02		-38.625		1.286e-02		15.143
4		0.00		-8.80		6.397e-02		-41.151		1.568e-02		15.702
4		0.00		-8.40		6.696e-02		-40.503		1.657e-02		13.176
4		0.00		-8.00		6.591e-02		-43.362		1.372e-02		11.058
4		0.00		-7.60		6.297e-02		-45.319		1.418e-02		15.799
4		0.00		-7.20		6.304e-02		-43.949		1.555e-02		11.135
4		0.00		-6.80		6.266e-02		-44.960		1.501e-02		8.975
4		0.00		-6.40		5.901e-02		-46.726		1.010e-02		8.846
4		0.00		-6.00		5.618e-02		-48.253		1.203e-02		9.935
4		0.00		-5.60		5.373e-02		-49.341		1.345e-02		10.319
4		0.00		-5.20		5.117e-02		-49.550		1.091e-02		6.582
4		0.00		-4.80		4.782e-02		-50.277		8.299e-03		5.505
4		0.00		-4.40		4.312e-02		-50.190		9.424e-03		7.593
4		0.00		-4.00		3.903e-02		-51.506		9.549e-03		9.372
4		0.00		-3.60		3.592e-02		-50.261		5.975e-03		6.715
4		0.00		-3.20		3.117e-02		-48.082		5.758e-03		7.402
4		0.00		-2.80		2.676e-02		-49.537		5.939e-03		8.198
4		0.00		-2.40		2.342e-02		-50.533		3.872e-03		7.666
4		0.00		-2.00		1.916e-02		-47.554		2.543e-03		6.849
4		0.00		-1.60		1.462e-02		-46.160		2.900e-03		9.620
4		0.00		-1.20		1.045e-02		-39.917		2.218e-03		11.438
4		0.00		-0.80		6.147e-03		-33.962		1.223e-03		19.735
4		0.00		-0.40		2.229e-03		-19.831		8.844e-04		38.889
5		0.00		0.00		3.241e-03		100.221		1.199e-03		31.724
5		0.00		0.40		7.184e-03		119.459		1.645e-03		12.696
5		0.00		0.80		1.134e-02		127.801		2.042e-03		10.933
5		0.00		1.20		1.524e-02		127.994		3.305e-03		12.910
5		0.00		1.60		1.989e-02		129.436		3.656e-03		7.914
5		0.00		2.00		2.411e-02		130.729		3.698e-03		6.518
5		0.00		2.40		2.748e-02		131.498		5.359e-03		9.874
5		0.00		2.80		3.109e-02		130.089		6.551e-03		8.204
5		0.00		3.20		3.533e-02		132.534		5.488e-03		6.346
5		0.00		3.60		3.738e-02		131.430		7.127e-03		9.101
5		0.00		4.00		3.973e-02		131.203		9.431e-03		9.775
5		0.00		4.40		4.320e-02		130.198		8.340e-03		6.281
5		0.00		4.80		4.643e-02		132.463		8.749e-03		6.598
5		0.00		5.20		4.727e-02		131.143		1.149e-02		10.032
5		0.00		5.60		5.010e-02		132.417		1.119e-02		6.666
5		0.00		6.00		5.156e-02		133.122		8.950e-03		7.125
5		0.00		6.40		5.344e-02		132.404		1.262e-02		10.603
5		0.00		6.80		5.709e-02		132.562		1.358e-02		8.925
5		0.00		7.20		5.824e-02		133.597		1.030e-02		6.191
5		0.00		7.60		5.869e-02		132.459		1.464e-02		16.132
5		0.00		8.00		6.349e-02		134.423		1.479e-02		11.113
5		0.00		8.40		6.324e-02		136.256		1.251e-02		10.923
5		0.00		8.80		6.314e-02		129.933		1.575e-02		22.202
5		0.00		9.20		6.779e-02		132.929		1.731e-02		12.222
5		0.00		9.60		6.624e-02		134.692		1.641e-02		12.892
5		0.00		10.00		6.296e-02		132.949		1.570e-02		25.922
5		0.00		9.60		6.199e-02		132.930		1.624e-02		16.652
5		0.00		9.20		6.532e-02		136.376		1.659e-02		12.830
5		0.00		8.80		6.333e-02		136.631		1.282e-02		11.575
5		0.00		8.40		6.034e-02		131.005		1.456e-02		13.779
5		0.00		8.00		5.952e-02		133.361		1.563e-02		14.634
5		0.00		7.60		5.749e-02		134.149		1.246e-02		6.886
5		0.00		7.20		5.354e-02		132.397		1.302e-02		11.203
5		0.00		6.80		5.045e-02		131.641		1.276e-02		12.509
5		0.00		6.40		4.825e-02		131.701		1.024e-02		7.970
5		0.00		6.00		4.480e-02		132.668		9.063e-03		7.523
5		0.00		5.60		4.105e-02		130.445		1.008e-02		12.487
5		0.00		5.20		3.804e-02		132.686		9.101e-03		8.071
5		0.00		4.80		3.501e-02		133.350		6.923e-03		6.759
5		0.00		4.40		3.087e-02		130.996		7.151e-03		13.181
5		0.00		4.00		2.690e-02		130.073		6.309e-03		10.761
5		0.00		3.60		2.394e-02		132.191		4.038e-03		8.210
5		0.00		3.20		1.988e-02		132.007		3.316e-03		9.444
5		0.00		2.80		1.550e-02		130.798		3.337e-03		10.183
5		0.00		2.40		1.182e-02		130.125		2.099e-03		9.873
5		0.00		2.00		6.582e-03		122.911		1.457e-03		16.084
5		0.00		1.60		2.778e-03		93.223		1.043e-03		48.326
5		0.00		1.20		2.736e-03		-37.740		1.054e-03		37.911
5		0.00		0.80		7.012e-03		-52.253		1.510e-03		17.010
5		0.00		0.40		1.118e-02		-50.396		2.238e-03		11.410
5		0.00		0.00		1.568e-02		-48.205		3.164e-03		11.080
5		0.00		-0.40		2.056e-02		-48.908		2.942e-03		7.537
5		0.00		-0.80		2.472e-02		-50.788		4.695e-03		9.383
5		0.00		-1.20		2.878e-02		-49.883		5.978e-03		9.017
5		0.00		-1.60		3.432e-02		-50.871		4.609e-03		5.732
5		0.00		-2.00		3.794e-02		-49.575		6.342e-03		6.435
5		0.00		-2.40		4.067e-02		-52.043		9.068e-03		8.446
5		0.00		-2.80		4.536e-02		-51.588		8.200e-03		6.739
5		0.00		-3.20		4.922e-02		-50.411		7.871e-03		5.487
5		0.00		-3.60		5.145e-02		-52.058		1.134e-02		9.874
5		0.00		-4.00		5.485e-02		-51.771		1.214e-02		7.538
5		0.00		-4.40		5.709e-02		-50.785		9.077e-03		6.547
5		0.00		-4.80		5.970e-02		-49.773		1.362e-02		9.298
5		0.00		-5.20		6.209e-02		-48.490		1.480e-02		7.233
5		0.00		-5.60		6.205e-02		-48.812		1.181e-02		11.675
5		0.00		-6.00		6.495e-02		-47.612		1.467e-02		14.347
5		0.00		-6.40		6.595e-02		-42.446		1.553e-02		11.650
5		0.00		-6.80		6.799e-02		-42.058		1.350e-02		14.247
5		0.00		-7.20		6.784e-02		-48.156		1.688e-02		17.495
5		0.00		-7.60		6.678e-02		-38.315		1.543e-02		16.584
5		0.00		-8.00		7.292e-02		-41.230		1.713e-02		18.055
5		0.00		-8.40		6.769e-02		-47.733		1.777e-02		23.641
5		0.00		-8.80		6.750e-02		-39.848		1.989e-02		20.711
5		0.00		-9.20		6.663e-02		-39.116		1.610e-02		12.500
5		0.00		-9.60		6.231e-02		-44.349		1.611e-02		14.085
5		0.00		-10.00		5.534e-02		-42.667		1.515e-02		14.597
5		0.00		-9.60		6.155e-02		-41.093		1.579e-02		9.781
5		0.00		-9.20		6.479e-02		-42.224		1.701e-02		13.966
5		0.00		-8.80		6.351e-02		-41.159		1.668e-02		16.571
5		0.00		-8.40		6.640e-02		-42.777		1.780e-02		13.852
5		0.00		-8.00		6.399e-02		-40.371		1.303e-02		13.480
5		0.00		-7.60		6.237e-02		-47.430		1.650e-02		13.701
5		0.00		-7.20		6.260e-02		-46.403		1.565e-02		14.004
5		0.00		-6.80		6.222e-02		-46.155		1.331e-02		8.350
5		0.00		-6.40		5.808e-02		-46.142		1.128e-02		8.008
5		0.00		-6.00		5.524e-02		-49.653		1.358e-02		15.063
5		0.00		-5.60		5.391e-02		-48.182		1.277e-02		7.404
5		0.00		-5.20		5.027e-02		-48.580		8.920e-03		6.932
5		0.00		-4.80		4.623e-02		-49.883		9.766e-03		7.534
5		0.00		-4.40		4.244e-02		-50.672		9.093e-03		8.822
5		0.00		-4.00		3.930e-02		-51.062		6.221e-03		6.684
5		0.00		-3.60		3.526e-02		-50.477		5.595e-03		6.569
5		0.00		-3.20		3.106e-02		-49.167		6.214e-03		6.563
5		0.00		-2.80		2.709e-02		-48.517		5.039e-03		7.010
5		0.00		-2.40		2.385e-02		-46.436		3.293e-03		6.998
5		0.00		-2.00		1.822e-02		-46.145		3.516e-03		8.992
5		0.00		-1.60		1.409e-02		-44.001		2.891e-03		11.428
5		0.00		-1.20		1.021e-02		-41.293		1.858e-03		11.812
5		0.00		-0.80		5.737e-03		-31.302		1.466e-03		20.480
5		0.00		-0.40		2.038e-03		-15.702		7.552e-04		48.231
6		0.00		0.00		3.731e-03		99.884		1.331e-03		32.160
6		0.00		0.40		7.676e-03		121.200		1.722e-03		12.688
6		0.00		0.80		1.170e-02		127.719		2.339e-03		9.049
6		0.00		1.20		1.522e-02		125.306		3.398e-03		14.189
6		0.00		1.60		1.932e-02		129.982		3.877e-03		8.151
6		0.00		2.00		2.380e-02		129.430		3.443e-03		6.534
6		0.00		2.40		2.713e-02		130.027		5.302e-03		9.347
6		0.00		2.80		2.983e-02		129.568		7.179e-03		10.665
6		0.00		3.20		3.411e-02		129.446		6.798e-03		7.897
6		0.00		3.60		3.734e-02		131.327		6.400e-03		6.790
6		0.00		4.00		4.001e-02		132.279		8.461e-03		8.189
6		0.00		4.40		4.249e-02		130.558		1.041e-02		9.791
6		0.00		4.80		4.650e-02		131.616		8.156e-03		6.049
6		0.00		5.20		4.878e-02		133.808		8.319e-03		5.419
6		0.00		5.60		5.028e-02		131.894		1.136e-02		9.866
6		0.00		6.00		5.275e-02		131.554		1.209e-02		7.204
6		0.00		6.40		5.488e-02		133.636		9.627e-03		4.924
6		0.00		6.80		5.652e-02		132.098		1.192e-02		11.034
6		0.00		7.20		5.805e-02		131.166		1.436e-02		16.158
6		0.00		7.60		6.159e-02		134.549		1.368e-02		8.624
6		0.00		8.00		6.007e-02		136.947		1.097e-02		12.873
6		0.00		8.40		6.193e-02		129.248		1.632e-02		33.119
6		0.00		8.80		6.623e-02		134.495		1.659e-02		14.229
6		0.00		9.20		6.716e-02		131.739		1.615e-02		28.530
6		0.00		9.60		6.429e-02		131.284		1.685e-02		17.225
6		0.00		10.00		6.226e-02		129.879		1.879e-02		16.523
6		0.00		9.60		6.304e-02		133.694		1.835e-02		16.404
6		0.00		9.20		6.196e-02		134.474		1.479e-02		14.495
6		0.00		8.80		5.936e-02		133.195		1.560e-02		16.916
6		0.00		8.40		6.041e-02		129.285		1.664e-02		25.139
6		0.00		8.00		5.857e-02		132.499		1.607e-02		10.495
6		0.00		7.60		5.666e-02		133.818		1.272e-02		8.680
6		0.00		7.20		5.225e-02		133.885		1.140e-02		8.619
6		0.00		6.80		4.968e-02		131.522		1.282e-02		12.297
6		0.00		6.40		4.792e-02		131.549		1.230e-02		11.269
6		0.00		6.00		4.504e-02		133.909		7.659e-03		6.358
6		0.00		5.60		4.165e-02		133.220		7.929e-03		8.931
6		0.00		5.20		3.836e-02		132.082		8.549e-03		10.421
6		0.00		4.80		3.523e-02		131.230		7.684e-03		7.900
6		0.00		4.40		3.169e-02		132.921		5.278e-03		7.167
6		0.00		4.00		2.828e-02		133.295		5.231e-03		8.337
6		0.00		3.60		2.375e-02		131.905		5.313e-03		11.053
6		0.00		3.20		2.048e-02		132.793		3.707e-03		8.488
6		0.00		2.80		1.614e-02		131.467		2.263e-03		8.191
6		0.00		2.40		1.187e-02		132.466		2.313e-03		11.618
6		0.00		2.00		7.196e-03		125.094		1.637e-03		17.365
6		0.00		1.60		3.007e-03		116.589		1.021e-03		36.605
6		0.00		1.20		2.575e-03		-52.170		1.216e-03		48.888
6		0.00		0.80		6.534e-03		-43.438		1.592e-03		20.873
6		0.00		0.40		1.067e-02		-48.368		2.352e-03		11.811
6		0.00		0.00		1.542e-02		-51.761		2.598e-03		10.423
6		0.00		-0.40		2.012e-02		-48.118		2.944e-03		7.098
6		0.00		-0.80		2.403e-02		-51.467		4.447e-03		8.010
6		0.00		-1.20		2.748e-02		-49.663		6.161e-03		9.829
6		0.00		-1.60		3.245e-02		-49.021		5.050e-03		5.740
6		0.00		-2.00		3.644e-02		-49.931		5.620e-03		6.558
6		0.00		-2.40		3.947e-02		-49.943		8.331e-03		9.627
6		0.00		-2.80		4.248e-02		-51.834		9.929e-03		9.080
6		0.00		-3.20		4.779e-02		-52.130		7.944e-03		7.040
6		0.00		-3.60		5.077e-02		-50.920		7.479e-03		6.320
6		0.00		-4.00		5.388e-02		-51.542		1.131e-02		7.499
6		0.00		-4.40		5.752e-02		-52.238		1.365e-02		9.899
6		0.00		-4.80		6.114e-02		-50.551		1.153e-02		7.070
6		0.00		-5.20		6.179e-02		-47.015		1.051e-02		6.351
6		0.00		-5.60		6.182e-02		-47.917		1.442e-02		13.871
6		0.00		-6.00		6.627e-02		-45.907		1.532e-02		8.786
6		0.00		-6.40		6.638e-02		-45.748		1.199e-02		10.552
6		0.00		-6.80		6.419e-02		-46.221		1.565e-02		18.844
6		0.00		-7.20		6.822e-02		-44.828		1.778e-02		14.915
6		0.00		-7.60		6.834e-02		-37.902		1.661e-02		17.429
6		0.00		-8.00		6.834e-02		-40.587		1.583e-02		16.876
6		0.00		-8.40		6.728e-02		-45.829		1.910e-02		23.367
6		0.00		-8.80		6.260e-02		-43.381		2.021e-02		25.620
6		0.00		-9.20		6.240e-02		-34.319		1.821e-02		17.352
6		0.00		-9.60		6.111e-02		-41.873		1.550e-02		10.222
6		0.00		-10.00		5.301e-02		-44.915		1.511e-02		15.117
6		0.00		-9.60		5.875e-02		-44.200		1.896e-02		14.507
6		0.00		-9.20		6.349e-02		-38.351		1.767e-02		16.485
6		0.00		-8.80		6.204e-02		-38.518		1.446e-02		12.881
6		0.00		-8.40		6.379e-02		-44.823		1.642e-02		15.715
6		0.00		-8.00		6.513e-02		-41.818		1.663e-02		12.047
6		0.00		-7.60		6.837e-02		-43.594		1.400e-02		7.516
6		0.00		-7.20		6.274e-02		-44.846		1.047e-02		9.376
6		0.00		-6.80		6.112e-02		-47.455		1.304e-02		12.428
6		0.00		-6.40		6.027e-02		-46.768		1.345e-02		8.155
6		0.00		-6.00		5.860e-02		-47.479		1.265e-02		7.380
6		0.00		-5.60		5.529e-02		-47.404		8.894e-03		5.832
6		0.00		-5.20		5.108e-02		-48.189		9.924e-03		7.098
6		0.00		-4.80		4.754e-02		-50.478		1.022e-02		9.051
6		0.00		-4.40		4.439e-02		-50.515		7.631e-03		6.667
6		0.00		-4.00		4.037e-02		-50.356		5.803e-03		6.481
6		0.00		-3.60		3.606e-02		-50.589		6.592e-03		6.988
6		0.00		-3.20		3.140e-02		-50.743		6.478e-03		7.806
6		0.00		-2.80		2.838e-02		-47.960		4.194e-03		6.750
6		0.00		-2.40		2.413e-02		-47.577		3.771e-03		6.142
6		0.00		-2.00		1.930e-02		-48.282		3.995e-03		8.389
6		0.00		-1.60		1.476e-02		-44.819		3.019e-03		9.187
6		0.00		-1.20		1.083e-02		-41.914		1.554e-03		10.345
6		0.00		-0.80		6.289e-03		-42.803		1.358e-03		14.566
6		0.00		-0.40		2.398e-03		-33.971		9.583e-04		47.013
7		0.00		0.00		3.016e-03		92.989		1.110e-03		35.745
7		0.00		0.40		7.049e-03		119.820		1.671e-03		13.876
7		0.00		0.80		1.129e-02		126.549		2.226e-03		12.473
7		0.00		1.20		1.559e-02		127.548		3.560e-03		13.316
7		0.00		1.60		2.010e-02		128.084		3.565e-03		9.209
7		0.00		2.00		2.432e-02		129.913		3.300e-03		7.142
7		0.00		2.40		2.762e-02		128.638		4.997e-03		7.531
7		0.00		2.80		3.075e-02		129.341		6.860e-03		9.498
7		0.00		3.20		3.458e-02		129.987		5.866e-03		5.804
7		0.00		3.60		3.780e-02		130.832		6.482e-03		4.843
7		0.00		4.00		4.049e-02		130.204		8.511e-03		10.151
7		0.00		4.40		4.319e-02		130.769		9.427e-03		8.473
7		0.00		4.80		4.680e-02		131.511		7.869e-03		6.603
7		0.00		5.20		4.878e-02		132.484		8.966e-03		6.178
7		0.00		5.60		5.027e-02		131.673		1.159e-02		9.280
7		0.00		6.00		5.317e-02		132.177		1.194e-02		6.796
7		0.00		6.40		5.475e-02		134.118		9.993e-03		4.916
7		0.00		6.80		5.551e-02		131.497		1.355e-02		14.652
7		0.00		7.20		5.697e-02		130.884		1.574e-02		18.013
7		0.00		7.60		6.081e-02		133.268		1.421e-02		8.470
7		0.00		8.00		5.960e-02		134.564		1.295e-02		12.327
7		0.00		8.40		6.042e-02		132.194		1.666e-02		17.365
7		0.00		8.80		6.309e-02		134.976		1.635e-02		14.597
7		0.00		9.20		6.327e-02		136.961		1.446e-02		11.209
7		0.00		9.60		6.290e-02		131.831		1.831e-02		17.865
7		0.00		10.00		6.060e-02		132.800		1.834e-02		15.342
7		0.00		9.60		6.565e-02		132.735		1.883e-02		17.135
7		0.00		9.20		6.463e-02		131.676		1.452e-02		12.004
7		0.00		8.80		6.327e-02		130.755		1.575e-02		17.246
7		0.00		8.40		6.259e-02		131.639		1.572e-02		15.684
7		0.00		8.00		5.988e-02		134.110		1.297e-02		8.454
7		0.00		7.60		5.689e-02		134.304		1.101e-02		7.539
7		0.00		7.20		5.431e-02		132.127		1.223e-02		13.193
7		0.00		6.80		5.276e-02		132.508		1.249e-02		11.290
7		0.00		6.40		4.948e-02		133.465		8.307e-03		6.323
7		0.00		6.00		4.634e-02		132.548		8.303e-03		7.121
7		0.00		5.60		4.245e-02		132.536		9.331e-03		8.895
7		0.00		5.20		3.912e-02		131.733		7.850e-03		7.056
7		0.00		4.80		3.593e-02		132.412		6.259e-03		6.535
7		0.00		4.40		3.174e-02		132.382		6.258e-03		8.821
7		0.00		4.00		2.787e-02		131.537		6.192e-03		9.598
7		0.00		3.60		2.432e-02		132.234		4.010e-03		8.993
7		0.00		3.20		2.034e-02		132.520		3.682e-03		9.607
7		0.00		2.80		1.586e-02		130.126		3.852e-03		13.650
7		0.00		2.40		1.197e-02		128.284		2.314e-03		9.408
7		0.00		2.00		7.523e-03		132.045		1.353e-03		12.464
7		0.00		1.60		3.156e-03		121.559		1.032e-03		38.651
7		0.00		1.20		1.916e-03		-24.341		7.988e-04		53.566
7		0.00		0.80		5.945e-03		-47.214		1.467e-03		17.819
7		0.00		0.40		1.049e-02		-49.233		2.353e-03		10.955
7		0.00		0.00		1.419e-02		-49.229		3.480e-03		11.115
7		0.00		-0.40		1.928e-02		-47.267		3.012e-03		8.333
7		0.00		-0.80		2.396e-02		-48.778		3.759e-03		7.997
7		0.00		-1.20		2.735e-02		-49.315		5.911e-03		8.890
7		0.00		-1.60		3.222e-02		-50.697		5.717e-03		7.586
7		0.00		-2.00		3.614e-02		-49.615		5.710e-03		5.600
7		0.00		-2.40		3.947e-02		-50.523		8.374e-03		7.472
7		0.00		-2.80		4.369e-02		-52.173		8.974e-03		7.562
7		0.00		-3.20		4.757e-02		-51.663		7.423e-03		5.903
7		0.00		-3.60		4.980e-02		-52.128		1.044e-02		9.230
7		0.00		-4.00		5.364e-02		-52.611		1.233e-02		8.704
7		0.00		-4.40		5.818e-02		-51.046		9.826e-03		5.550
7		0.00		-4.80		5.884e-02		-50.626		1.242e-02		9.804
7		0.00		-5.20		6.270e-02		-49.775		1.441e-02		8.989
7		0.00		-5.60		6.258e-02		-46.162		1.235e-02		8.131
7		0.00		-6.00		6.341e-02		-50.587		1.738e-02		16.787
7		0.00		-6.40		6.418e-02		-44.852		1.737e-02		14.993
7		0.00		-6.80		6.452e-02		-45.082		1.457e-02		16.306
7		0.00		-7.20		6.825e-02		-45.154		1.745e-02		14.642
7		0.00		-7.60		6.675e-02		-41.810		1.947e-02		19.556
7		0.00		-8.00		6.670e-02		-35.673		1.579e-02		17.407
7		0.00		-8.40		6.372e-02		-41.142		1.742e-02		23.810
7		0.00		-8.80		6.726e-02		-38.717		1.859e-02		20.907
7		0.00		-9.20		6.358e-02		-38.996		1.642e-02		13.811
7		0.00		-9.60		6.017e-02		-43.727		1.716e-02		12.357
7		0.00		-10.00		5.506e-02		-45.145		1.525e-02		15.950
7		0.00		-9.60		6.179e-02		-42.461		1.541e-02		7.785
7		0.00		-9.20		6.166e-02		-41.279		1.493e-02		14.502
7		0.00		-8.80		6.423e-02		-38.976		1.598e-02		11.975
7		0.00		-8.40		6.673e-02		-41.869		1.413e-02		9.484
7		0.00		-8.00		6.463e-02		-45.844		1.543e-02		16.240
7		0.00		-7.60		6.562e-02		-44.878		1.525e-02		11.756
7		0.00		-7.20		6.511e-02		-44.854		1.212e-02		6.545
7		0.00		-6.80		6.118e-02		-47.393		1.213e-02		12.790
7		0.00		-6.40		5.961e-02		-47.786		1.358e-02		11.636
7		0.00		-6.00		5.804e-02		-47.569		1.234e-02		7.115
7		0.00		-5.60		5.389e-02		-47.467		9.828e-03		7.467
7		0.00		-5.20		5.029e-02		-48.892		1.016e-02		8.614
7		0.00		-4.80		4.642e-02		-49.332		9.553e-03		7.802
7		0.00		-4.40		4.303e-02		-49.433		6.507e-03		5.323
7		0.00		-4.00		3.814e-02		-50.874		8.610e-03		8.539
7		0.00		-3.60		3.476e-02		-51.281		7.050e-03		6.832
7		0.00		-3.20		3.154e-02		-49.797		4.652e-03		6.564
7		0.00		-2.80		2.675e-02		-47.309		5.003e-03		6.904
7		0.00		-2.40		2.252e-02		-47.963		4.685e-03		8.401
7		0.00		-2.00		1.867e-02		-48.283		2.532e-03		8.428
7		0.00		-1.60		1.439e-02		-44.799		2.521e-03		9.921
7		0.00		-1.20		1.003e-02		-44.361		2.412e-03		13.755
7		0.00		-0.80		5.517e-03		-35.879		1.457e-03		14.941
7		0.00		-0.40		2.088e-03		-14.777		9.424e-04		54.753
8		0.00		0.00		3.387e-03		94.513		1.255e-03		35.009
8		0.00		0.40		7.657e-03		119.006		1.656e-03		13.683
8		0.00		0.80		1.207e-02		128.860		2.331e-03		9.588
8		0.00		1.20		1.598e-02		128.470		3.496e-03		10.970
8		0.00		1.60		2.022e-02		127.897		3.821e-03		7.185
8		0.00		2.00		2.412e-02		130.876		3.555e-03		6.685
8		0.00		2.40		2.725e-02		128.166		5.805e-03		11.716
8		0.00		2.80		3.127e-02		129.322		6.080e-03		7.503
8		0.00		3.20		3.553e-02		132.286		5.721e-03		5.247
8		0.00		3.60		3.762e-02		131.472		7.619e-03		8.888
8		0.00		4.00		4.090e-02		131.445		8.720e-03		7.445
8		0.00		4.40		4.422e-02		132.618		7.220e-03		5.507
8		0.00		4.80		4.572e-02		131.679		9.522e-03		8.198
8		0.00		5.20		4.733e-02		130.729		1.257e-02		11.658
8		0.00		5.60		5.097e-02		132.273		1.009e-02		5.895
8		0.00		6.00		5.093e-02		132.253		1.178e-02		9.418
8		0.00		6.40		5.485e-02		130.898		1.418e-02		11.944
8		0.00		6.80		5.625e-02		133.057		1.223e-02		7.709
8		0.00		7.20		5.647e-02		130.965		1.394e-02		15.503
8		0.00		7.60		5.879e-02		130.871		1.632e-02		20.850
8		0.00		8.00		6.198e-02		134.180		1.492e-02		8.402
8		0.00		8.40		6.069e-02		130.696		1.645e-02		18.669
8		0.00		8.80		6.337e-02		132.587		1.649e-02		16.667
8		0.00		9.20		6.730e-02		135.798		1.591e-02		10.244
8		0.00		9.60		6.200e-02		134.799		1.462e-02		14.705
8		0.00		10.00		6.221e-02		135.361		1.686e-02		17.008
8		0.00		9.60		6.712e-02		135.851		1.687e-02		11.670
8		0.00		9.20		6.082e-02		132.618		1.413e-02		19.856
8		0.00		8.80		6.266e-02		130.329		1.669e-02		19.660
8		0.00		8.40		6.232e-02		135.039		1.497e-02		10.740
8		0.00		8.00		5.951e-02		135.270		1.089e-02		8.399
8		0.00		7.60		5.682e-02		133.175		1.292e-02		10.411
8		0.00		7.20		5.517e-02		133.139		1.287e-02		8.262
8		0.00		6.80		5.266e-02		134.372		9.073e-03		4.286
8		0.00		6.40		4.935e-02		132.534		1.043e-02		10.541
8		0.00		6.00		4.706e-02		132.343		1.054e-02		9.708
8		0.00		5.60		4.331e-02		132.705		6.949e-03		6.075
8		0.00		5.20		3.958e-02		132.472		8.360e-03		6.943
8		0.00		4.80		3.520e-02		131.685		8.410e-03		8.405
8		0.00		4.40		3.262e-02		132.660		5.370e-03		6.953
8		0.00		4.00		2.862e-02		132.455		6.124e-03		9.411
8		0.00		3.60		2.407e-02		132.892		5.164e-03		9.474
8		0.00		3.20		2.117e-02		133.210		3.133e-03		7.664
8		0.00		2.80		1.651e-02		132.945		3.418e-03		10.407
8		0.00		2.40		1.199e-02		129.959		2.628e-03		12.300
8		0.00		2.00		8.213e-03		129.210		1.493e-03		10.158
8		0.00		1.60		3.646e-03		109.974		1.101e-03		39.591
8		0.00		1.20		1.952e-03		-16.871		7.781e-04		69.372
8		0.00		0.80		5.506e-03		-49.893		1.301e-03		21.807
8		0.00		0.40		9.884e-03		-44.812		2.102e-03		11.122
8		0.00		0.00		1.394e-02		-46.139		3.143e-03		9.918
8		0.00		-0.40		1.877e-02		-49.990		3.105e-03		8.870
8		0.00		-0.80		2.278e-02		-47.167		4.227e-03		7.565
8		0.00		-1.20		2.688e-02		-49.214		5.743e-03		8.662
8		0.00		-1.60		3.206e-02		-49.122		4.720e-03		6.400
8		0.00		-2.00		3.518e-02		-49.574		6.421e-03		5.590
8		0.00		-2.40		3.918e-02		-51.192		8.388e-03		8.184
8		0.00		-2.80		4.406e-02		-50.671		6.796e-03		6.573
8		0.00		-3.20		4.678e-02		-51.308		8.567e-03		7.794
8		0.00		-3.60		4.949e-02		-52.216		1.095e-02		10.156
8		0.00		-4.00		5.423e-02		-52.591		9.577e-03		6.661
8		0.00		-4.40		5.597e-02		-50.853		1.193e-02		9.504
8		0.00		-4.80		5.723e-02		-52.233		1.486e-02		12.183
8		0.00		-5.20		6.070e-02		-48.023		1.137e-02		8.584
8		0.00		-5.60		6.065e-02		-50.290		1.577e-02		17.475
8		0.00		-6.00		6.192e-02		-48.472		1.743e-02		15.832
8		0.00		-6.40		6.529e-02		-45.335		1.315e-02		10.143
8		0.00		-6.80		6.454e-02		-44.688		1.661e-02		12.972
8		0.00		-7.20		6.558e-02		-41.503		1.757e-02		14.735
8		0.00		-7.60		6.956e-02		-42.753		1.543e-02		15.131
8		0.00		-8.00		6.655e-02		-47.633		1.746e-02		22.528
8		0.00		-8.40		6.613e-02		-38.613		1.716e-02		16.499
8		0.00		-8.80		6.785e-02		-40.787		1.580e-02		16.398
8		0.00		-9.20		6.256e-02		-37.734		1.566e-02		15.304
8		0.00		-9.60		6.135e-02		-41.761		1.707e-02		19.479
8		0.00		-10.00		5.672e-02		-41.809		1.377e-02		7.352
8		0.00		-9.60		5.878e-02		-40.144		1.490e-02		12.326
8		0.00		-9.20		6.261e-02		-40.680		1.595e-02		16.178
8		0.00		-8.80		6.635e-02		-40.091		1.500e-02		10.846
8		0.00		-8.40		6.477e-02		-42.095		1.439e-02		16.294
8		0.00		-8.00		6.678e-02		-41.365		1.608e-02		14.640
8		0.00		-7.60		6.614e-02		-44.167		1.305e-02		9.433
8		0.00		-7.20		6.381e-02		-44.660		1.362e-02		13.739
8		0.00		-6.80		6.253e-02		-46.438		1.368e-02		9.794
8		0.00		-6.40		5.980e-02		-46.174		1.164e-02		6.276
8		0.00		-6.00		5.669e-02		-47.179		9.777e-03		5.892
8		0.00		-5.60		5.374e-02		-48.515		1.246e-02		10.130
8		0.00		-5.20		5.137e-02		-49.160		9.255e-03		6.668
8		0.00		-4.80		4.704e-02		-49.107		8.474e-03		5.928
8		0.00		-4.40		4.185e-02		-51.613		1.015e-02		10.235
8		0.00		-4.00		3.932e-02		-50.823		6.606e-03		6.707
8		0.00		-3.60		3.507e-02		-49.748		6.449e-03		6.469
8		0.00		-3.20		3.022e-02		-51.226		6.895e-03		9.324
8		0.00		-2.80		2.736e-02		-48.625		3.959e-03		6.298
8		0.00		-2.40		2.216e-02		-47.851		4.564e-03		8.801
8		0.00		-2.00		1.823e-02		-47.251		3.667e-03		9.899
8		0.00		-1.60		1.448e-02		-43.404		2.099e-03		8.734
8		0.00		-1.20		1.038e-02		-43.658		2.297e-03		14.476
8		0.00		-0.80		5.934e-03		-33.711		1.366e-03		18.388
8		0.00		-0.40		2.278e-03		-11.935		9.291e-04		45.130
