# Date of analysis: 2024-03-08 10;59
# Segment other properties: height: -62.6807853010371, diff height: 527.7629708580902, deflection: 33.15006164430802, deflection error: 2.917798761760048, adhesion: 44.63019528330533, phase offset: 0
# 
# Loop index	Read Volt (V)	Write Volt (V)	Amplitude (a.u)	Phase (deg)	Sigma Amp (a.u)	Sigma Pha (deg)	
1		0.00		0.00		2.395e-02		-49.769		5.414e-03		9.600
1		0.00		0.40		1.753e-02		-49.956		4.269e-03		11.009
1		0.00		0.80		1.124e-02		-44.317		2.823e-03		12.059
1		0.00		1.20		5.290e-03		-47.746		1.562e-03		22.098
1		0.00		1.60		1.957e-03		35.495		8.978e-04		66.622
1		0.00		2.00		7.617e-03		121.783		2.350e-03		16.322
1		0.00		2.40		1.366e-02		126.055		3.708e-03		18.628
1		0.00		2.80		1.863e-02		125.342		4.840e-03		12.306
1		0.00		3.20		2.443e-02		127.613		6.433e-03		10.291
1		0.00		3.60		2.954e-02		127.947		8.080e-03		10.415
1		0.00		4.00		3.489e-02		128.133		8.992e-03		7.498
1		0.00		4.40		3.964e-02		127.622		9.355e-03		7.797
1		0.00		4.80		4.492e-02		129.452		1.019e-02		8.301
1		0.00		5.20		4.867e-02		131.359		1.101e-02		7.708
1		0.00		5.60		5.156e-02		132.511		1.121e-02		7.498
1		0.00		6.00		5.556e-02		132.784		1.237e-02		8.041
1		0.00		6.40		5.685e-02		134.611		1.253e-02		9.181
1		0.00		6.80		5.917e-02		134.736		1.426e-02		13.421
1		0.00		7.20		6.054e-02		130.849		1.468e-02		24.214
1		0.00		7.60		6.095e-02		129.238		1.798e-02		25.199
1		0.00		8.00		5.801e-02		126.135		1.602e-02		43.297
1		0.00		8.40		5.987e-02		116.710		1.943e-02		54.735
1		0.00		8.80		6.072e-02		120.134		2.191e-02		43.633
1		0.00		9.20		5.732e-02		100.582		2.312e-02		56.832
1		0.00		9.60		5.714e-02		113.532		2.254e-02		53.348
1		0.00		10.00		5.542e-02		123.804		2.015e-02		36.428
1		0.00		9.60		5.361e-02		117.327		1.917e-02		47.767
1		0.00		9.20		5.588e-02		126.643		1.817e-02		29.296
1		0.00		8.80		5.607e-02		129.685		1.825e-02		21.590
1		0.00		8.40		5.284e-02		126.252		1.679e-02		31.004
1		0.00		8.00		5.356e-02		129.661		1.597e-02		14.733
1		0.00		7.60		5.205e-02		132.657		1.371e-02		8.622
1		0.00		7.20		5.013e-02		131.671		1.196e-02		7.579
1		0.00		6.80		4.734e-02		132.021		1.068e-02		7.073
1		0.00		6.40		4.434e-02		130.555		9.547e-03		6.032
1		0.00		6.00		4.012e-02		132.093		8.267e-03		5.499
1		0.00		5.60		3.566e-02		130.227		7.222e-03		6.063
1		0.00		5.20		3.100e-02		130.361		6.373e-03		6.912
1		0.00		4.80		2.627e-02		131.643		5.119e-03		7.453
1		0.00		4.40		2.141e-02		129.622		4.446e-03		7.748
1		0.00		4.00		1.545e-02		130.268		2.938e-03		11.367
1		0.00		3.60		9.799e-03		131.837		2.392e-03		14.948
1		0.00		3.20		3.884e-03		119.202		1.335e-03		31.584
1		0.00		2.80		3.205e-03		-49.041		1.329e-03		36.083
1		0.00		2.40		8.849e-03		-50.598		2.576e-03		17.832
1		0.00		2.00		1.498e-02		-52.781		4.303e-03		12.253
1		0.00		1.60		2.094e-02		-51.195		5.725e-03		10.794
1		0.00		1.20		2.711e-02		-52.064		7.232e-03		10.051
1		0.00		0.80		3.268e-02		-50.580		8.274e-03		8.692
1		0.00		0.40		3.851e-02		-52.862		8.893e-03		8.959
1		0.00		0.00		4.555e-02		-52.823		9.148e-03		6.666
1		0.00		-0.40		5.200e-02		-52.572		1.015e-02		5.767
1		0.00		-0.80		5.464e-02		-50.360		1.054e-02		6.222
1		0.00		-1.20		5.878e-02		-49.877		1.221e-02		8.182
1		0.00		-1.60		5.781e-02		-52.278		1.325e-02		16.253
1		0.00		-2.00		6.126e-02		-47.370		1.275e-02		11.969
1		0.00		-2.40		6.052e-02		-47.290		1.510e-02		15.162
1		0.00		-2.80		6.055e-02		-46.741		1.673e-02		18.570
1		0.00		-3.20		6.469e-02		-54.932		2.055e-02		20.973
1		0.00		-3.60		5.985e-02		-43.731		1.937e-02		24.133
1		0.00		-4.00		6.275e-02		-50.582		1.856e-02		27.640
1		0.00		-4.40		6.258e-02		-52.789		2.013e-02		25.462
1		0.00		-4.80		6.166e-02		-45.219		1.933e-02		23.289
1		0.00		-5.20		6.315e-02		-39.806		2.011e-02		22.031
1		0.00		-5.60		6.262e-02		-44.768		2.020e-02		28.458
1		0.00		-6.00		6.039e-02		-46.592		1.936e-02		31.070
1		0.00		-6.40		6.133e-02		-39.093		1.670e-02		25.377
1		0.00		-6.80		6.566e-02		-43.701		1.851e-02		25.816
1		0.00		-7.20		6.068e-02		-42.319		1.794e-02		28.546
1		0.00		-7.60		5.778e-02		-41.876		1.965e-02		33.194
1		0.00		-8.00		5.636e-02		-37.100		1.832e-02		30.105
1		0.00		-8.40		6.609e-02		-40.521		2.161e-02		24.142
1		0.00		-8.80		6.155e-02		-39.410		2.184e-02		24.909
1		0.00		-9.20		6.078e-02		-38.528		2.053e-02		25.230
1		0.00		-9.60		5.504e-02		-37.004		1.762e-02		23.588
1		0.00		-10.00		5.365e-02		-35.159		1.650e-02		19.718
1		0.00		-9.60		5.741e-02		-40.213		1.652e-02		20.045
1		0.00		-9.20		5.893e-02		-43.104		1.741e-02		23.190
1		0.00		-8.80		6.115e-02		-39.229		1.729e-02		18.591
1		0.00		-8.40		6.171e-02		-41.488		1.717e-02		18.209
1		0.00		-8.00		5.967e-02		-51.276		1.549e-02		20.821
1		0.00		-7.60		6.246e-02		-44.652		1.430e-02		14.050
1		0.00		-7.20		6.217e-02		-41.229		1.381e-02		11.479
1		0.00		-6.80		5.973e-02		-44.307		1.379e-02		9.891
1		0.00		-6.40		5.674e-02		-47.110		1.307e-02		13.257
1		0.00		-6.00		5.541e-02		-47.644		1.384e-02		10.548
1		0.00		-5.60		5.417e-02		-49.542		1.177e-02		7.369
1		0.00		-5.20		4.991e-02		-50.480		1.239e-02		10.204
1		0.00		-4.80		4.663e-02		-50.144		1.121e-02		7.963
1		0.00		-4.40		4.194e-02		-52.270		1.053e-02		9.894
1		0.00		-4.00		3.690e-02		-51.120		9.361e-03		9.257
1		0.00		-3.60		3.273e-02		-49.866		8.360e-03		8.605
1		0.00		-3.20		2.830e-02		-50.487		7.257e-03		10.758
1		0.00		-2.80		2.367e-02		-49.953		6.078e-03		10.918
1		0.00		-2.40		1.890e-02		-49.062		4.702e-03		7.682
1		0.00		-2.00		1.352e-02		-46.094		3.244e-03		11.973
1		0.00		-1.60		8.243e-03		-44.812		1.965e-03		15.614
1		0.00		-1.20		3.071e-03		-34.424		1.210e-03		34.118
1		0.00		-0.80		3.376e-03		106.393		1.361e-03		27.329
1		0.00		-0.40		8.917e-03		127.070		1.949e-03		10.367
2		0.00		0.00		1.419e-02		126.296		2.714e-03		8.672
2		0.00		0.40		1.956e-02		126.670		3.702e-03		9.063
2		0.00		0.80		2.399e-02		128.005		4.768e-03		9.076
2		0.00		1.20		2.915e-02		130.002		5.878e-03		8.129
2		0.00		1.60		3.345e-02		128.663		7.368e-03		7.698
2		0.00		2.00		3.773e-02		130.446		7.955e-03		6.915
2		0.00		2.40		4.219e-02		130.226		9.703e-03		7.665
2		0.00		2.80		4.615e-02		131.252		1.130e-02		9.000
2		0.00		3.20		4.965e-02		130.321		1.266e-02		9.513
2		0.00		3.60		5.086e-02		131.266		1.333e-02		10.371
2		0.00		4.00		5.467e-02		130.240		1.514e-02		18.835
2		0.00		4.40		5.535e-02		133.398		1.522e-02		16.457
2		0.00		4.80		5.807e-02		132.095		1.578e-02		26.124
2		0.00		5.20		5.865e-02		132.948		1.661e-02		23.827
2		0.00		5.60		5.987e-02		128.456		1.731e-02		31.780
2		0.00		6.00		6.187e-02		127.377		1.763e-02		38.198
2		0.00		6.40		6.437e-02		129.526		1.868e-02		20.169
2		0.00		6.80		6.309e-02		125.562		1.783e-02		23.843
2		0.00		7.20		6.650e-02		130.508		1.888e-02		19.336
2		0.00		7.60		6.225e-02		111.598		1.777e-02		59.677
2		0.00		8.00		6.483e-02		120.224		1.757e-02		54.043
2		0.00		8.40		5.979e-02		98.322		1.773e-02		80.221
2		0.00		8.80		6.134e-02		88.255		1.967e-02		93.400
2		0.00		9.20		6.427e-02		113.531		1.852e-02		64.698
2		0.00		9.60		6.124e-02		111.695		1.857e-02		67.770
2		0.00		10.00		5.794e-02		113.832		1.650e-02		43.926
2		0.00		9.60		6.257e-02		124.411		1.963e-02		25.961
2		0.00		9.20		6.070e-02		118.578		1.780e-02		56.819
2		0.00		8.80		6.021e-02		127.120		1.685e-02		30.776
2		0.00		8.40		5.781e-02		130.855		1.592e-02		26.280
2		0.00		8.00		5.622e-02		131.621		1.521e-02		14.406
2		0.00		7.60		5.637e-02		130.351		1.463e-02		11.549
2		0.00		7.20		5.328e-02		133.240		1.291e-02		8.871
2		0.00		6.80		4.879e-02		131.609		1.182e-02		9.926
2		0.00		6.40		4.605e-02		132.104		1.073e-02		6.953
2		0.00		6.00		4.159e-02		131.745		1.011e-02		10.709
2		0.00		5.60		3.667e-02		131.425		8.918e-03		8.655
2		0.00		5.20		3.171e-02		130.151		7.447e-03		10.951
2		0.00		4.80		2.653e-02		132.457		6.484e-03		9.399
2		0.00		4.40		2.098e-02		130.297		5.074e-03		10.777
2		0.00		4.00		1.573e-02		133.289		3.979e-03		13.148
2		0.00		3.60		9.937e-03		128.782		2.942e-03		19.461
2		0.00		3.20		4.560e-03		116.961		1.508e-03		33.708
2		0.00		2.80		2.280e-03		-44.969		9.396e-04		40.790
2		0.00		2.40		7.575e-03		-50.424		2.268e-03		17.761
2		0.00		2.00		1.379e-02		-50.917		3.797e-03		11.962
2		0.00		1.60		1.940e-02		-51.753		5.389e-03		11.462
2		0.00		1.20		2.551e-02		-52.519		6.935e-03		9.824
2		0.00		0.80		3.074e-02		-49.706		8.411e-03		9.669
2		0.00		0.40		3.732e-02		-51.489		9.299e-03		8.759
2		0.00		0.00		4.310e-02		-51.838		1.040e-02		9.104
2		0.00		-0.40		4.787e-02		-52.451		1.087e-02		8.940
2		0.00		-0.80		5.202e-02		-52.088		1.215e-02		9.211
2		0.00		-1.20		5.652e-02		-51.588		1.311e-02		7.263
2		0.00		-1.60		5.954e-02		-52.303		1.477e-02		8.790
2		0.00		-2.00		6.095e-02		-49.419		1.315e-02		7.526
2		0.00		-2.40		6.245e-02		-48.870		1.425e-02		14.008
2		0.00		-2.80		6.387e-02		-48.892		1.532e-02		16.005
2		0.00		-3.20		6.356e-02		-44.324		1.447e-02		16.922
2		0.00		-3.60		6.316e-02		-47.027		1.709e-02		22.060
2		0.00		-4.00		6.281e-02		-47.810		1.614e-02		21.868
2		0.00		-4.40		6.150e-02		-47.562		1.820e-02		28.617
2		0.00		-4.80		6.432e-02		-44.457		1.853e-02		25.119
2		0.00		-5.20		6.120e-02		-38.682		1.616e-02		25.257
2		0.00		-5.60		6.456e-02		-49.553		1.901e-02		27.286
2		0.00		-6.00		6.263e-02		-42.201		1.747e-02		26.024
2		0.00		-6.40		6.535e-02		-49.310		1.681e-02		26.024
2		0.00		-6.80		6.175e-02		-29.718		1.838e-02		23.691
2		0.00		-7.20		6.623e-02		-44.803		1.569e-02		22.218
2		0.00		-7.60		6.202e-02		-35.622		1.667e-02		25.949
2		0.00		-8.00		6.461e-02		-51.066		1.836e-02		27.318
2		0.00		-8.40		6.530e-02		-42.637		1.723e-02		24.857
2		0.00		-8.80		6.081e-02		-29.172		1.920e-02		22.554
2		0.00		-9.20		5.968e-02		-39.464		1.750e-02		24.325
2		0.00		-9.60		5.915e-02		-40.913		1.744e-02		18.964
2		0.00		-10.00		5.479e-02		-38.394		1.446e-02		12.509
2		0.00		-9.60		5.998e-02		-43.792		1.736e-02		17.209
2		0.00		-9.20		6.004e-02		-46.239		1.867e-02		25.451
2		0.00		-8.80		6.318e-02		-42.090		1.732e-02		19.662
2		0.00		-8.40		6.183e-02		-39.532		2.090e-02		22.793
2		0.00		-8.00		5.870e-02		-41.756		1.967e-02		21.791
2		0.00		-7.60		6.215e-02		-42.549		1.872e-02		16.794
2		0.00		-7.20		6.013e-02		-40.262		1.945e-02		14.571
2		0.00		-6.80		5.896e-02		-43.440		1.825e-02		16.603
2		0.00		-6.40		5.660e-02		-47.351		1.730e-02		18.032
2		0.00		-6.00		5.536e-02		-47.992		1.722e-02		15.121
2		0.00		-5.60		5.352e-02		-50.402		1.591e-02		14.991
2		0.00		-5.20		5.177e-02		-50.638		1.525e-02		13.014
2		0.00		-4.80		4.795e-02		-50.972		1.310e-02		10.773
2		0.00		-4.40		4.428e-02		-54.173		1.124e-02		10.132
2		0.00		-4.00		4.002e-02		-53.257		9.763e-03		10.692
2		0.00		-3.60		3.572e-02		-52.208		8.342e-03		7.930
2		0.00		-3.20		3.079e-02		-50.746		7.224e-03		8.877
2		0.00		-2.80		2.628e-02		-51.421		5.838e-03		10.116
2		0.00		-2.40		2.104e-02		-49.960		4.691e-03		7.351
2		0.00		-2.00		1.650e-02		-49.279		3.367e-03		9.723
2		0.00		-1.60		1.154e-02		-46.282		2.460e-03		10.993
2		0.00		-1.20		6.276e-03		-38.708		1.718e-03		21.330
2		0.00		-0.80		2.225e-03		-21.796		8.898e-04		48.789
2		0.00		-0.40		4.007e-03		105.556		1.432e-03		37.448
3		0.00		0.00		9.429e-03		125.636		1.905e-03		13.091
3		0.00		0.40		1.462e-02		127.158		2.847e-03		9.525
3		0.00		0.80		1.906e-02		126.487		3.335e-03		8.871
3		0.00		1.20		2.435e-02		128.038		4.215e-03		6.557
3		0.00		1.60		2.916e-02		129.835		5.246e-03		6.920
3		0.00		2.00		3.356e-02		130.304		5.926e-03		4.852
3		0.00		2.40		3.844e-02		130.444		7.101e-03		5.483
3		0.00		2.80		4.268e-02		130.692		8.318e-03		6.067
3		0.00		3.20		4.635e-02		130.677		8.645e-03		6.474
3		0.00		3.60		4.919e-02		132.445		9.447e-03		6.295
3		0.00		4.00		5.251e-02		132.168		1.096e-02		6.687
3		0.00		4.40		5.457e-02		132.360		1.228e-02		10.223
3		0.00		4.80		5.718e-02		133.238		1.290e-02		8.530
3		0.00		5.20		5.829e-02		128.412		1.469e-02		23.261
3		0.00		5.60		5.866e-02		132.206		1.533e-02		15.616
3		0.00		6.00		5.902e-02		135.125		1.554e-02		8.526
3		0.00		6.40		5.944e-02		135.590		1.602e-02		13.281
3		0.00		6.80		5.875e-02		129.857		1.694e-02		26.051
3		0.00		7.20		5.925e-02		134.353		1.747e-02		21.819
3		0.00		7.60		5.903e-02		129.092		1.832e-02		32.024
3		0.00		8.00		6.128e-02		118.799		2.052e-02		45.183
3		0.00		8.40		6.311e-02		125.417		2.091e-02		35.267
3		0.00		8.80		6.130e-02		118.974		2.057e-02		50.778
3		0.00		9.20		6.176e-02		121.040		2.016e-02		44.107
3		0.00		9.60		5.676e-02		105.415		2.076e-02		59.214
3		0.00		10.00		5.787e-02		113.726		2.057e-02		62.067
3		0.00		9.60		5.968e-02		111.088		2.011e-02		54.885
3		0.00		9.20		6.063e-02		124.994		1.829e-02		35.590
3		0.00		8.80		6.190e-02		124.345		1.943e-02		40.021
3		0.00		8.40		6.008e-02		129.719		1.643e-02		29.051
3		0.00		8.00		5.691e-02		134.249		1.533e-02		19.876
3		0.00		7.60		5.623e-02		132.543		1.562e-02		11.315
3		0.00		7.20		5.577e-02		130.651		1.489e-02		9.780
3		0.00		6.80		5.176e-02		130.656		1.305e-02		9.337
3		0.00		6.40		4.918e-02		129.856		1.178e-02		6.900
3		0.00		6.00		4.432e-02		129.625		1.068e-02		7.911
3		0.00		5.60		4.028e-02		129.820		9.251e-03		6.937
3		0.00		5.20		3.546e-02		129.423		8.401e-03		7.817
3		0.00		4.80		3.028e-02		129.732		7.104e-03		7.734
3		0.00		4.40		2.509e-02		129.728		5.725e-03		7.509
3		0.00		4.00		1.983e-02		130.363		4.579e-03		7.614
3		0.00		3.60		1.413e-02		132.848		3.009e-03		8.445
3		0.00		3.20		8.485e-03		132.966		2.110e-03		12.858
3		0.00		2.80		3.211e-03		101.478		1.194e-03		52.265
3		0.00		2.40		3.329e-03		-60.410		1.350e-03		37.097
3		0.00		2.00		9.004e-03		-50.547		1.943e-03		12.432
3		0.00		1.60		1.440e-02		-50.574		2.694e-03		9.188
3		0.00		1.20		2.024e-02		-50.997		3.927e-03		7.956
3		0.00		0.80		2.619e-02		-51.386		4.069e-03		7.258
3		0.00		0.40		3.184e-02		-52.125		5.363e-03		6.980
3		0.00		0.00		3.833e-02		-51.607		6.397e-03		5.272
3		0.00		-0.40		4.341e-02		-51.719		7.405e-03		5.000
3		0.00		-0.80		4.880e-02		-51.487		8.485e-03		5.364
3		0.00		-1.20		5.339e-02		-50.998		9.366e-03		5.498
3		0.00		-1.60		5.639e-02		-51.230		1.012e-02		6.147
3		0.00		-2.00		5.905e-02		-51.110		1.176e-02		8.826
3		0.00		-2.40		5.986e-02		-50.206		1.187e-02		12.341
3		0.00		-2.80		6.182e-02		-47.764		1.336e-02		10.806
3		0.00		-3.20		6.195e-02		-48.059		1.547e-02		16.319
3		0.00		-3.60		6.359e-02		-47.630		1.813e-02		18.268
3		0.00		-4.00		6.257e-02		-46.971		1.604e-02		20.433
3		0.00		-4.40		6.156e-02		-46.844		1.590e-02		21.413
3		0.00		-4.80		5.867e-02		-47.152		1.791e-02		28.054
3		0.00		-5.20		6.184e-02		-41.021		1.618e-02		18.466
3		0.00		-5.60		6.035e-02		-39.568		1.498e-02		20.721
3		0.00		-6.00		6.445e-02		-40.630		1.697e-02		19.562
3		0.00		-6.40		6.445e-02		-40.098		1.847e-02		24.851
3		0.00		-6.80		6.587e-02		-39.912		1.928e-02		23.461
3		0.00		-7.20		6.394e-02		-40.840		1.696e-02		22.797
3		0.00		-7.60		6.530e-02		-34.019		1.991e-02		21.870
3		0.00		-8.00		6.682e-02		-41.199		1.886e-02		25.287
3		0.00		-8.40		6.591e-02		-35.665		1.837e-02		17.363
3		0.00		-8.80		6.316e-02		-35.402		1.942e-02		23.164
3		0.00		-9.20		5.939e-02		-34.862		1.915e-02		24.104
3		0.00		-9.60		5.861e-02		-34.867		1.950e-02		22.915
3		0.00		-10.00		5.394e-02		-39.126		1.715e-02		19.505
3		0.00		-9.60		5.599e-02		-40.691		1.744e-02		21.692
3		0.00		-9.20		5.704e-02		-43.612		1.833e-02		23.183
3		0.00		-8.80		5.984e-02		-40.170		1.970e-02		22.216
3		0.00		-8.40		5.817e-02		-38.019		1.760e-02		19.911
3		0.00		-8.00		6.071e-02		-43.893		1.842e-02		15.388
3		0.00		-7.60		6.300e-02		-41.177		2.028e-02		17.538
3		0.00		-7.20		5.959e-02		-41.617		1.734e-02		12.383
3		0.00		-6.80		6.026e-02		-45.940		1.802e-02		12.537
3		0.00		-6.40		5.989e-02		-47.534		1.743e-02		12.462
3		0.00		-6.00		5.701e-02		-48.024		1.553e-02		11.252
3		0.00		-5.60		5.471e-02		-48.351		1.387e-02		9.641
3		0.00		-5.20		5.168e-02		-49.271		1.296e-02		10.366
3		0.00		-4.80		4.839e-02		-49.557		1.176e-02		8.740
3		0.00		-4.40		4.450e-02		-52.299		1.070e-02		10.992
3		0.00		-4.00		4.000e-02		-50.888		9.559e-03		7.101
3		0.00		-3.60		3.618e-02		-51.624		8.396e-03		10.803
3		0.00		-3.20		3.155e-02		-50.101		7.372e-03		8.477
3		0.00		-2.80		2.715e-02		-48.822		5.875e-03		8.149
3		0.00		-2.40		2.221e-02		-47.777		5.155e-03		9.822
3		0.00		-2.00		1.745e-02		-50.240		3.879e-03		11.781
3		0.00		-1.60		1.226e-02		-49.076		3.021e-03		13.164
3		0.00		-1.20		7.579e-03		-44.741		2.047e-03		13.757
3		0.00		-0.80		2.999e-03		-33.452		1.210e-03		33.854
3		0.00		-0.40		2.926e-03		91.473		1.224e-03		63.833
4		0.00		0.00		7.160e-03		123.739		1.825e-03		18.030
4		0.00		0.40		1.197e-02		126.172		3.094e-03		13.652
4		0.00		0.80		1.683e-02		129.844		4.077e-03		14.758
4		0.00		1.20		2.153e-02		128.566		4.890e-03		14.311
4		0.00		1.60		2.587e-02		131.992		5.836e-03		8.223
4		0.00		2.00		3.082e-02		132.028		6.632e-03		8.321
4		0.00		2.40		3.525e-02		129.931		7.730e-03		9.677
4		0.00		2.80		3.969e-02		131.600		8.325e-03		7.018
4		0.00		3.20		4.394e-02		132.253		9.569e-03		7.914
4		0.00		3.60		4.722e-02		132.429		9.998e-03		6.964
4		0.00		4.00		5.040e-02		132.027		1.141e-02		7.036
4		0.00		4.40		5.288e-02		132.454		1.212e-02		9.062
4		0.00		4.80		5.672e-02		133.166		1.245e-02		7.020
4		0.00		5.20		5.888e-02		132.458		1.385e-02		10.823
4		0.00		5.60		5.931e-02		134.327		1.336e-02		6.066
4		0.00		6.00		5.971e-02		129.039		1.656e-02		33.503
4		0.00		6.40		6.197e-02		130.660		1.777e-02		25.278
4		0.00		6.80		6.206e-02		135.288		1.534e-02		25.485
4		0.00		7.20		6.243e-02		131.991		1.802e-02		32.008
4		0.00		7.60		6.159e-02		136.009		1.772e-02		23.268
4		0.00		8.00		6.292e-02		121.567		1.885e-02		51.635
4		0.00		8.40		6.554e-02		123.401		1.868e-02		54.037
4		0.00		8.80		6.413e-02		114.832		1.748e-02		59.969
4		0.00		9.20		6.808e-02		115.219		2.116e-02		60.260
4		0.00		9.60		6.763e-02		128.404		1.764e-02		28.124
4		0.00		10.00		6.287e-02		119.566		1.700e-02		49.891
4		0.00		9.60		6.440e-02		124.039		1.874e-02		32.440
4		0.00		9.20		6.576e-02		130.308		1.566e-02		25.962
4		0.00		8.80		6.440e-02		135.294		1.438e-02		17.462
4		0.00		8.40		6.261e-02		132.175		1.465e-02		17.705
4		0.00		8.00		5.977e-02		136.964		1.295e-02		11.802
4		0.00		7.60		6.045e-02		134.789		1.269e-02		7.452
4		0.00		7.20		5.703e-02		133.041		1.207e-02		7.687
4		0.00		6.80		5.284e-02		132.937		1.153e-02		7.273
4		0.00		6.40		4.922e-02		132.489		1.083e-02		5.624
4		0.00		6.00		4.491e-02		131.400		1.059e-02		6.315
4		0.00		5.60		4.034e-02		130.721		9.451e-03		6.780
4		0.00		5.20		3.543e-02		130.882		8.865e-03		7.153
4		0.00		4.80		3.068e-02		130.796		7.537e-03		7.659
4		0.00		4.40		2.620e-02		132.169		6.774e-03		7.027
4		0.00		4.00		2.068e-02		131.808		5.718e-03		8.717
4		0.00		3.60		1.567e-02		131.644		4.251e-03		9.368
4		0.00		3.20		1.004e-02		132.073		2.868e-03		12.268
4		0.00		2.80		4.124e-03		121.908		1.515e-03		23.442
4		0.00		2.40		2.143e-03		-35.971		9.342e-04		63.167
4		0.00		2.00		6.810e-03		-65.736		1.910e-03		17.767
4		0.00		1.60		1.257e-02		-52.953		3.143e-03		14.473
4		0.00		1.20		1.807e-02		-51.932		4.455e-03		11.292
4		0.00		0.80		2.377e-02		-48.409		4.925e-03		10.936
4		0.00		0.40		2.937e-02		-50.942		5.725e-03		9.023
4		0.00		0.00		3.494e-02		-50.726		6.937e-03		7.287
4		0.00		-0.40		4.090e-02		-50.301		7.768e-03		6.779
4		0.00		-0.80		4.579e-02		-51.443		8.662e-03		6.589
4		0.00		-1.20		4.986e-02		-50.876		8.912e-03		5.768
4		0.00		-1.60		5.444e-02		-50.876		1.001e-02		6.211
4		0.00		-2.00		5.649e-02		-48.941		1.083e-02		7.959
4		0.00		-2.40		6.024e-02		-50.805		1.118e-02		8.430
4		0.00		-2.80		6.139e-02		-49.689		1.097e-02		7.440
4		0.00		-3.20		6.239e-02		-47.172		1.358e-02		13.251
4		0.00		-3.60		6.633e-02		-47.604		1.438e-02		12.212
4		0.00		-4.00		6.228e-02		-48.416		1.460e-02		17.191
4		0.00		-4.40		6.077e-02		-41.803		1.682e-02		21.636
4		0.00		-4.80		6.662e-02		-44.093		1.593e-02		16.437
4		0.00		-5.20		6.645e-02		-47.188		1.867e-02		19.046
4		0.00		-5.60		6.446e-02		-46.700		1.669e-02		17.890
4		0.00		-6.00		6.415e-02		-42.486		1.640e-02		16.863
4		0.00		-6.40		6.200e-02		-41.736		1.707e-02		24.761
4		0.00		-6.80		6.281e-02		-40.736		1.901e-02		20.736
4		0.00		-7.20		6.263e-02		-37.219		1.800e-02		18.907
4		0.00		-7.60		6.156e-02		-37.093		1.771e-02		25.364
4		0.00		-8.00		6.408e-02		-37.755		1.907e-02		24.715
4		0.00		-8.40		6.464e-02		-38.653		1.832e-02		22.300
4		0.00		-8.80		5.953e-02		-30.161		1.898e-02		22.211
4		0.00		-9.20		5.962e-02		-34.479		1.837e-02		20.620
4		0.00		-9.60		5.792e-02		-39.553		1.784e-02		16.262
4		0.00		-10.00		5.417e-02		-40.546		1.577e-02		9.792
4		0.00		-9.60		5.758e-02		-38.813		1.606e-02		13.161
4		0.00		-9.20		6.043e-02		-38.831		1.770e-02		15.358
4		0.00		-8.80		6.326e-02		-39.846		1.595e-02		14.460
4		0.00		-8.40		6.527e-02		-43.217		1.659e-02		15.885
4		0.00		-8.00		6.618e-02		-41.844		1.659e-02		13.781
4		0.00		-7.60		6.441e-02		-41.056		1.503e-02		12.695
4		0.00		-7.20		6.269e-02		-43.063		1.406e-02		9.118
4		0.00		-6.80		6.291e-02		-45.525		1.599e-02		8.810
4		0.00		-6.40		6.108e-02		-47.783		1.654e-02		8.450
4		0.00		-6.00		6.014e-02		-47.911		1.486e-02		9.022
4		0.00		-5.60		5.815e-02		-49.422		1.484e-02		10.624
4		0.00		-5.20		5.369e-02		-50.108		1.349e-02		13.275
4		0.00		-4.80		4.987e-02		-50.651		1.183e-02		10.336
4		0.00		-4.40		4.574e-02		-49.863		1.085e-02		7.899
4		0.00		-4.00		4.092e-02		-52.021		9.920e-03		8.650
4		0.00		-3.60		3.668e-02		-49.732		8.161e-03		9.156
4		0.00		-3.20		3.282e-02		-51.069		6.640e-03		7.104
4		0.00		-2.80		2.836e-02		-48.704		5.481e-03		7.624
4		0.00		-2.40		2.362e-02		-49.243		4.267e-03		7.526
4		0.00		-2.00		1.898e-02		-47.514		3.545e-03		7.750
4		0.00		-1.60		1.406e-02		-47.900		2.583e-03		11.169
4		0.00		-1.20		9.026e-03		-48.408		1.623e-03		12.019
4		0.00		-0.80		4.256e-03		-47.236		1.249e-03		26.746
4		0.00		-0.40		1.889e-03		47.942		7.144e-04		73.682
5		0.00		0.00		6.313e-03		125.444		1.548e-03		15.870
5		0.00		0.40		1.112e-02		125.876		2.212e-03		9.491
5		0.00		0.80		1.673e-02		130.875		3.173e-03		8.566
5		0.00		1.20		2.091e-02		129.897		3.622e-03		6.371
5		0.00		1.60		2.575e-02		129.012		5.006e-03		5.932
5		0.00		2.00		3.010e-02		129.403		5.778e-03		5.932
5		0.00		2.40		3.458e-02		128.251		7.495e-03		6.691
5		0.00		2.80		3.884e-02		129.792		8.367e-03		5.862
5		0.00		3.20		4.192e-02		131.010		9.611e-03		6.591
5		0.00		3.60		4.460e-02		130.474		1.135e-02		8.016
5		0.00		4.00		4.795e-02		130.387		1.253e-02		7.571
5		0.00		4.40		5.105e-02		129.344		1.397e-02		7.197
5		0.00		4.80		5.309e-02		131.192		1.499e-02		8.490
5		0.00		5.20		5.544e-02		130.212		1.570e-02		8.556
5		0.00		5.60		5.736e-02		132.048		1.553e-02		8.736
5		0.00		6.00		6.067e-02		131.471		1.696e-02		8.308
5		0.00		6.40		5.891e-02		132.826		1.707e-02		13.025
5		0.00		6.80		6.047e-02		133.419		1.684e-02		14.827
5		0.00		7.20		6.142e-02		129.001		1.595e-02		38.016
5		0.00		7.60		6.127e-02		132.064		1.790e-02		26.155
5		0.00		8.00		6.303e-02		127.101		1.611e-02		34.436
5		0.00		8.40		6.530e-02		126.594		1.787e-02		33.872
5		0.00		8.80		6.345e-02		116.860		1.971e-02		58.496
5		0.00		9.20		6.672e-02		122.759		1.948e-02		46.824
5		0.00		9.60		6.902e-02		127.529		2.032e-02		23.812
5		0.00		10.00		6.501e-02		125.074		1.974e-02		33.719
5		0.00		9.60		6.770e-02		127.235		2.053e-02		25.305
5		0.00		9.20		6.095e-02		127.316		1.815e-02		33.709
5		0.00		8.80		6.139e-02		130.881		1.650e-02		24.078
5		0.00		8.40		6.101e-02		134.926		1.640e-02		15.898
5		0.00		8.00		6.086e-02		132.624		1.631e-02		9.847
5		0.00		7.60		5.732e-02		132.393		1.357e-02		7.522
5		0.00		7.20		5.583e-02		132.089		1.344e-02		7.310
5		0.00		6.80		5.134e-02		133.154		1.190e-02		7.546
5		0.00		6.40		4.910e-02		132.690		1.099e-02		5.846
5		0.00		6.00		4.565e-02		132.853		1.014e-02		5.104
5		0.00		5.60		4.090e-02		131.584		8.279e-03		5.242
5		0.00		5.20		3.707e-02		132.537		7.229e-03		5.697
5		0.00		4.80		3.268e-02		132.888		6.149e-03		6.013
5		0.00		4.40		2.749e-02		132.884		5.103e-03		6.411
5		0.00		4.00		2.276e-02		134.571		4.187e-03		7.143
5		0.00		3.60		1.746e-02		133.430		3.323e-03		8.791
5		0.00		3.20		1.200e-02		133.868		2.560e-03		9.887
5		0.00		2.80		6.434e-03		134.886		1.634e-03		14.925
5		0.00		2.40		1.857e-03		28.879		7.449e-04		82.356
5		0.00		2.00		5.326e-03		-61.256		1.442e-03		21.488
5		0.00		1.60		1.090e-02		-51.528		2.422e-03		13.004
5		0.00		1.20		1.589e-02		-50.893		3.736e-03		12.233
5		0.00		0.80		2.145e-02		-50.468		5.394e-03		7.907
5		0.00		0.40		2.661e-02		-52.880		6.923e-03		11.990
5		0.00		0.00		3.182e-02		-51.544		8.772e-03		10.254
5		0.00		-0.40		3.654e-02		-52.149		1.001e-02		9.054
5		0.00		-0.80		4.143e-02		-52.161		1.109e-02		9.082
5		0.00		-1.20		4.658e-02		-52.775		1.267e-02		9.354
5		0.00		-1.60		5.096e-02		-52.953		1.329e-02		9.341
5		0.00		-2.00		5.525e-02		-53.769		1.409e-02		8.732
5		0.00		-2.40		5.914e-02		-52.325		1.308e-02		7.314
5		0.00		-2.80		6.191e-02		-50.653		1.297e-02		8.726
5		0.00		-3.20		6.251e-02		-49.503		1.223e-02		9.240
5		0.00		-3.60		6.339e-02		-48.844		1.316e-02		11.459
5		0.00		-4.00		6.354e-02		-45.200		1.326e-02		12.110
5		0.00		-4.40		6.413e-02		-44.062		1.199e-02		11.104
5		0.00		-4.80		6.527e-02		-41.933		1.641e-02		14.281
5		0.00		-5.20		6.240e-02		-42.140		1.413e-02		18.400
5		0.00		-5.60		6.487e-02		-40.549		1.603e-02		15.865
5		0.00		-6.00		6.420e-02		-43.299		1.801e-02		22.515
5		0.00		-6.40		6.593e-02		-36.828		1.699e-02		17.975
5		0.00		-6.80		6.385e-02		-39.431		1.658e-02		21.238
5		0.00		-7.20		6.536e-02		-37.404		1.929e-02		24.524
5		0.00		-7.60		6.168e-02		-31.856		1.763e-02		22.884
5		0.00		-8.00		6.113e-02		-34.841		2.042e-02		26.874
5		0.00		-8.40		6.242e-02		-38.235		1.861e-02		29.311
5		0.00		-8.80		5.863e-02		-37.496		1.869e-02		25.642
5		0.00		-9.20		6.120e-02		-42.354		1.878e-02		27.648
5		0.00		-9.60		5.807e-02		-38.474		1.807e-02		23.204
5		0.00		-10.00		5.380e-02		-38.622		1.657e-02		20.460
5		0.00		-9.60		6.048e-02		-41.676		1.825e-02		15.689
5		0.00		-9.20		6.198e-02		-42.092		1.667e-02		13.418
5		0.00		-8.80		6.368e-02		-45.732		1.599e-02		15.532
5		0.00		-8.40		6.724e-02		-37.530		1.622e-02		12.236
5		0.00		-8.00		6.664e-02		-43.872		1.635e-02		15.206
5		0.00		-7.60		6.388e-02		-39.228		1.482e-02		13.286
5		0.00		-7.20		6.505e-02		-41.788		1.508e-02		11.790
5		0.00		-6.80		6.231e-02		-43.335		1.341e-02		10.452
5		0.00		-6.40		6.176e-02		-47.673		1.407e-02		11.459
5		0.00		-6.00		5.853e-02		-47.684		1.311e-02		11.682
5		0.00		-5.60		5.678e-02		-48.330		1.349e-02		9.114
5		0.00		-5.20		5.241e-02		-48.088		1.266e-02		7.890
5		0.00		-4.80		4.875e-02		-50.013		1.302e-02		9.839
5		0.00		-4.40		4.410e-02		-52.778		1.202e-02		13.425
5		0.00		-4.00		4.010e-02		-52.874		1.101e-02		11.514
5		0.00		-3.60		3.580e-02		-51.836		9.868e-03		11.837
5		0.00		-3.20		3.188e-02		-52.352		8.048e-03		8.104
5		0.00		-2.80		2.809e-02		-51.859		6.624e-03		7.770
5		0.00		-2.40		2.345e-02		-49.345		4.665e-03		7.827
5		0.00		-2.00		1.929e-02		-49.042		3.745e-03		7.784
5		0.00		-1.60		1.467e-02		-49.578		2.621e-03		10.602
5		0.00		-1.20		1.018e-02		-42.820		1.847e-03		13.003
5		0.00		-0.80		5.146e-03		-45.297		1.330e-03		18.795
5		0.00		-0.40		1.690e-03		-11.705		6.911e-04		67.541
6		0.00		0.00		4.687e-03		119.147		1.325e-03		25.446
6		0.00		0.40		9.326e-03		125.578		2.357e-03		16.396
6		0.00		0.80		1.417e-02		128.526		3.309e-03		18.496
6		0.00		1.20		1.871e-02		131.231		4.660e-03		11.656
6		0.00		1.60		2.322e-02		129.375		5.453e-03		11.121
6		0.00		2.00		2.803e-02		130.340		6.296e-03		8.206
6		0.00		2.40		3.237e-02		130.286		6.786e-03		7.211
6		0.00		2.80		3.667e-02		131.101		7.476e-03		6.709
6		0.00		3.20		3.970e-02		130.482		7.457e-03		5.785
6		0.00		3.60		4.358e-02		131.707		8.142e-03		5.061
6		0.00		4.00		4.684e-02		131.805		9.466e-03		5.726
6		0.00		4.40		4.957e-02		132.247		1.007e-02		6.071
6		0.00		4.80		5.164e-02		131.174		1.222e-02		11.023
6		0.00		5.20		5.434e-02		131.728		1.417e-02		10.548
6		0.00		5.60		5.549e-02		131.905		1.522e-02		12.120
6		0.00		6.00		5.802e-02		131.112		1.668e-02		19.169
6		0.00		6.40		5.998e-02		131.552		1.674e-02		18.825
6		0.00		6.80		6.097e-02		134.429		1.608e-02		11.720
6		0.00		7.20		6.230e-02		134.584		1.515e-02		10.685
6		0.00		7.60		6.394e-02		136.749		1.476e-02		11.653
6		0.00		8.00		6.497e-02		136.513		1.442e-02		9.242
6		0.00		8.40		6.538e-02		130.459		1.524e-02		30.286
6		0.00		8.80		6.993e-02		136.159		1.636e-02		14.601
6		0.00		9.20		6.537e-02		129.173		1.675e-02		37.553
6		0.00		9.60		6.751e-02		122.484		2.104e-02		39.376
6		0.00		10.00		6.015e-02		123.062		1.897e-02		44.937
6		0.00		9.60		6.346e-02		123.405		1.987e-02		42.027
6		0.00		9.20		6.200e-02		129.633		2.012e-02		34.614
6		0.00		8.80		5.904e-02		129.440		1.852e-02		31.727
6		0.00		8.40		5.774e-02		131.845		1.790e-02		24.846
6		0.00		8.00		5.953e-02		130.491		1.872e-02		18.058
6		0.00		7.60		5.702e-02		131.853		1.604e-02		9.314
6		0.00		7.20		5.473e-02		131.626		1.412e-02		8.155
6		0.00		6.80		5.214e-02		133.146		1.227e-02		5.996
6		0.00		6.40		4.825e-02		132.399		1.058e-02		4.840
6		0.00		6.00		4.464e-02		133.826		9.710e-03		5.274
6		0.00		5.60		4.043e-02		131.648		8.826e-03		5.930
6		0.00		5.20		3.660e-02		132.105		8.033e-03		9.439
6		0.00		4.80		3.234e-02		132.827		7.186e-03		8.711
6		0.00		4.40		2.742e-02		132.729		6.295e-03		9.610
6		0.00		4.00		2.229e-02		130.987		5.523e-03		14.209
6		0.00		3.60		1.734e-02		132.334		4.402e-03		14.029
6		0.00		3.20		1.191e-02		133.786		3.140e-03		12.123
6		0.00		2.80		7.033e-03		129.851		1.982e-03		14.377
6		0.00		2.40		2.206e-03		57.901		9.379e-04		86.400
6		0.00		2.00		4.422e-03		-60.306		1.228e-03		18.877
6		0.00		1.60		9.459e-03		-52.647		1.889e-03		13.586
6		0.00		1.20		1.495e-02		-50.109		2.778e-03		10.765
6		0.00		0.80		1.991e-02		-49.488		4.045e-03		10.005
6		0.00		0.40		2.478e-02		-49.067		5.748e-03		8.600
6		0.00		0.00		2.946e-02		-50.511		7.188e-03		10.599
6		0.00		-0.40		3.436e-02		-51.372		8.978e-03		9.207
6		0.00		-0.80		3.987e-02		-52.046		1.026e-02		7.774
6		0.00		-1.20		4.508e-02		-53.397		1.047e-02		6.209
6		0.00		-1.60		4.985e-02		-51.935		9.699e-03		4.531
6		0.00		-2.00		5.385e-02		-51.699		9.854e-03		5.171
6		0.00		-2.40		5.769e-02		-51.343		1.145e-02		7.593
6		0.00		-2.80		5.857e-02		-50.135		1.138e-02		6.217
6		0.00		-3.20		5.972e-02		-49.209		1.531e-02		14.995
6		0.00		-3.60		6.224e-02		-50.737		1.643e-02		13.252
6		0.00		-4.00		5.999e-02		-48.275		1.673e-02		19.723
6		0.00		-4.40		6.056e-02		-44.769		1.574e-02		14.649
6		0.00		-4.80		6.399e-02		-46.486		1.392e-02		10.819
6		0.00		-5.20		6.576e-02		-44.877		1.528e-02		14.138
6		0.00		-5.60		6.623e-02		-42.947		1.462e-02		14.935
6		0.00		-6.00		6.525e-02		-43.899		1.529e-02		18.047
6		0.00		-6.40		6.281e-02		-44.135		1.703e-02		22.789
6		0.00		-6.80		6.196e-02		-39.682		1.929e-02		25.157
6		0.00		-7.20		6.368e-02		-41.774		1.943e-02		23.180
6		0.00		-7.60		6.443e-02		-46.577		1.984e-02		22.384
6		0.00		-8.00		6.498e-02		-39.747		1.919e-02		18.202
6		0.00		-8.40		6.257e-02		-33.962		1.658e-02		19.252
6		0.00		-8.80		6.362e-02		-34.980		1.802e-02		18.480
6		0.00		-9.20		6.116e-02		-41.169		1.924e-02		17.215
6		0.00		-9.60		5.634e-02		-42.158		1.923e-02		14.747
6		0.00		-10.00		5.206e-02		-42.944		1.854e-02		15.358
6		0.00		-9.60		5.740e-02		-39.370		1.971e-02		20.042
6		0.00		-9.20		5.890e-02		-37.646		1.790e-02		21.374
6		0.00		-8.80		6.332e-02		-41.676		1.710e-02		12.875
6		0.00		-8.40		6.549e-02		-42.990		1.760e-02		12.666
6		0.00		-8.00		6.507e-02		-38.988		1.516e-02		13.852
6		0.00		-7.60		6.565e-02		-40.091		1.655e-02		12.035
6		0.00		-7.20		6.240e-02		-47.533		1.652e-02		15.573
6		0.00		-6.80		6.116e-02		-43.438		1.808e-02		15.569
6		0.00		-6.40		6.013e-02		-44.899		1.688e-02		14.348
6		0.00		-6.00		5.831e-02		-49.679		1.568e-02		15.935
6		0.00		-5.60		5.583e-02		-49.466		1.327e-02		6.628
6		0.00		-5.20		5.338e-02		-49.218		1.090e-02		6.168
6		0.00		-4.80		4.978e-02		-49.288		9.562e-03		4.479
6		0.00		-4.40		4.578e-02		-49.535		9.477e-03		6.109
6		0.00		-4.00		4.142e-02		-50.778		9.276e-03		7.112
6		0.00		-3.60		3.684e-02		-50.411		9.096e-03		8.371
6		0.00		-3.20		3.301e-02		-51.580		8.406e-03		8.335
6		0.00		-2.80		2.852e-02		-52.112		7.899e-03		9.945
6		0.00		-2.40		2.464e-02		-49.087		6.532e-03		9.409
6		0.00		-2.00		2.055e-02		-52.001		4.793e-03		8.586
6		0.00		-1.60		1.611e-02		-44.436		3.154e-03		7.677
6		0.00		-1.20		1.131e-02		-42.471		2.118e-03		10.274
6		0.00		-0.80		6.433e-03		-36.710		1.688e-03		18.643
6		0.00		-0.40		2.225e-03		-18.032		9.847e-04		49.294
7		0.00		0.00		3.491e-03		108.179		1.347e-03		34.685
7		0.00		0.40		8.659e-03		128.398		2.298e-03		17.119
7		0.00		0.80		1.229e-02		127.139		3.072e-03		10.757
7		0.00		1.20		1.725e-02		128.622		3.623e-03		7.403
7		0.00		1.60		2.153e-02		129.984		4.180e-03		6.023
7		0.00		2.00		2.632e-02		131.374		5.048e-03		6.549
7		0.00		2.40		3.080e-02		131.103		6.114e-03		6.252
7		0.00		2.80		3.497e-02		131.725		7.543e-03		6.708
7		0.00		3.20		3.817e-02		130.319		8.803e-03		9.459
7		0.00		3.60		4.174e-02		131.258		1.066e-02		12.580
7		0.00		4.00		4.435e-02		129.676		1.255e-02		13.204
7		0.00		4.40		4.762e-02		129.599		1.296e-02		8.096
7		0.00		4.80		5.002e-02		129.707		1.312e-02		7.665
7		0.00		5.20		5.311e-02		132.042		1.243e-02		6.287
7		0.00		5.60		5.468e-02		133.859		1.254e-02		7.645
7		0.00		6.00		5.812e-02		134.351		1.396e-02		7.032
7		0.00		6.40		6.019e-02		132.936		1.669e-02		8.998
7		0.00		6.80		5.884e-02		130.448		1.860e-02		28.421
7		0.00		7.20		6.093e-02		131.609		1.954e-02		27.021
7		0.00		7.60		6.350e-02		132.323		1.955e-02		22.025
7		0.00		8.00		6.550e-02		130.769		1.859e-02		23.948
7		0.00		8.40		6.565e-02		136.806		1.686e-02		15.054
7		0.00		8.80		6.785e-02		130.606		1.761e-02		38.715
7		0.00		9.20		6.776e-02		123.895		1.900e-02		52.648
7		0.00		9.60		6.530e-02		125.327		1.937e-02		41.469
7		0.00		10.00		6.268e-02		124.113		1.822e-02		39.146
7		0.00		9.60		6.254e-02		127.109		2.034e-02		36.784
7		0.00		9.20		6.040e-02		128.405		1.829e-02		32.616
7		0.00		8.80		6.253e-02		134.466		1.776e-02		16.509
7		0.00		8.40		5.958e-02		133.898		1.629e-02		12.883
7		0.00		8.00		5.886e-02		133.894		1.572e-02		10.309
7		0.00		7.60		5.700e-02		134.253		1.372e-02		7.823
7		0.00		7.20		5.603e-02		133.851		1.276e-02		5.382
7		0.00		6.80		5.155e-02		133.211		1.215e-02		7.800
7		0.00		6.40		4.733e-02		132.142		1.174e-02		7.900
7		0.00		6.00		4.396e-02		131.795		1.177e-02		8.909
7		0.00		5.60		4.004e-02		131.917		1.079e-02		12.987
7		0.00		5.20		3.595e-02		130.504		1.005e-02		12.858
7		0.00		4.80		3.194e-02		130.331		8.876e-03		10.065
7		0.00		4.40		2.778e-02		130.968		6.884e-03		6.501
7		0.00		4.00		2.323e-02		132.795		4.465e-03		6.826
7		0.00		3.60		1.853e-02		131.985		3.707e-03		6.775
7		0.00		3.20		1.312e-02		132.101		2.597e-03		8.722
7		0.00		2.80		7.958e-03		135.859		1.811e-03		18.164
7		0.00		2.40		2.930e-03		98.995		1.128e-03		56.632
7		0.00		2.00		3.225e-03		-59.433		1.084e-03		31.102
7		0.00		1.60		8.245e-03		-61.598		2.227e-03		18.615
7		0.00		1.20		1.346e-02		-51.453		3.525e-03		11.630
7		0.00		0.80		1.884e-02		-50.472		4.055e-03		8.061
7		0.00		0.40		2.460e-02		-51.266		4.505e-03		7.733
7		0.00		0.00		2.950e-02		-51.412		4.778e-03		7.479
7		0.00		-0.40		3.469e-02		-50.809		5.889e-03		5.504
7		0.00		-0.80		3.913e-02		-50.042		7.759e-03		6.270
7		0.00		-1.20		4.360e-02		-50.929		1.021e-02		7.727
7		0.00		-1.60		4.708e-02		-51.161		1.206e-02		8.997
7		0.00		-2.00		5.100e-02		-52.524		1.422e-02		11.342
7		0.00		-2.40		5.486e-02		-54.498		1.551e-02		11.911
7		0.00		-2.80		5.561e-02		-52.761		1.521e-02		8.707
7		0.00		-3.20		6.108e-02		-52.209		1.389e-02		7.659
7		0.00		-3.60		6.168e-02		-48.289		1.365e-02		9.767
7		0.00		-4.00		6.294e-02		-46.669		1.448e-02		11.005
7		0.00		-4.40		6.441e-02		-50.165		1.354e-02		10.193
7		0.00		-4.80		6.481e-02		-46.614		1.702e-02		14.015
7		0.00		-5.20		6.325e-02		-44.503		1.772e-02		12.575
7		0.00		-5.60		6.222e-02		-45.140		1.666e-02		16.791
7		0.00		-6.00		6.307e-02		-46.185		1.693e-02		15.883
7		0.00		-6.40		6.469e-02		-41.661		1.699e-02		16.670
7		0.00		-6.80		6.702e-02		-42.646		1.521e-02		11.604
7		0.00		-7.20		6.768e-02		-43.854		1.641e-02		15.974
7		0.00		-7.60		6.611e-02		-40.551		1.745e-02		22.637
7		0.00		-8.00		6.661e-02		-42.438		1.689e-02		20.874
7		0.00		-8.40		6.377e-02		-34.990		1.770e-02		18.754
7		0.00		-8.80		6.074e-02		-35.291		1.903e-02		20.631
7		0.00		-9.20		5.861e-02		-37.002		2.023e-02		23.187
7		0.00		-9.60		5.720e-02		-37.976		1.972e-02		22.203
7		0.00		-10.00		5.371e-02		-41.089		1.688e-02		17.705
7		0.00		-9.60		5.917e-02		-44.676		1.851e-02		14.775
7		0.00		-9.20		6.307e-02		-40.207		1.815e-02		10.724
7		0.00		-8.80		6.328e-02		-35.168		1.644e-02		12.887
7		0.00		-8.40		6.282e-02		-35.276		1.553e-02		15.330
7		0.00		-8.00		6.491e-02		-43.979		1.694e-02		17.000
7		0.00		-7.60		6.304e-02		-42.590		1.606e-02		13.353
7		0.00		-7.20		6.087e-02		-43.968		1.797e-02		14.888
7		0.00		-6.80		6.151e-02		-46.024		1.711e-02		17.724
7		0.00		-6.40		5.958e-02		-47.111		1.546e-02		13.183
7		0.00		-6.00		6.012e-02		-48.296		1.548e-02		7.607
7		0.00		-5.60		5.766e-02		-49.389		1.285e-02		6.385
7		0.00		-5.20		5.387e-02		-48.366		1.072e-02		5.952
7		0.00		-4.80		5.126e-02		-49.138		9.301e-03		5.463
7		0.00		-4.40		4.657e-02		-50.333		9.184e-03		6.237
7		0.00		-4.00		4.181e-02		-51.799		8.863e-03		7.333
7		0.00		-3.60		3.795e-02		-51.751		8.784e-03		8.171
7		0.00		-3.20		3.374e-02		-50.814		8.822e-03		8.942
7		0.00		-2.80		2.887e-02		-51.229		7.775e-03		9.213
7		0.00		-2.40		2.475e-02		-50.107		6.152e-03		9.740
7		0.00		-2.00		2.035e-02		-48.987		4.406e-03		7.464
7		0.00		-1.60		1.566e-02		-45.972		3.248e-03		9.127
7		0.00		-1.20		1.126e-02		-45.640		2.463e-03		11.005
7		0.00		-0.80		6.425e-03		-45.123		1.691e-03		19.289
7		0.00		-0.40		2.311e-03		-52.397		1.044e-03		48.596
8		0.00		0.00		3.168e-03		102.198		1.378e-03		43.565
8		0.00		0.40		7.199e-03		124.696		2.013e-03		17.885
8		0.00		0.80		1.233e-02		130.103		2.852e-03		9.501
8		0.00		1.20		1.702e-02		129.286		3.412e-03		8.534
8		0.00		1.60		2.167e-02		130.397		3.782e-03		6.924
8		0.00		2.00		2.602e-02		131.458		4.441e-03		6.520
8		0.00		2.40		3.053e-02		131.534		5.544e-03		6.134
8		0.00		2.80		3.417e-02		132.083		7.006e-03		8.180
8		0.00		3.20		3.803e-02		130.938		8.814e-03		9.057
8		0.00		3.60		4.133e-02		131.118		9.735e-03		11.379
8		0.00		4.00		4.477e-02		130.085		1.113e-02		11.653
8		0.00		4.40		4.841e-02		130.443		1.121e-02		7.643
8		0.00		4.80		5.103e-02		132.982		1.042e-02		5.949
8		0.00		5.20		5.415e-02		133.122		1.078e-02		5.150
8		0.00		5.60		5.619e-02		132.462		1.279e-02		9.007
8		0.00		6.00		5.666e-02		130.225		1.595e-02		25.032
8		0.00		6.40		5.897e-02		128.948		1.798e-02		31.091
8		0.00		6.80		5.900e-02		130.395		1.850e-02		27.311
8		0.00		7.20		6.154e-02		130.548		1.833e-02		26.691
8		0.00		7.60		6.234e-02		134.120		1.801e-02		12.717
8		0.00		8.00		6.321e-02		135.475		1.553e-02		23.721
8		0.00		8.40		6.739e-02		130.137		1.695e-02		20.216
8		0.00		8.80		6.824e-02		123.572		1.793e-02		46.188
8		0.00		9.20		6.921e-02		125.826		2.101e-02		34.355
8		0.00		9.60		6.533e-02		123.923		2.030e-02		35.134
8		0.00		10.00		6.210e-02		124.477		2.086e-02		34.401
8		0.00		9.60		6.407e-02		128.089		2.034e-02		34.891
8		0.00		9.20		6.133e-02		131.666		1.712e-02		29.714
8		0.00		8.80		6.619e-02		131.907		2.033e-02		18.914
8		0.00		8.40		6.333e-02		135.571		1.621e-02		10.212
8		0.00		8.00		6.136e-02		135.379		1.489e-02		8.642
8		0.00		7.60		5.880e-02		133.508		1.328e-02		8.361
8		0.00		7.20		5.609e-02		132.294		1.326e-02		9.870
8		0.00		6.80		5.322e-02		131.040		1.451e-02		9.085
8		0.00		6.40		4.906e-02		131.487		1.457e-02		7.390
8		0.00		6.00		4.488e-02		131.429		1.389e-02		9.029
8		0.00		5.60		4.079e-02		128.885		1.259e-02		15.583
8		0.00		5.20		3.663e-02		128.926		1.065e-02		13.172
8		0.00		4.80		3.317e-02		130.426		9.361e-03		10.189
8		0.00		4.40		2.819e-02		129.880		7.250e-03		8.977
8		0.00		4.00		2.412e-02		132.468		5.648e-03		7.836
8		0.00		3.60		1.931e-02		132.646		4.499e-03		8.035
8		0.00		3.20		1.423e-02		133.278		3.006e-03		8.147
8		0.00		2.80		9.179e-03		134.700		2.293e-03		12.011
8		0.00		2.40		4.105e-03		123.876		1.226e-03		29.613
8		0.00		2.00		2.063e-03		-36.455		8.805e-04		49.145
8		0.00		1.60		6.674e-03		-55.034		1.911e-03		19.071
8		0.00		1.20		1.188e-02		-50.478		3.100e-03		11.989
8		0.00		0.80		1.703e-02		-51.392		4.098e-03		8.409
8		0.00		0.40		2.202e-02		-52.383		5.082e-03		7.092
8		0.00		0.00		2.751e-02		-50.830		5.698e-03		8.054
8		0.00		-0.40		3.222e-02		-51.292		5.883e-03		6.860
8		0.00		-0.80		3.753e-02		-49.856		6.803e-03		6.364
8		0.00		-1.20		4.245e-02		-50.547		7.534e-03		5.087
8		0.00		-1.60		4.619e-02		-51.779		1.002e-02		7.240
8		0.00		-2.00		4.962e-02		-52.260		1.235e-02		9.925
8		0.00		-2.40		5.250e-02		-51.886		1.412e-02		9.597
8		0.00		-2.80		5.683e-02		-53.378		1.587e-02		12.779
8		0.00		-3.20		5.793e-02		-53.296		1.741e-02		13.676
8		0.00		-3.60		6.145e-02		-51.868		1.713e-02		7.810
8		0.00		-4.00		6.099e-02		-51.470		1.561e-02		9.149
8		0.00		-4.40		6.421e-02		-47.929		1.484e-02		9.875
8		0.00		-4.80		6.245e-02		-48.215		1.379e-02		12.748
8		0.00		-5.20		6.427e-02		-45.944		1.466e-02		12.558
8		0.00		-5.60		6.483e-02		-46.028		1.595e-02		14.863
8		0.00		-6.00		6.235e-02		-45.737		1.635e-02		19.981
8		0.00		-6.40		6.333e-02		-40.289		1.875e-02		21.204
8		0.00		-6.80		6.131e-02		-42.912		1.847e-02		17.671
8		0.00		-7.20		6.114e-02		-41.810		1.744e-02		22.204
8		0.00		-7.60		6.496e-02		-38.009		2.046e-02		24.386
8		0.00		-8.00		6.417e-02		-39.384		1.863e-02		25.441
8		0.00		-8.40		6.474e-02		-42.336		1.754e-02		19.534
8		0.00		-8.80		6.614e-02		-41.100		1.856e-02		18.340
8		0.00		-9.20		6.326e-02		-36.204		1.709e-02		12.257
8		0.00		-9.60		6.034e-02		-40.892		1.761e-02		11.584
8		0.00		-10.00		5.356e-02		-40.231		1.489e-02		9.311
8		0.00		-9.60		5.721e-02		-41.156		1.729e-02		12.552
8		0.00		-9.20		5.985e-02		-40.615		1.821e-02		15.171
8		0.00		-8.80		6.131e-02		-40.425		2.045e-02		15.279
8		0.00		-8.40		5.919e-02		-41.110		1.804e-02		18.668
8		0.00		-8.00		6.113e-02		-42.709		2.082e-02		23.099
8		0.00		-7.60		6.135e-02		-42.477		2.018e-02		18.986
8		0.00		-7.20		6.072e-02		-47.397		1.925e-02		19.016
8		0.00		-6.80		6.106e-02		-48.715		1.835e-02		12.176
8		0.00		-6.40		5.866e-02		-49.427		1.576e-02		10.470
8		0.00		-6.00		5.778e-02		-48.285		1.362e-02		6.523
8		0.00		-5.60		5.577e-02		-48.720		1.223e-02		6.067
8		0.00		-5.20		5.226e-02		-48.438		1.058e-02		5.277
8		0.00		-4.80		4.826e-02		-49.079		9.228e-03		5.676
8		0.00		-4.40		4.447e-02		-49.011		8.663e-03		5.034
8		0.00		-4.00		4.032e-02		-48.753		7.761e-03		5.641
8		0.00		-3.60		3.638e-02		-50.014		7.540e-03		6.612
8		0.00		-3.20		3.232e-02		-49.395		7.161e-03		8.090
8		0.00		-2.80		2.840e-02		-48.560		6.512e-03		8.062
8		0.00		-2.40		2.382e-02		-47.298		5.484e-03		8.177
8		0.00		-2.00		1.925e-02		-50.214		4.989e-03		11.110
8		0.00		-1.60		1.449e-02		-48.423		3.733e-03		12.667
8		0.00		-1.20		1.005e-02		-46.148		2.935e-03		13.054
8		0.00		-0.80		5.783e-03		-47.140		1.806e-03		17.528
8		0.00		-0.40		1.993e-03		-38.942		8.443e-04		47.598
