# Date of analysis: 2024-03-08 10;58
# Segment other properties: height: -41.93567450242817, diff height: 519.6640969602707, deflection: 33.59113704850395, deflection error: 3.030506994640257, adhesion: 40.47891426261276, phase offset: 0
# 
# Loop index	Read Volt (V)	Write Volt (V)	Amplitude (a.u)	Phase (deg)	Sigma Amp (a.u)	Sigma Pha (deg)	
1		0.00		0.00		1.791e-02		-54.105		3.344e-03		10.486
1		0.00		0.40		1.167e-02		-54.337		2.599e-03		11.680
1		0.00		0.80		6.660e-03		-58.586		1.521e-03		18.254
1		0.00		1.20		1.851e-03		-45.641		7.424e-04		60.836
1		0.00		1.60		4.936e-03		128.056		1.704e-03		30.265
1		0.00		2.00		9.922e-03		130.783		2.710e-03		14.886
1		0.00		2.40		1.441e-02		130.654		3.705e-03		13.068
1		0.00		2.80		1.867e-02		130.007		4.916e-03		12.401
1		0.00		3.20		2.261e-02		128.330		6.084e-03		12.737
1		0.00		3.60		2.620e-02		128.648		7.393e-03		12.944
1		0.00		4.00		2.927e-02		128.286		8.413e-03		13.979
1		0.00		4.40		3.293e-02		128.748		9.615e-03		14.399
1		0.00		4.80		3.568e-02		126.904		1.071e-02		18.955
1		0.00		5.20		3.925e-02		127.101		1.203e-02		21.688
1		0.00		5.60		4.206e-02		126.915		1.229e-02		22.442
1		0.00		6.00		4.504e-02		126.901		1.363e-02		22.133
1		0.00		6.40		4.803e-02		126.973		1.523e-02		22.736
1		0.00		6.80		5.035e-02		128.677		1.594e-02		19.775
1		0.00		7.20		5.294e-02		130.732		1.604e-02		17.405
1		0.00		7.60		5.600e-02		129.908		1.691e-02		21.233
1		0.00		8.00		5.825e-02		130.288		1.785e-02		9.883
1		0.00		8.40		5.796e-02		128.860		1.728e-02		14.964
1		0.00		8.80		6.035e-02		128.428		1.694e-02		16.691
1		0.00		9.20		5.767e-02		127.430		1.579e-02		15.239
1		0.00		9.60		5.466e-02		125.172		1.546e-02		14.014
1		0.00		10.00		4.983e-02		127.134		1.502e-02		15.554
1		0.00		9.60		4.915e-02		125.344		1.412e-02		14.737
1		0.00		9.20		4.837e-02		125.655		1.398e-02		16.278
1		0.00		8.80		4.626e-02		130.263		1.191e-02		12.304
1		0.00		8.40		4.306e-02		129.047		1.165e-02		13.691
1		0.00		8.00		4.002e-02		128.182		1.037e-02		13.881
1		0.00		7.60		3.837e-02		127.510		1.035e-02		13.365
1		0.00		7.20		3.704e-02		127.399		1.016e-02		13.768
1		0.00		6.80		3.403e-02		128.868		9.085e-03		12.457
1		0.00		6.40		3.071e-02		127.275		8.084e-03		15.594
1		0.00		6.00		2.802e-02		127.341		7.649e-03		19.342
1		0.00		5.60		2.504e-02		124.789		7.007e-03		22.836
1		0.00		5.20		2.191e-02		125.831		5.847e-03		26.052
1		0.00		4.80		1.926e-02		126.019		5.163e-03		24.296
1		0.00		4.40		1.576e-02		124.824		4.191e-03		25.448
1		0.00		4.00		1.183e-02		127.763		2.995e-03		14.699
1		0.00		3.60		7.744e-03		126.305		1.969e-03		17.473
1		0.00		3.20		4.075e-03		115.436		1.201e-03		30.760
1		0.00		2.80		2.425e-03		-39.023		1.051e-03		50.249
1		0.00		2.40		5.923e-03		-54.597		1.972e-03		17.103
1		0.00		2.00		1.081e-02		-52.379		2.774e-03		13.167
1		0.00		1.60		1.565e-02		-51.320		3.857e-03		12.371
1		0.00		1.20		2.114e-02		-52.897		4.777e-03		11.358
1		0.00		0.80		2.601e-02		-51.817		6.265e-03		10.987
1		0.00		0.40		3.048e-02		-52.433		7.213e-03		10.769
1		0.00		0.00		3.436e-02		-51.205		8.355e-03		11.687
1		0.00		-0.40		3.788e-02		-52.635		1.002e-02		14.806
1		0.00		-0.80		4.153e-02		-51.903		1.169e-02		14.819
1		0.00		-1.20		4.455e-02		-51.355		1.246e-02		14.509
1		0.00		-1.60		4.670e-02		-52.255		1.319e-02		13.390
1		0.00		-2.00		4.900e-02		-51.954		1.335e-02		8.786
1		0.00		-2.40		5.180e-02		-54.528		1.435e-02		10.209
1		0.00		-2.80		5.421e-02		-53.555		1.250e-02		7.508
1		0.00		-3.20		5.428e-02		-53.384		1.188e-02		8.819
1		0.00		-3.60		5.429e-02		-54.695		1.225e-02		8.690
1		0.00		-4.00		5.319e-02		-55.396		1.126e-02		9.757
1		0.00		-4.40		5.183e-02		-54.870		1.329e-02		15.301
1		0.00		-4.80		5.125e-02		-52.762		1.276e-02		13.128
1		0.00		-5.20		5.210e-02		-50.243		1.330e-02		12.409
1		0.00		-5.60		5.162e-02		-48.715		1.608e-02		16.346
1		0.00		-6.00		5.196e-02		-47.504		1.743e-02		22.055
1		0.00		-6.40		5.171e-02		-47.898		1.817e-02		20.368
1		0.00		-6.80		5.346e-02		-48.473		1.810e-02		11.484
1		0.00		-7.20		5.392e-02		-50.029		1.624e-02		9.326
1		0.00		-7.60		5.582e-02		-50.260		1.552e-02		10.892
1		0.00		-8.00		5.368e-02		-51.220		1.407e-02		13.629
1		0.00		-8.40		5.150e-02		-50.659		1.470e-02		15.736
1		0.00		-8.80		4.889e-02		-49.649		1.436e-02		14.754
1		0.00		-9.20		4.713e-02		-45.474		1.311e-02		11.483
1		0.00		-9.60		4.352e-02		-47.604		1.320e-02		13.224
1		0.00		-10.00		3.722e-02		-45.791		1.167e-02		18.354
1		0.00		-9.60		4.186e-02		-39.851		1.309e-02		18.981
1		0.00		-9.20		4.687e-02		-40.195		1.510e-02		21.157
1		0.00		-8.80		4.973e-02		-45.485		1.475e-02		8.446
1		0.00		-8.40		5.227e-02		-47.432		1.388e-02		7.296
1		0.00		-8.00		5.200e-02		-47.660		1.293e-02		8.463
1		0.00		-7.60		5.021e-02		-47.303		1.161e-02		9.482
1		0.00		-7.20		4.834e-02		-48.710		1.131e-02		9.301
1		0.00		-6.80		4.565e-02		-49.375		1.060e-02		10.906
1		0.00		-6.40		4.276e-02		-48.311		1.039e-02		11.415
1		0.00		-6.00		4.019e-02		-49.722		1.010e-02		10.776
1		0.00		-5.60		3.740e-02		-48.875		9.913e-03		12.805
1		0.00		-5.20		3.412e-02		-50.167		9.439e-03		14.976
1		0.00		-4.80		3.118e-02		-51.011		9.222e-03		15.522
1		0.00		-4.40		2.796e-02		-52.078		8.443e-03		12.769
1		0.00		-4.00		2.505e-02		-50.655		7.073e-03		10.712
1		0.00		-3.60		2.175e-02		-51.795		5.664e-03		9.632
1		0.00		-3.20		1.863e-02		-51.313		4.161e-03		9.627
1		0.00		-2.80		1.549e-02		-51.290		3.255e-03		11.818
1		0.00		-2.40		1.172e-02		-48.305		2.097e-03		14.487
1		0.00		-2.00		7.684e-03		-48.682		1.655e-03		19.608
1		0.00		-1.60		4.044e-03		-37.300		1.362e-03		25.484
1		0.00		-1.20		1.947e-03		28.659		8.481e-04		66.597
1		0.00		-0.80		4.711e-03		116.145		1.533e-03		35.926
1		0.00		-0.40		9.195e-03		122.693		2.580e-03		22.846
2		0.00		0.00		1.327e-02		127.014		3.213e-03		18.570
2		0.00		0.40		1.770e-02		129.085		4.227e-03		10.869
2		0.00		0.80		2.188e-02		128.649		5.077e-03		9.199
2		0.00		1.20		2.656e-02		128.105		5.683e-03		8.023
2		0.00		1.60		3.010e-02		128.958		6.117e-03		8.580
2		0.00		2.00		3.328e-02		130.685		6.894e-03		8.899
2		0.00		2.40		3.658e-02		129.833		8.006e-03		8.573
2		0.00		2.80		3.823e-02		127.904		9.190e-03		11.000
2		0.00		3.20		4.138e-02		131.052		9.723e-03		9.812
2		0.00		3.60		4.283e-02		129.010		1.150e-02		15.823
2		0.00		4.00		4.470e-02		128.270		1.297e-02		22.159
2		0.00		4.40		4.789e-02		128.575		1.374e-02		22.580
2		0.00		4.80		4.917e-02		128.363		1.519e-02		24.190
2		0.00		5.20		5.182e-02		131.278		1.550e-02		9.753
2		0.00		5.60		5.520e-02		130.522		1.504e-02		7.772
2		0.00		6.00		5.659e-02		130.253		1.366e-02		8.557
2		0.00		6.40		5.785e-02		130.804		1.425e-02		11.022
2		0.00		6.80		5.817e-02		130.212		1.470e-02		13.712
2		0.00		7.20		5.850e-02		132.178		1.395e-02		13.346
2		0.00		7.60		5.905e-02		124.730		1.692e-02		17.859
2		0.00		8.00		6.067e-02		129.104		1.541e-02		14.290
2		0.00		8.40		6.010e-02		128.928		1.652e-02		16.790
2		0.00		8.80		6.093e-02		128.849		1.729e-02		16.045
2		0.00		9.20		6.302e-02		131.183		1.787e-02		14.073
2		0.00		9.60		5.860e-02		131.045		1.741e-02		14.174
2		0.00		10.00		5.397e-02		126.474		1.805e-02		21.594
2		0.00		9.60		5.281e-02		125.711		1.790e-02		25.530
2		0.00		9.20		5.217e-02		125.979		1.664e-02		26.566
2		0.00		8.80		5.075e-02		125.785		1.647e-02		24.379
2		0.00		8.40		4.874e-02		128.299		1.533e-02		18.097
2		0.00		8.00		4.575e-02		130.481		1.391e-02		11.278
2		0.00		7.60		4.375e-02		131.287		1.246e-02		7.085
2		0.00		7.20		4.055e-02		130.688		1.029e-02		7.763
2		0.00		6.80		3.818e-02		130.108		9.189e-03		7.891
2		0.00		6.40		3.580e-02		130.434		7.732e-03		7.153
2		0.00		6.00		3.251e-02		129.727		6.417e-03		8.224
2		0.00		5.60		2.879e-02		130.394		5.628e-03		8.685
2		0.00		5.20		2.529e-02		128.641		4.793e-03		8.664
2		0.00		4.80		2.126e-02		129.187		3.893e-03		10.123
2		0.00		4.40		1.712e-02		130.323		2.930e-03		11.958
2		0.00		4.00		1.280e-02		131.744		2.185e-03		11.997
2		0.00		3.60		7.820e-03		130.105		1.776e-03		13.642
2		0.00		3.20		3.220e-03		106.652		1.172e-03		46.001
2		0.00		2.80		2.693e-03		-35.316		9.907e-04		45.534
2		0.00		2.40		7.668e-03		-50.676		2.335e-03		16.810
2		0.00		2.00		1.254e-02		-47.334		3.361e-03		14.352
2		0.00		1.60		1.688e-02		-51.847		5.075e-03		15.626
2		0.00		1.20		2.184e-02		-52.329		6.087e-03		14.952
2		0.00		0.80		2.668e-02		-51.619		7.829e-03		13.838
2		0.00		0.40		3.059e-02		-49.299		9.333e-03		12.799
2		0.00		0.00		3.467e-02		-50.849		1.023e-02		10.559
2		0.00		-0.40		3.926e-02		-49.605		1.156e-02		9.139
2		0.00		-0.80		4.338e-02		-50.399		1.233e-02		8.371
2		0.00		-1.20		4.789e-02		-51.486		1.359e-02		6.614
2		0.00		-1.60		5.148e-02		-52.746		1.345e-02		7.141
2		0.00		-2.00		5.448e-02		-53.108		1.352e-02		7.086
2		0.00		-2.40		5.626e-02		-53.435		1.302e-02		7.527
2		0.00		-2.80		5.883e-02		-53.553		1.256e-02		6.715
2		0.00		-3.20		5.868e-02		-53.510		1.287e-02		8.338
2		0.00		-3.60		5.798e-02		-52.011		1.207e-02		9.170
2		0.00		-4.00		5.647e-02		-52.441		1.129e-02		8.249
2		0.00		-4.40		5.671e-02		-52.829		1.159e-02		7.560
2		0.00		-4.80		5.626e-02		-52.873		1.195e-02		11.217
2		0.00		-5.20		5.553e-02		-51.458		1.195e-02		10.544
2		0.00		-5.60		5.390e-02		-50.788		1.254e-02		11.459
2		0.00		-6.00		5.493e-02		-51.843		1.408e-02		13.244
2		0.00		-6.40		5.469e-02		-49.694		1.346e-02		11.971
2		0.00		-6.80		5.445e-02		-48.246		1.331e-02		11.532
2		0.00		-7.20		5.479e-02		-47.551		1.422e-02		13.212
2		0.00		-7.60		5.731e-02		-48.282		1.571e-02		13.665
2		0.00		-8.00		5.797e-02		-48.055		1.652e-02		12.920
2		0.00		-8.40		5.471e-02		-46.283		1.604e-02		12.370
2		0.00		-8.80		5.167e-02		-47.758		1.568e-02		19.270
2		0.00		-9.20		4.906e-02		-47.987		1.506e-02		21.464
2		0.00		-9.60		4.422e-02		-43.719		1.361e-02		22.538
2		0.00		-10.00		3.851e-02		-40.943		1.191e-02		15.312
2		0.00		-9.60		4.443e-02		-41.735		1.363e-02		20.584
2		0.00		-9.20		4.842e-02		-39.987		1.521e-02		25.741
2		0.00		-8.80		4.984e-02		-44.306		1.509e-02		20.845
2		0.00		-8.40		5.239e-02		-42.254		1.553e-02		19.677
2		0.00		-8.00		5.319e-02		-44.885		1.586e-02		13.925
2		0.00		-7.60		5.189e-02		-47.258		1.483e-02		11.168
2		0.00		-7.20		5.028e-02		-46.753		1.398e-02		9.364
2		0.00		-6.80		4.789e-02		-46.685		1.265e-02		8.162
2		0.00		-6.40		4.546e-02		-48.811		1.268e-02		8.748
2		0.00		-6.00		4.222e-02		-48.088		1.108e-02		8.085
2		0.00		-5.60		3.894e-02		-49.104		9.798e-03		8.429
2		0.00		-5.20		3.576e-02		-48.568		8.875e-03		7.578
2		0.00		-4.80		3.299e-02		-50.994		7.823e-03		7.648
2		0.00		-4.40		2.923e-02		-51.587		6.692e-03		8.961
2		0.00		-4.00		2.549e-02		-51.691		5.418e-03		8.931
2		0.00		-3.60		2.193e-02		-49.882		4.389e-03		9.314
2		0.00		-3.20		1.872e-02		-51.044		3.488e-03		11.001
2		0.00		-2.80		1.568e-02		-50.887		3.022e-03		12.215
2		0.00		-2.40		1.193e-02		-48.522		2.101e-03		12.496
2		0.00		-2.00		7.972e-03		-49.793		1.767e-03		16.707
2		0.00		-1.60		4.003e-03		-52.175		1.260e-03		25.124
2		0.00		-1.20		2.132e-03		34.759		8.434e-04		70.488
2		0.00		-0.80		4.780e-03		117.889		1.484e-03		22.161
2		0.00		-0.40		8.705e-03		128.492		2.193e-03		14.187
3		0.00		0.00		1.319e-02		129.874		2.653e-03		11.837
3		0.00		0.40		1.714e-02		130.722		3.511e-03		8.912
3		0.00		0.80		2.151e-02		129.247		4.028e-03		8.128
3		0.00		1.20		2.491e-02		130.445		5.270e-03		8.298
3		0.00		1.60		2.829e-02		130.683		6.026e-03		10.023
3		0.00		2.00		3.132e-02		130.833		7.310e-03		9.022
3		0.00		2.40		3.449e-02		131.187		8.395e-03		11.558
3		0.00		2.80		3.747e-02		129.900		9.329e-03		11.726
3		0.00		3.20		4.039e-02		129.764		1.046e-02		12.995
3		0.00		3.60		4.209e-02		129.654		1.127e-02		14.259
3		0.00		4.00		4.494e-02		129.662		1.213e-02		15.250
3		0.00		4.40		4.714e-02		128.929		1.317e-02		17.906
3		0.00		4.80		4.930e-02		130.042		1.376e-02		19.922
3		0.00		5.20		5.169e-02		130.696		1.401e-02		15.400
3		0.00		5.60		5.394e-02		129.842		1.544e-02		19.549
3		0.00		6.00		5.544e-02		130.830		1.609e-02		18.209
3		0.00		6.40		5.582e-02		131.263		1.663e-02		14.939
3		0.00		6.80		5.756e-02		129.756		1.740e-02		17.730
3		0.00		7.20		5.980e-02		130.472		1.740e-02		17.022
3		0.00		7.60		6.112e-02		132.190		1.682e-02		9.754
3		0.00		8.00		6.256e-02		132.418		1.743e-02		9.723
3		0.00		8.40		6.301e-02		134.047		1.613e-02		9.396
3		0.00		8.80		6.312e-02		129.367		1.663e-02		12.561
3		0.00		9.20		6.239e-02		130.810		1.764e-02		12.301
3		0.00		9.60		5.918e-02		122.481		1.762e-02		29.232
3		0.00		10.00		5.494e-02		127.024		1.766e-02		13.518
3		0.00		9.60		5.346e-02		126.067		1.499e-02		12.914
3		0.00		9.20		5.393e-02		126.796		1.536e-02		12.069
3		0.00		8.80		5.112e-02		126.302		1.408e-02		13.898
3		0.00		8.40		4.832e-02		128.130		1.221e-02		12.287
3		0.00		8.00		4.481e-02		129.001		1.120e-02		12.775
3		0.00		7.60		4.343e-02		128.733		1.053e-02		11.728
3		0.00		7.20		4.086e-02		130.748		9.124e-03		10.623
3		0.00		6.80		3.857e-02		131.142		8.257e-03		10.151
3		0.00		6.40		3.563e-02		130.264		7.741e-03		10.297
3		0.00		6.00		3.172e-02		130.212		7.418e-03		10.300
3		0.00		5.60		2.890e-02		131.704		6.356e-03		9.995
3		0.00		5.20		2.517e-02		132.779		5.576e-03		11.691
3		0.00		4.80		2.110e-02		132.816		4.600e-03		13.133
3		0.00		4.40		1.719e-02		132.341		3.877e-03		15.368
3		0.00		4.00		1.291e-02		129.891		2.994e-03		16.320
3		0.00		3.60		8.439e-03		127.335		2.111e-03		19.925
3		0.00		3.20		3.686e-03		119.809		1.073e-03		41.742
3		0.00		2.80		2.347e-03		-31.868		9.698e-04		50.669
3		0.00		2.40		6.211e-03		-53.812		2.071e-03		20.775
3		0.00		2.00		1.131e-02		-51.711		3.672e-03		14.545
3		0.00		1.60		1.601e-02		-50.035		4.772e-03		12.293
3		0.00		1.20		2.079e-02		-51.657		6.134e-03		10.394
3		0.00		0.80		2.544e-02		-49.597		7.319e-03		7.913
3		0.00		0.40		3.016e-02		-50.033		8.187e-03		8.966
3		0.00		0.00		3.489e-02		-50.862		8.750e-03		7.824
3		0.00		-0.40		3.991e-02		-50.777		9.326e-03		7.089
3		0.00		-0.80		4.364e-02		-51.624		9.857e-03		7.384
3		0.00		-1.20		4.826e-02		-51.924		1.000e-02		7.373
3		0.00		-1.60		5.188e-02		-52.068		1.019e-02		6.760
3		0.00		-2.00		5.471e-02		-52.476		1.094e-02		7.496
3		0.00		-2.40		5.597e-02		-53.361		1.110e-02		8.043
3		0.00		-2.80		5.693e-02		-54.314		1.164e-02		10.222
3		0.00		-3.20		5.514e-02		-54.320		1.230e-02		12.989
3		0.00		-3.60		5.583e-02		-54.141		1.322e-02		12.129
3		0.00		-4.00		5.645e-02		-52.486		1.398e-02		11.260
3		0.00		-4.40		5.544e-02		-52.020		1.404e-02		11.294
3		0.00		-4.80		5.438e-02		-52.981		1.604e-02		16.550
3		0.00		-5.20		5.328e-02		-51.198		1.652e-02		14.861
3		0.00		-5.60		5.282e-02		-48.405		1.685e-02		13.813
3		0.00		-6.00		5.237e-02		-45.862		1.723e-02		20.295
3		0.00		-6.40		5.361e-02		-43.202		1.811e-02		17.044
3		0.00		-6.80		5.392e-02		-48.517		1.742e-02		12.578
3		0.00		-7.20		5.442e-02		-47.505		1.701e-02		8.131
3		0.00		-7.60		5.366e-02		-47.917		1.615e-02		8.744
3		0.00		-8.00		5.511e-02		-47.376		1.528e-02		8.122
3		0.00		-8.40		5.341e-02		-46.066		1.401e-02		9.500
3		0.00		-8.80		5.109e-02		-46.045		1.325e-02		10.325
3		0.00		-9.20		4.800e-02		-45.029		1.250e-02		10.701
3		0.00		-9.60		4.280e-02		-45.779		1.138e-02		12.007
3		0.00		-10.00		3.698e-02		-44.883		9.388e-03		11.216
3		0.00		-9.60		4.136e-02		-45.127		1.069e-02		10.284
3		0.00		-9.20		4.577e-02		-43.762		1.226e-02		11.184
3		0.00		-8.80		4.831e-02		-46.084		1.372e-02		12.190
3		0.00		-8.40		4.992e-02		-45.689		1.428e-02		12.834
3		0.00		-8.00		4.939e-02		-47.080		1.435e-02		15.832
3		0.00		-7.60		4.941e-02		-47.191		1.419e-02		16.068
3		0.00		-7.20		4.715e-02		-46.203		1.450e-02		17.712
3		0.00		-6.80		4.384e-02		-46.568		1.405e-02		15.130
3		0.00		-6.40		4.188e-02		-46.346		1.246e-02		9.290
3		0.00		-6.00		3.983e-02		-47.211		1.122e-02		8.121
3		0.00		-5.60		3.686e-02		-47.864		9.362e-03		8.825
3		0.00		-5.20		3.430e-02		-48.698		8.012e-03		8.458
3		0.00		-4.80		3.153e-02		-50.479		6.511e-03		8.962
3		0.00		-4.40		2.798e-02		-51.839		5.747e-03		10.017
3		0.00		-4.00		2.452e-02		-50.373		4.741e-03		10.760
3		0.00		-3.60		2.165e-02		-51.126		4.261e-03		11.299
3		0.00		-3.20		1.823e-02		-50.535		3.918e-03		12.391
3		0.00		-2.80		1.458e-02		-49.180		3.046e-03		13.920
3		0.00		-2.40		1.111e-02		-47.788		2.533e-03		14.492
3		0.00		-2.00		7.286e-03		-40.800		2.029e-03		18.121
3		0.00		-1.60		3.440e-03		-49.230		1.290e-03		29.092
3		0.00		-1.20		2.020e-03		33.762		7.929e-04		64.603
3		0.00		-0.80		4.598e-03		114.717		1.831e-03		29.765
3		0.00		-0.40		8.679e-03		125.672		2.421e-03		12.906
4		0.00		0.00		1.310e-02		129.971		3.097e-03		9.457
4		0.00		0.40		1.730e-02		130.158		3.452e-03		8.093
4		0.00		0.80		2.036e-02		130.391		3.916e-03		8.956
4		0.00		1.20		2.399e-02		129.083		5.072e-03		8.690
4		0.00		1.60		2.781e-02		130.857		6.183e-03		9.204
4		0.00		2.00		3.040e-02		130.781		7.176e-03		8.053
4		0.00		2.40		3.361e-02		130.509		8.833e-03		10.896
4		0.00		2.80		3.620e-02		128.712		1.067e-02		19.055
4		0.00		3.20		3.902e-02		127.836		1.187e-02		20.409
4		0.00		3.60		4.078e-02		130.415		1.259e-02		14.181
4		0.00		4.00		4.406e-02		131.706		1.303e-02		6.681
4		0.00		4.40		4.678e-02		130.779		1.230e-02		7.222
4		0.00		4.80		4.969e-02		132.392		1.177e-02		6.841
4		0.00		5.20		5.138e-02		131.150		1.135e-02		7.712
4		0.00		5.60		5.265e-02		129.967		1.252e-02		10.056
4		0.00		6.00		5.208e-02		130.323		1.308e-02		11.410
4		0.00		6.40		5.469e-02		129.599		1.485e-02		12.496
4		0.00		6.80		5.652e-02		130.293		1.599e-02		15.239
4		0.00		7.20		5.816e-02		128.165		1.753e-02		22.381
4		0.00		7.60		6.067e-02		129.317		1.872e-02		18.708
4		0.00		8.00		6.167e-02		131.133		1.848e-02		8.969
4		0.00		8.40		6.086e-02		133.048		1.613e-02		11.515
4		0.00		8.80		6.181e-02		130.870		1.677e-02		13.878
4		0.00		9.20		5.888e-02		123.520		1.753e-02		22.019
4		0.00		9.60		5.660e-02		122.762		1.870e-02		18.204
4		0.00		10.00		5.577e-02		128.509		1.872e-02		15.141
4		0.00		9.60		5.430e-02		125.877		1.876e-02		20.710
4		0.00		9.20		5.396e-02		125.877		1.890e-02		29.062
4		0.00		8.80		5.210e-02		128.717		1.757e-02		19.616
4		0.00		8.40		4.970e-02		132.073		1.497e-02		9.230
4		0.00		8.00		4.763e-02		131.543		1.226e-02		8.647
4		0.00		7.60		4.514e-02		130.985		1.035e-02		8.802
4		0.00		7.20		4.187e-02		130.779		9.235e-03		10.456
4		0.00		6.80		3.870e-02		132.133		8.364e-03		9.256
4		0.00		6.40		3.575e-02		131.303		8.984e-03		10.647
4		0.00		6.00		3.215e-02		130.970		8.515e-03		17.418
4		0.00		5.60		2.946e-02		128.879		7.978e-03		21.344
4		0.00		5.20		2.597e-02		132.237		6.702e-03		15.258
4		0.00		4.80		2.269e-02		133.368		4.964e-03		8.519
4		0.00		4.40		1.874e-02		131.792		3.683e-03		9.284
4		0.00		4.00		1.412e-02		132.085		2.544e-03		10.309
4		0.00		3.60		9.632e-03		134.605		1.742e-03		11.559
4		0.00		3.20		4.886e-03		131.253		1.589e-03		22.105
4		0.00		2.80		2.056e-03		-18.910		8.526e-04		65.407
4		0.00		2.40		5.446e-03		-47.765		2.003e-03		21.516
4		0.00		2.00		9.670e-03		-51.269		3.431e-03		16.700
4		0.00		1.60		1.452e-02		-54.201		4.653e-03		13.229
4		0.00		1.20		1.982e-02		-52.055		5.633e-03		9.460
4		0.00		0.80		2.460e-02		-51.507		6.162e-03		9.066
4		0.00		0.40		2.934e-02		-52.147		6.862e-03		9.653
4		0.00		0.00		3.350e-02		-50.372		7.871e-03		10.404
4		0.00		-0.40		3.693e-02		-50.858		9.339e-03		11.417
4		0.00		-0.80		4.043e-02		-50.907		1.078e-02		15.370
4		0.00		-1.20		4.380e-02		-51.357		1.174e-02		16.071
4		0.00		-1.60		4.760e-02		-50.570		1.314e-02		10.420
4		0.00		-2.00		5.161e-02		-51.387		1.309e-02		7.467
4		0.00		-2.40		5.412e-02		-52.060		1.235e-02		7.095
4		0.00		-2.80		5.617e-02		-52.538		1.151e-02		7.193
4		0.00		-3.20		5.676e-02		-54.493		1.209e-02		9.756
4		0.00		-3.60		5.385e-02		-53.333		1.156e-02		12.115
4		0.00		-4.00		5.612e-02		-51.337		1.232e-02		9.797
4		0.00		-4.40		5.610e-02		-51.578		1.410e-02		11.852
4		0.00		-4.80		5.554e-02		-50.805		1.487e-02		15.401
4		0.00		-5.20		5.660e-02		-49.884		1.545e-02		14.764
4		0.00		-5.60		5.605e-02		-48.956		1.718e-02		9.986
4		0.00		-6.00		5.572e-02		-48.079		1.598e-02		8.244
4		0.00		-6.40		5.656e-02		-47.600		1.361e-02		7.547
4		0.00		-6.80		5.588e-02		-47.471		1.233e-02		8.763
4		0.00		-7.20		5.763e-02		-47.893		1.294e-02		9.125
4		0.00		-7.60		5.488e-02		-49.643		1.413e-02		13.718
4		0.00		-8.00		5.439e-02		-47.369		1.379e-02		13.338
4		0.00		-8.40		5.367e-02		-47.092		1.531e-02		11.705
4		0.00		-8.80		5.121e-02		-46.158		1.550e-02		16.316
4		0.00		-9.20		4.838e-02		-42.294		1.537e-02		18.373
4		0.00		-9.60		4.534e-02		-35.176		1.458e-02		23.209
4		0.00		-10.00		3.915e-02		-38.419		1.204e-02		19.019
4		0.00		-9.60		4.452e-02		-44.323		1.313e-02		8.723
4		0.00		-9.20		4.995e-02		-44.531		1.346e-02		8.403
4		0.00		-8.80		5.157e-02		-45.062		1.320e-02		8.984
4		0.00		-8.40		5.373e-02		-46.768		1.289e-02		9.182
4		0.00		-8.00		5.329e-02		-47.329		1.247e-02		11.037
4		0.00		-7.60		5.039e-02		-47.449		1.188e-02		11.265
4		0.00		-7.20		4.960e-02		-46.031		1.160e-02		9.851
4		0.00		-6.80		4.668e-02		-47.319		1.241e-02		11.329
4		0.00		-6.40		4.355e-02		-47.226		1.180e-02		13.456
4		0.00		-6.00		4.032e-02		-48.496		1.213e-02		17.485
4		0.00		-5.60		3.821e-02		-50.087		1.151e-02		16.264
4		0.00		-5.20		3.548e-02		-47.926		1.068e-02		10.066
4		0.00		-4.80		3.229e-02		-50.032		9.176e-03		8.249
4		0.00		-4.40		2.887e-02		-49.575		7.169e-03		8.248
4		0.00		-4.00		2.613e-02		-51.421		6.014e-03		6.791
4		0.00		-3.60		2.256e-02		-50.382		4.419e-03		9.587
4		0.00		-3.20		1.871e-02		-49.487		3.595e-03		11.094
4		0.00		-2.80		1.530e-02		-46.974		2.830e-03		11.437
4		0.00		-2.40		1.221e-02		-48.583		2.254e-03		11.727
4		0.00		-2.00		8.283e-03		-46.670		1.644e-03		13.952
4		0.00		-1.60		4.138e-03		-42.159		1.548e-03		23.881
4		0.00		-1.20		1.809e-03		15.185		7.489e-04		66.799
4		0.00		-0.80		4.274e-03		113.367		1.476e-03		34.012
4		0.00		-0.40		8.370e-03		122.682		2.090e-03		20.428
5		0.00		0.00		1.265e-02		126.982		3.240e-03		17.816
5		0.00		0.40		1.618e-02		126.725		4.205e-03		17.166
5		0.00		0.80		2.063e-02		129.947		5.016e-03		11.992
5		0.00		1.20		2.418e-02		131.928		5.868e-03		8.622
5		0.00		1.60		2.773e-02		130.822		6.664e-03		7.353
5		0.00		2.00		3.165e-02		131.067		7.168e-03		6.764
5		0.00		2.40		3.522e-02		131.381		7.664e-03		6.231
5		0.00		2.80		3.882e-02		130.949		7.966e-03		6.242
5		0.00		3.20		4.160e-02		131.620		8.098e-03		6.651
5		0.00		3.60		4.309e-02		130.683		8.800e-03		7.734
5		0.00		4.00		4.580e-02		130.881		9.329e-03		7.907
5		0.00		4.40		4.785e-02		131.450		1.013e-02		7.361
5		0.00		4.80		4.870e-02		130.975		1.145e-02		9.851
5		0.00		5.20		5.198e-02		130.935		1.227e-02		8.714
5		0.00		5.60		5.297e-02		131.038		1.390e-02		10.820
5		0.00		6.00		5.502e-02		131.361		1.444e-02		11.633
5		0.00		6.40		5.692e-02		130.278		1.574e-02		14.229
5		0.00		6.80		5.765e-02		129.965		1.665e-02		18.240
5		0.00		7.20		6.014e-02		130.164		1.776e-02		19.710
5		0.00		7.60		6.111e-02		129.580		1.833e-02		19.845
5		0.00		8.00		6.126e-02		130.658		1.830e-02		18.823
5		0.00		8.40		6.232e-02		132.090		1.926e-02		18.856
5		0.00		8.80		6.322e-02		127.174		2.008e-02		31.521
5		0.00		9.20		6.483e-02		129.591		2.061e-02		18.020
5		0.00		9.60		6.125e-02		128.106		2.106e-02		15.301
5		0.00		10.00		5.833e-02		130.391		2.070e-02		10.784
5		0.00		9.60		5.795e-02		130.041		1.950e-02		9.627
5		0.00		9.20		5.651e-02		129.678		1.758e-02		8.902
5		0.00		8.80		5.422e-02		130.683		1.550e-02		8.662
5		0.00		8.40		5.135e-02		132.137		1.360e-02		8.984
5		0.00		8.00		4.819e-02		131.420		1.222e-02		9.510
5		0.00		7.60		4.474e-02		130.918		1.083e-02		10.326
5		0.00		7.20		4.303e-02		130.730		9.815e-03		9.584
5		0.00		6.80		4.092e-02		131.285		8.786e-03		9.989
5		0.00		6.40		3.761e-02		130.675		7.399e-03		10.048
5		0.00		6.00		3.521e-02		132.276		6.556e-03		8.889
5		0.00		5.60		3.057e-02		132.133		5.798e-03		9.776
5		0.00		5.20		2.759e-02		132.245		5.331e-03		9.512
5		0.00		4.80		2.362e-02		132.045		4.488e-03		10.504
5		0.00		4.40		1.936e-02		134.480		3.674e-03		10.478
5		0.00		4.00		1.514e-02		134.716		2.926e-03		9.480
5		0.00		3.60		1.025e-02		134.573		2.152e-03		11.459
5		0.00		3.20		5.496e-03		132.316		1.441e-03		22.585
5		0.00		2.80		2.058e-03		-5.435		8.203e-04		82.083
5		0.00		2.40		5.131e-03		-54.848		2.064e-03		23.243
5		0.00		2.00		9.501e-03		-52.024		3.142e-03		14.897
5		0.00		1.60		1.401e-02		-49.831		4.106e-03		12.721
5		0.00		1.20		1.880e-02		-51.192		5.248e-03		14.593
5		0.00		0.80		2.321e-02		-49.862		6.709e-03		15.024
5		0.00		0.40		2.801e-02		-50.534		7.958e-03		12.534
5		0.00		0.00		3.260e-02		-49.923		9.003e-03		12.363
5		0.00		-0.40		3.709e-02		-50.599		1.026e-02		9.922
5		0.00		-0.80		4.104e-02		-50.962		1.117e-02		8.423
5		0.00		-1.20		4.525e-02		-50.566		1.150e-02		6.864
5		0.00		-1.60		4.864e-02		-51.772		1.212e-02		6.481
5		0.00		-2.00		5.178e-02		-50.869		1.218e-02		6.178
5		0.00		-2.40		5.495e-02		-52.227		1.308e-02		5.465
5		0.00		-2.80		5.727e-02		-51.590		1.371e-02		7.630
5		0.00		-3.20		5.785e-02		-53.141		1.328e-02		6.756
5		0.00		-3.60		5.815e-02		-51.704		1.320e-02		7.517
5		0.00		-4.00		5.898e-02		-53.186		1.281e-02		8.153
5		0.00		-4.40		5.863e-02		-52.434		1.277e-02		8.667
5		0.00		-4.80		5.721e-02		-50.971		1.263e-02		9.791
5		0.00		-5.20		5.655e-02		-50.734		1.291e-02		10.177
5		0.00		-5.60		5.652e-02		-51.631		1.427e-02		11.879
5		0.00		-6.00		5.528e-02		-50.048		1.434e-02		11.839
5		0.00		-6.40		5.427e-02		-49.792		1.398e-02		12.317
5		0.00		-6.80		5.418e-02		-48.577		1.353e-02		12.092
5		0.00		-7.20		5.428e-02		-48.339		1.449e-02		12.959
5		0.00		-7.60		5.490e-02		-49.069		1.524e-02		13.495
5		0.00		-8.00		5.436e-02		-47.714		1.585e-02		14.195
5		0.00		-8.40		5.355e-02		-47.731		1.661e-02		15.297
5		0.00		-8.80		5.141e-02		-44.424		1.520e-02		13.570
5		0.00		-9.20		4.853e-02		-44.255		1.537e-02		17.874
5		0.00		-9.60		4.444e-02		-47.552		1.381e-02		21.251
5		0.00		-10.00		3.919e-02		-35.564		1.236e-02		16.666
5		0.00		-9.60		4.414e-02		-37.697		1.419e-02		22.809
5		0.00		-9.20		4.876e-02		-37.082		1.503e-02		24.620
5		0.00		-8.80		5.128e-02		-41.598		1.548e-02		16.559
5		0.00		-8.40		5.349e-02		-42.978		1.611e-02		13.158
5		0.00		-8.00		5.379e-02		-46.992		1.554e-02		13.574
5		0.00		-7.60		5.180e-02		-47.081		1.445e-02		7.727
5		0.00		-7.20		5.030e-02		-46.229		1.316e-02		7.799
5		0.00		-6.80		4.732e-02		-46.571		1.228e-02		8.095
5		0.00		-6.40		4.452e-02		-47.307		1.121e-02		6.684
5		0.00		-6.00		4.227e-02		-47.162		9.723e-03		7.593
5		0.00		-5.60		3.909e-02		-47.559		8.692e-03		8.239
5		0.00		-5.20		3.632e-02		-47.969		7.864e-03		7.969
5		0.00		-4.80		3.343e-02		-48.881		6.890e-03		8.025
5		0.00		-4.40		2.930e-02		-49.181		5.716e-03		8.733
5		0.00		-4.00		2.651e-02		-50.834		4.931e-03		9.198
5		0.00		-3.60		2.278e-02		-49.783		4.440e-03		10.511
5		0.00		-3.20		1.989e-02		-48.963		3.728e-03		9.741
5		0.00		-2.80		1.590e-02		-44.948		2.796e-03		10.169
5		0.00		-2.40		1.212e-02		-45.169		2.137e-03		11.474
5		0.00		-2.00		7.927e-03		-40.658		1.585e-03		17.413
5		0.00		-1.60		4.192e-03		-46.056		1.508e-03		23.607
5		0.00		-1.20		1.955e-03		26.995		7.360e-04		75.091
5		0.00		-0.80		4.463e-03		121.512		1.486e-03		31.610
5		0.00		-0.40		8.338e-03		121.994		2.093e-03		12.323
6		0.00		0.00		1.247e-02		129.808		2.953e-03		13.183
6		0.00		0.40		1.629e-02		128.420		3.913e-03		13.742
6		0.00		0.80		2.029e-02		130.191		4.899e-03		15.884
6		0.00		1.20		2.380e-02		128.724		5.995e-03		16.024
6		0.00		1.60		2.719e-02		128.221		7.179e-03		17.291
6		0.00		2.00		3.044e-02		128.577		8.442e-03		18.933
6		0.00		2.40		3.393e-02		127.376		9.565e-03		20.166
6		0.00		2.80		3.710e-02		127.908		1.079e-02		18.376
6		0.00		3.20		3.944e-02		129.538		1.180e-02		16.271
6		0.00		3.60		4.198e-02		131.231		1.298e-02		10.399
6		0.00		4.00		4.428e-02		132.323		1.320e-02		6.511
6		0.00		4.40		4.733e-02		132.060		1.371e-02		5.730
6		0.00		4.80		4.991e-02		131.953		1.310e-02		6.257
6		0.00		5.20		5.207e-02		131.573		1.297e-02		6.742
6		0.00		5.60		5.454e-02		131.672		1.326e-02		6.686
6		0.00		6.00		5.531e-02		132.938		1.318e-02		7.903
6		0.00		6.40		5.782e-02		131.005		1.329e-02		8.746
6		0.00		6.80		5.741e-02		131.370		1.318e-02		10.731
6		0.00		7.20		5.933e-02		131.167		1.332e-02		11.163
6		0.00		7.60		5.978e-02		129.222		1.525e-02		13.405
6		0.00		8.00		5.978e-02		130.283		1.450e-02		14.371
6		0.00		8.40		6.211e-02		129.502		1.649e-02		13.615
6		0.00		8.80		6.219e-02		131.097		1.735e-02		12.360
6		0.00		9.20		6.248e-02		128.260		1.987e-02		15.922
6		0.00		9.60		6.105e-02		128.374		2.168e-02		14.156
6		0.00		10.00		5.729e-02		128.276		2.057e-02		14.308
6		0.00		9.60		5.716e-02		124.590		1.972e-02		22.803
6		0.00		9.20		5.739e-02		127.444		1.998e-02		22.464
6		0.00		8.80		5.631e-02		126.842		1.867e-02		25.829
6		0.00		8.40		5.370e-02		128.160		1.768e-02		23.068
6		0.00		8.00		5.148e-02		128.864		1.688e-02		19.019
6		0.00		7.60		4.884e-02		132.463		1.468e-02		11.604
6		0.00		7.20		4.588e-02		132.082		1.208e-02		8.011
6		0.00		6.80		4.422e-02		132.318		1.055e-02		6.811
6		0.00		6.40		4.085e-02		132.418		9.058e-03		7.631
6		0.00		6.00		3.754e-02		131.600		7.742e-03		7.609
6		0.00		5.60		3.381e-02		132.793		6.511e-03		7.997
6		0.00		5.20		2.991e-02		133.145		5.100e-03		8.959
6		0.00		4.80		2.591e-02		132.801		4.076e-03		8.945
6		0.00		4.40		2.131e-02		133.867		3.841e-03		10.290
6		0.00		4.00		1.689e-02		134.048		3.027e-03		9.577
6		0.00		3.60		1.197e-02		134.136		2.152e-03		9.637
6		0.00		3.20		7.243e-03		135.929		1.586e-03		13.900
6		0.00		2.80		2.782e-03		77.897		1.044e-03		77.476
6		0.00		2.40		3.439e-03		-43.246		1.473e-03		37.737
6		0.00		2.00		7.584e-03		-50.235		2.603e-03		18.301
6		0.00		1.60		1.237e-02		-51.003		3.796e-03		13.775
6		0.00		1.20		1.688e-02		-54.673		5.334e-03		13.363
6		0.00		0.80		2.152e-02		-52.108		6.589e-03		14.458
6		0.00		0.40		2.589e-02		-52.292		7.758e-03		12.565
6		0.00		0.00		3.062e-02		-51.377		9.060e-03		8.821
6		0.00		-0.40		3.519e-02		-51.264		8.721e-03		7.915
6		0.00		-0.80		3.956e-02		-51.373		9.013e-03		7.032
6		0.00		-1.20		4.313e-02		-51.920		8.488e-03		7.388
6		0.00		-1.60		4.631e-02		-52.272		8.944e-03		7.659
6		0.00		-2.00		4.830e-02		-53.181		9.169e-03		9.513
6		0.00		-2.40		5.070e-02		-51.954		9.980e-03		9.023
6		0.00		-2.80		5.110e-02		-51.308		1.017e-02		9.348
6		0.00		-3.20		5.234e-02		-51.694		1.182e-02		11.282
6		0.00		-3.60		5.288e-02		-51.747		1.207e-02		10.874
6		0.00		-4.00		5.426e-02		-52.768		1.383e-02		13.222
6		0.00		-4.40		5.546e-02		-53.097		1.479e-02		12.919
6		0.00		-4.80		5.481e-02		-51.574		1.608e-02		15.714
6		0.00		-5.20		5.526e-02		-49.216		1.737e-02		17.620
6		0.00		-5.60		5.511e-02		-50.247		1.758e-02		12.042
6		0.00		-6.00		5.524e-02		-48.173		1.685e-02		8.658
6		0.00		-6.40		5.513e-02		-47.676		1.546e-02		8.389
6		0.00		-6.80		5.520e-02		-45.887		1.405e-02		7.745
6		0.00		-7.20		5.703e-02		-47.396		1.382e-02		7.083
6		0.00		-7.60		5.586e-02		-46.221		1.340e-02		9.674
6		0.00		-8.00		5.564e-02		-46.777		1.350e-02		12.349
6		0.00		-8.40		5.467e-02		-47.458		1.312e-02		13.018
6		0.00		-8.80		5.111e-02		-44.414		1.221e-02		11.024
6		0.00		-9.20		4.921e-02		-42.078		1.210e-02		10.161
6		0.00		-9.60		4.495e-02		-44.091		1.281e-02		9.406
6		0.00		-10.00		3.866e-02		-45.180		1.185e-02		12.833
6		0.00		-9.60		4.367e-02		-47.240		1.371e-02		17.953
6		0.00		-9.20		4.821e-02		-43.936		1.492e-02		20.040
6		0.00		-8.80		5.081e-02		-45.222		1.521e-02		21.136
6		0.00		-8.40		5.263e-02		-43.396		1.593e-02		17.287
6		0.00		-8.00		5.296e-02		-46.965		1.584e-02		14.418
6		0.00		-7.60		5.225e-02		-46.398		1.565e-02		12.116
6		0.00		-7.20		5.060e-02		-45.933		1.478e-02		8.665
6		0.00		-6.80		4.765e-02		-46.362		1.266e-02		8.945
6		0.00		-6.40		4.512e-02		-46.864		1.081e-02		8.455
6		0.00		-6.00		4.208e-02		-48.376		9.912e-03		9.513
6		0.00		-5.60		3.967e-02		-47.564		8.772e-03		9.165
6		0.00		-5.20		3.647e-02		-48.825		7.652e-03		9.239
6		0.00		-4.80		3.267e-02		-50.095		6.993e-03		10.723
6		0.00		-4.40		2.953e-02		-50.014		6.117e-03		10.319
6		0.00		-4.00		2.610e-02		-49.764		5.693e-03		10.275
6		0.00		-3.60		2.271e-02		-47.037		4.796e-03		10.901
6		0.00		-3.20		1.939e-02		-46.501		4.290e-03		12.197
6		0.00		-2.80		1.585e-02		-47.906		3.694e-03		12.953
6		0.00		-2.40		1.245e-02		-46.821		3.155e-03		12.289
6		0.00		-2.00		8.701e-03		-42.194		2.320e-03		15.027
6		0.00		-1.60		4.813e-03		-38.442		1.639e-03		16.531
6		0.00		-1.20		2.011e-03		-6.023		7.976e-04		66.411
6		0.00		-0.80		3.787e-03		106.716		1.514e-03		35.833
6		0.00		-0.40		7.591e-03		122.803		2.172e-03		15.992
7		0.00		0.00		1.198e-02		127.452		3.362e-03		16.887
7		0.00		0.40		1.600e-02		127.683		3.756e-03		10.219
7		0.00		0.80		1.979e-02		130.667		4.828e-03		9.370
7		0.00		1.20		2.349e-02		131.617		5.176e-03		7.642
7		0.00		1.60		2.686e-02		130.896		5.922e-03		7.634
7		0.00		2.00		3.109e-02		131.343		6.357e-03		6.957
7		0.00		2.40		3.459e-02		130.343		7.331e-03		6.787
7		0.00		2.80		3.755e-02		130.613		7.824e-03		7.345
7		0.00		3.20		4.065e-02		130.908		8.474e-03		7.014
7		0.00		3.60		4.208e-02		130.416		9.329e-03		8.526
7		0.00		4.00		4.518e-02		132.088		1.014e-02		8.687
7		0.00		4.40		4.722e-02		131.313		1.039e-02		8.118
7		0.00		4.80		4.805e-02		131.531		1.119e-02		9.278
7		0.00		5.20		5.032e-02		132.330		1.225e-02		9.730
7		0.00		5.60		5.202e-02		132.644		1.288e-02		9.054
7		0.00		6.00		5.277e-02		131.215		1.375e-02		10.665
7		0.00		6.40		5.429e-02		132.259		1.490e-02		12.009
7		0.00		6.80		5.686e-02		129.751		1.671e-02		15.524
7		0.00		7.20		5.827e-02		128.572		1.816e-02		22.134
7		0.00		7.60		5.890e-02		128.991		1.829e-02		21.692
7		0.00		8.00		6.084e-02		129.912		1.913e-02		25.036
7		0.00		8.40		6.113e-02		129.843		2.004e-02		23.373
7		0.00		8.80		6.112e-02		127.211		2.102e-02		26.338
7		0.00		9.20		6.074e-02		126.012		2.231e-02		25.953
7		0.00		9.60		6.048e-02		124.722		2.229e-02		25.643
7		0.00		10.00		5.796e-02		128.588		2.228e-02		15.488
7		0.00		9.60		5.805e-02		125.059		2.117e-02		17.907
7		0.00		9.20		5.720e-02		128.656		1.970e-02		11.205
7		0.00		8.80		5.494e-02		130.852		1.835e-02		9.800
7		0.00		8.40		5.222e-02		131.853		1.628e-02		8.047
7		0.00		8.00		5.069e-02		132.042		1.424e-02		8.019
7		0.00		7.60		4.884e-02		132.575		1.226e-02		7.285
7		0.00		7.20		4.596e-02		132.670		1.067e-02		7.750
7		0.00		6.80		4.290e-02		132.409		9.391e-03		8.238
7		0.00		6.40		4.055e-02		132.615		8.333e-03		8.531
7		0.00		6.00		3.657e-02		133.405		7.242e-03		8.997
7		0.00		5.60		3.322e-02		133.577		6.044e-03		8.806
7		0.00		5.20		2.962e-02		132.928		5.271e-03		8.983
7		0.00		4.80		2.526e-02		132.470		4.437e-03		10.037
7		0.00		4.40		2.143e-02		133.943		3.728e-03		8.602
7		0.00		4.00		1.663e-02		137.144		2.918e-03		9.365
7		0.00		3.60		1.230e-02		135.763		2.319e-03		9.355
7		0.00		3.20		7.047e-03		138.504		1.474e-03		13.742
7		0.00		2.80		2.614e-03		48.540		1.191e-03		93.062
7		0.00		2.40		3.513e-03		-53.156		1.440e-03		41.529
7		0.00		2.00		8.283e-03		-54.789		2.612e-03		18.425
7		0.00		1.60		1.338e-02		-55.020		3.295e-03		13.966
7		0.00		1.20		1.798e-02		-50.526		4.209e-03		11.869
7		0.00		0.80		2.260e-02		-51.406		4.928e-03		10.567
7		0.00		0.40		2.685e-02		-52.361		5.950e-03		9.320
7		0.00		0.00		3.206e-02		-50.341		6.723e-03		9.011
7		0.00		-0.40		3.650e-02		-49.557		7.661e-03		9.047
7		0.00		-0.80		4.023e-02		-50.603		8.177e-03		8.486
7		0.00		-1.20		4.343e-02		-51.447		9.305e-03		9.805
7		0.00		-1.60		4.713e-02		-50.870		9.968e-03		9.168
7		0.00		-2.00		5.082e-02		-51.984		1.073e-02		8.860
7		0.00		-2.40		5.233e-02		-51.790		1.119e-02		8.774
7		0.00		-2.80		5.345e-02		-50.967		1.150e-02		9.356
7		0.00		-3.20		5.436e-02		-51.411		1.287e-02		10.748
7		0.00		-3.60		5.470e-02		-52.762		1.316e-02		10.720
7		0.00		-4.00		5.437e-02		-51.598		1.310e-02		10.520
7		0.00		-4.40		5.442e-02		-52.552		1.438e-02		10.787
7		0.00		-4.80		5.446e-02		-51.292		1.482e-02		11.564
7		0.00		-5.20		5.369e-02		-50.830		1.524e-02		13.080
7		0.00		-5.60		5.418e-02		-49.879		1.520e-02		11.748
7		0.00		-6.00		5.364e-02		-49.179		1.447e-02		12.237
7		0.00		-6.40		5.385e-02		-48.235		1.496e-02		10.307
7		0.00		-6.80		5.370e-02		-47.593		1.525e-02		11.664
7		0.00		-7.20		5.509e-02		-47.801		1.488e-02		10.320
7		0.00		-7.60		5.604e-02		-47.348		1.433e-02		11.489
7		0.00		-8.00		5.569e-02		-47.314		1.481e-02		12.095
7		0.00		-8.40		5.481e-02		-45.609		1.422e-02		10.539
7		0.00		-8.80		5.236e-02		-44.665		1.393e-02		10.328
7		0.00		-9.20		4.928e-02		-43.211		1.405e-02		10.909
7		0.00		-9.60		4.514e-02		-44.569		1.341e-02		10.909
7		0.00		-10.00		3.912e-02		-43.097		1.129e-02		11.007
7		0.00		-9.60		4.503e-02		-45.254		1.323e-02		10.957
7		0.00		-9.20		4.834e-02		-43.111		1.340e-02		9.812
7		0.00		-8.80		5.177e-02		-44.019		1.350e-02		9.843
7		0.00		-8.40		5.201e-02		-45.673		1.412e-02		11.386
7		0.00		-8.00		5.143e-02		-46.114		1.396e-02		10.479
7		0.00		-7.60		5.017e-02		-45.908		1.332e-02		9.413
7		0.00		-7.20		4.847e-02		-45.835		1.276e-02		8.536
7		0.00		-6.80		4.587e-02		-45.760		1.215e-02		8.775
7		0.00		-6.40		4.394e-02		-46.412		1.128e-02		8.856
7		0.00		-6.00		4.135e-02		-46.289		1.048e-02		8.937
7		0.00		-5.60		3.876e-02		-46.557		9.755e-03		8.717
7		0.00		-5.20		3.641e-02		-46.327		8.831e-03		8.823
7		0.00		-4.80		3.248e-02		-46.989		7.588e-03		8.547
7		0.00		-4.40		2.945e-02		-47.805		6.858e-03		9.265
7		0.00		-4.00		2.627e-02		-48.260		5.545e-03		9.282
7		0.00		-3.60		2.330e-02		-48.712		4.965e-03		9.710
7		0.00		-3.20		2.022e-02		-48.371		4.352e-03		12.701
7		0.00		-2.80		1.619e-02		-46.573		3.563e-03		10.725
7		0.00		-2.40		1.226e-02		-45.636		2.947e-03		12.552
7		0.00		-2.00		8.518e-03		-44.102		2.123e-03		13.890
7		0.00		-1.60		4.518e-03		-35.714		1.471e-03		19.582
7		0.00		-1.20		2.027e-03		-6.769		7.599e-04		73.745
7		0.00		-0.80		4.309e-03		103.998		1.489e-03		37.906
7		0.00		-0.40		8.101e-03		122.587		2.449e-03		27.796
8		0.00		0.00		1.207e-02		124.537		3.326e-03		21.886
8		0.00		0.40		1.620e-02		126.025		4.121e-03		21.370
8		0.00		0.80		2.012e-02		127.111		5.319e-03		21.881
8		0.00		1.20		2.341e-02		128.598		6.561e-03		19.543
8		0.00		1.60		2.683e-02		128.493		7.570e-03		20.156
8		0.00		2.00		3.105e-02		130.035		8.431e-03		17.610
8		0.00		2.40		3.415e-02		129.415		9.688e-03		17.107
8		0.00		2.80		3.768e-02		128.542		1.075e-02		16.539
8		0.00		3.20		4.059e-02		131.788		1.109e-02		13.173
8		0.00		3.60		4.343e-02		130.507		1.168e-02		13.229
8		0.00		4.00		4.595e-02		131.448		1.243e-02		10.959
8		0.00		4.40		4.872e-02		131.088		1.377e-02		9.589
8		0.00		4.80		5.078e-02		132.452		1.415e-02		9.838
8		0.00		5.20		5.320e-02		132.063		1.523e-02		7.914
8		0.00		5.60		5.485e-02		132.129		1.599e-02		10.217
8		0.00		6.00		5.656e-02		132.535		1.688e-02		9.595
8		0.00		6.40		5.835e-02		131.769		1.735e-02		9.794
8		0.00		6.80		5.886e-02		132.382		1.686e-02		9.442
8		0.00		7.20		5.987e-02		132.797		1.845e-02		8.049
8		0.00		7.60		6.092e-02		131.471		1.913e-02		8.447
8		0.00		8.00		6.124e-02		133.362		1.922e-02		9.170
8		0.00		8.40		6.254e-02		133.762		1.966e-02		9.593
8		0.00		8.80		6.367e-02		131.460		2.009e-02		10.687
8		0.00		9.20		6.349e-02		132.828		1.963e-02		9.349
8		0.00		9.60		6.252e-02		130.949		2.018e-02		10.157
8		0.00		10.00		5.950e-02		130.791		1.945e-02		11.163
8		0.00		9.60		6.000e-02		131.302		1.840e-02		9.762
8		0.00		9.20		6.062e-02		129.943		1.684e-02		9.735
8		0.00		8.80		5.886e-02		131.571		1.542e-02		8.911
8		0.00		8.40		5.733e-02		132.358		1.399e-02		7.729
8		0.00		8.00		5.403e-02		133.137		1.303e-02		7.709
8		0.00		7.60		5.132e-02		132.396		1.195e-02		8.086
8		0.00		7.20		4.887e-02		132.149		1.093e-02		7.852
8		0.00		6.80		4.611e-02		132.303		9.847e-03		6.924
8		0.00		6.40		4.280e-02		132.318		8.845e-03		7.041
8		0.00		6.00		3.906e-02		133.242		7.863e-03		7.691
8		0.00		5.60		3.567e-02		133.625		6.845e-03		7.621
8		0.00		5.20		3.172e-02		133.545		6.183e-03		7.851
8		0.00		4.80		2.737e-02		132.379		5.618e-03		7.692
8		0.00		4.40		2.327e-02		133.984		4.728e-03		8.670
8		0.00		4.00		1.879e-02		134.500		3.762e-03		8.775
8		0.00		3.60		1.434e-02		135.637		2.636e-03		8.710
8		0.00		3.20		8.792e-03		138.256		1.852e-03		12.231
8		0.00		2.80		4.197e-03		120.020		1.538e-03		47.881
8		0.00		2.40		2.504e-03		-49.336		1.068e-03		67.812
8		0.00		2.00		6.436e-03		-59.558		2.248e-03		26.948
8		0.00		1.60		1.136e-02		-52.461		2.664e-03		12.724
8		0.00		1.20		1.579e-02		-53.791		3.377e-03		11.650
8		0.00		0.80		2.024e-02		-51.076		4.049e-03		10.461
8		0.00		0.40		2.512e-02		-50.931		4.937e-03		9.414
8		0.00		0.00		2.993e-02		-49.374		5.650e-03		9.142
8		0.00		-0.40		3.373e-02		-49.260		6.937e-03		9.473
8		0.00		-0.80		3.817e-02		-50.247		7.621e-03		8.553
8		0.00		-1.20		4.108e-02		-50.772		9.111e-03		9.442
8		0.00		-1.60		4.512e-02		-50.280		9.624e-03		8.940
8		0.00		-2.00		4.785e-02		-49.714		1.072e-02		8.958
8		0.00		-2.40		5.098e-02		-50.659		1.240e-02		9.449
8		0.00		-2.80		5.260e-02		-52.189		1.394e-02		13.176
8		0.00		-3.20		5.360e-02		-51.572		1.449e-02		13.309
8		0.00		-3.60		5.463e-02		-52.813		1.570e-02		15.790
8		0.00		-4.00		5.594e-02		-52.935		1.592e-02		17.665
8		0.00		-4.40		5.582e-02		-51.411		1.665e-02		15.998
8		0.00		-4.80		5.526e-02		-50.805		1.606e-02		19.187
8		0.00		-5.20		5.525e-02		-48.158		1.636e-02		15.913
8		0.00		-5.60		5.559e-02		-47.466		1.753e-02		15.917
8		0.00		-6.00		5.561e-02		-47.922		1.725e-02		12.087
8		0.00		-6.40		5.524e-02		-47.038		1.577e-02		10.881
8		0.00		-6.80		5.618e-02		-46.235		1.542e-02		8.476
8		0.00		-7.20		5.725e-02		-46.988		1.483e-02		6.630
8		0.00		-7.60		5.854e-02		-45.740		1.448e-02		6.627
8		0.00		-8.00		5.783e-02		-45.011		1.423e-02		7.778
8		0.00		-8.40		5.693e-02		-43.918		1.433e-02		8.143
8		0.00		-8.80		5.394e-02		-43.213		1.345e-02		7.861
8		0.00		-9.20		5.088e-02		-42.822		1.362e-02		8.148
8		0.00		-9.60		4.621e-02		-45.331		1.297e-02		8.967
8		0.00		-10.00		4.046e-02		-42.276		1.073e-02		9.793
8		0.00		-9.60		4.581e-02		-45.184		1.308e-02		9.489
8		0.00		-9.20		4.984e-02		-44.688		1.409e-02		10.272
8		0.00		-8.80		5.090e-02		-45.009		1.358e-02		10.435
8		0.00		-8.40		5.163e-02		-45.518		1.322e-02		11.222
8		0.00		-8.00		5.299e-02		-46.337		1.317e-02		10.871
8		0.00		-7.60		5.094e-02		-46.920		1.217e-02		10.181
8		0.00		-7.20		4.907e-02		-45.677		1.157e-02		9.755
8		0.00		-6.80		4.616e-02		-46.298		1.068e-02		9.121
8		0.00		-6.40		4.394e-02		-45.938		1.034e-02		9.227
8		0.00		-6.00		4.213e-02		-45.779		9.991e-03		8.293
8		0.00		-5.60		3.931e-02		-45.297		8.771e-03		7.908
8		0.00		-5.20		3.674e-02		-47.738		7.739e-03		8.122
8		0.00		-4.80		3.360e-02		-47.629		7.121e-03		8.226
8		0.00		-4.40		2.994e-02		-47.208		6.473e-03		9.343
8		0.00		-4.00		2.647e-02		-47.030		5.879e-03		9.089
8		0.00		-3.60		2.282e-02		-48.811		5.305e-03		11.950
8		0.00		-3.20		1.960e-02		-46.377		4.337e-03		10.791
8		0.00		-2.80		1.591e-02		-44.486		3.723e-03		12.399
8		0.00		-2.40		1.233e-02		-42.897		3.126e-03		13.201
8		0.00		-2.00		8.096e-03		-41.547		2.115e-03		17.240
8		0.00		-1.60		4.225e-03		-37.459		1.646e-03		28.193
8		0.00		-1.20		1.920e-03		15.124		7.138e-04		76.420
8		0.00		-0.80		4.649e-03		116.683		1.690e-03		35.531
8		0.00		-0.40		9.061e-03		123.648		2.521e-03		14.100
