# Date of analysis: 2024-03-08 10;59
# Segment other properties: height: -62.70817328925112, diff height: 526.2969392011361, deflection: 33.02402997494319, deflection error: 2.9053359419759355, adhesion: 36.2558264319752, phase offset: 0
# 
# Loop index	Read Volt (V)	Write Volt (V)	Amplitude (a.u)	Phase (deg)	Sigma Amp (a.u)	Sigma Pha (deg)	
1		0.00		0.00		1.725e-03		-30.798		6.599e-04		93.288
1		0.00		0.40		1.517e-03		-2.734		7.216e-04		75.407
1		0.00		0.80		1.626e-03		16.520		6.949e-04		68.730
1		0.00		1.20		1.998e-03		40.839		8.143e-04		37.469
1		0.00		1.60		1.212e-02		127.828		2.580e-03		10.069
1		0.00		2.00		1.633e-02		130.667		3.093e-03		11.780
1		0.00		2.40		2.026e-02		129.861		4.529e-03		10.755
1		0.00		2.80		2.451e-02		130.132		5.600e-03		10.759
1		0.00		3.20		2.843e-02		130.849		6.771e-03		10.852
1		0.00		3.60		3.185e-02		130.912		7.944e-03		13.722
1		0.00		4.00		3.418e-02		129.333		9.254e-03		15.135
1		0.00		4.40		3.734e-02		129.610		1.020e-02		17.786
1		0.00		4.80		4.013e-02		128.479		1.114e-02		17.657
1		0.00		5.20		4.340e-02		127.925		1.257e-02		18.265
1		0.00		5.60		4.552e-02		129.788		1.362e-02		15.571
1		0.00		6.00		4.749e-02		130.379		1.474e-02		13.045
1		0.00		6.40		5.019e-02		130.516		1.594e-02		8.367
1		0.00		6.80		5.314e-02		130.065		1.696e-02		8.521
1		0.00		7.20		5.496e-02		131.123		1.683e-02		8.520
1		0.00		7.60		5.666e-02		131.853		1.668e-02		8.212
1		0.00		8.00		5.753e-02		132.216		1.646e-02		9.546
1		0.00		8.40		5.798e-02		133.706		1.578e-02		11.781
1		0.00		8.80		5.959e-02		132.231		1.565e-02		13.626
1		0.00		9.20		6.103e-02		133.859		1.673e-02		11.664
1		0.00		9.60		6.083e-02		130.851		1.604e-02		14.865
1		0.00		10.00		5.937e-02		130.731		1.576e-02		16.301
1		0.00		9.60		5.913e-02		127.199		1.656e-02		19.325
1		0.00		9.20		6.147e-02		128.267		1.695e-02		21.729
1		0.00		8.80		5.776e-02		128.929		1.541e-02		16.969
1		0.00		8.40		5.516e-02		129.056		1.630e-02		18.175
1		0.00		8.00		5.214e-02		131.100		1.448e-02		15.913
1		0.00		7.60		5.133e-02		130.189		1.432e-02		14.814
1		0.00		7.20		4.877e-02		130.196		1.331e-02		14.983
1		0.00		6.80		4.670e-02		129.820		1.303e-02		15.727
1		0.00		6.40		4.343e-02		129.978		1.221e-02		16.489
1		0.00		6.00		3.963e-02		128.592		1.144e-02		22.542
1		0.00		5.60		3.598e-02		128.223		1.099e-02		22.719
1		0.00		5.20		3.258e-02		126.960		1.032e-02		23.009
1		0.00		4.80		2.867e-02		128.936		9.047e-03		23.720
1		0.00		4.40		2.540e-02		131.120		7.624e-03		13.428
1		0.00		4.00		2.194e-02		131.721		6.493e-03		11.358
1		0.00		3.60		1.881e-02		130.879		5.259e-03		12.339
1		0.00		3.20		1.527e-02		132.994		4.018e-03		12.065
1		0.00		2.80		1.114e-02		133.920		2.668e-03		13.391
1		0.00		2.40		7.390e-03		133.887		1.810e-03		22.641
1		0.00		2.00		3.182e-03		111.690		1.154e-03		44.985
1		0.00		1.60		2.401e-03		-66.115		1.168e-03		47.203
1		0.00		1.20		6.317e-03		-55.853		1.688e-03		20.994
1		0.00		0.80		1.027e-02		-52.681		2.408e-03		16.814
1		0.00		0.40		1.430e-02		-51.162		3.176e-03		12.918
1		0.00		0.00		1.917e-02		-49.392		3.804e-03		10.016
1		0.00		-0.40		2.311e-02		-52.269		4.658e-03		10.415
1		0.00		-0.80		2.725e-02		-50.976		5.702e-03		9.839
1		0.00		-1.20		3.117e-02		-51.244		7.079e-03		11.447
1		0.00		-1.60		3.526e-02		-51.699		8.695e-03		12.051
1		0.00		-2.00		3.982e-02		-53.018		1.008e-02		12.613
1		0.00		-2.40		4.166e-02		-54.888		1.220e-02		18.303
1		0.00		-2.80		4.548e-02		-55.272		1.390e-02		19.122
1		0.00		-3.20		4.873e-02		-54.031		1.499e-02		14.759
1		0.00		-3.60		5.228e-02		-54.522		1.623e-02		15.535
1		0.00		-4.00		5.410e-02		-52.436		1.689e-02		11.667
1		0.00		-4.40		5.601e-02		-53.619		1.855e-02		11.945
1		0.00		-4.80		5.823e-02		-52.880		1.920e-02		12.800
1		0.00		-5.20		6.139e-02		-51.779		1.921e-02		13.119
1		0.00		-5.60		6.376e-02		-51.694		1.826e-02		14.808
1		0.00		-6.00		6.674e-02		-48.367		1.793e-02		14.210
1		0.00		-6.40		7.004e-02		-49.470		1.781e-02		10.528
1		0.00		-6.80		7.203e-02		-47.900		1.809e-02		13.021
1		0.00		-7.20		7.038e-02		-47.211		1.712e-02		14.236
1		0.00		-7.60		6.667e-02		-45.222		1.525e-02		16.937
1		0.00		-8.00		6.910e-02		-46.947		1.826e-02		19.085
1		0.00		-8.40		6.860e-02		-41.581		1.793e-02		16.554
1		0.00		-8.80		6.795e-02		-45.253		1.746e-02		12.724
1		0.00		-9.20		6.372e-02		-43.672		1.839e-02		13.833
1		0.00		-9.60		5.812e-02		-45.972		1.809e-02		13.675
1		0.00		-10.00		4.844e-02		-44.937		1.470e-02		12.766
1		0.00		-9.60		5.442e-02		-47.660		1.860e-02		16.205
1		0.00		-9.20		5.798e-02		-44.202		2.030e-02		14.995
1		0.00		-8.80		6.098e-02		-49.496		2.043e-02		17.890
1		0.00		-8.40		6.370e-02		-47.630		2.117e-02		16.946
1		0.00		-8.00		6.132e-02		-47.957		1.903e-02		15.692
1		0.00		-7.60		6.273e-02		-49.035		1.913e-02		14.214
1		0.00		-7.20		5.909e-02		-46.484		1.826e-02		14.282
1		0.00		-6.80		5.816e-02		-48.118		1.775e-02		12.680
1		0.00		-6.40		5.639e-02		-47.844		1.653e-02		11.382
1		0.00		-6.00		5.318e-02		-48.469		1.568e-02		10.631
1		0.00		-5.60		5.073e-02		-50.408		1.464e-02		11.828
1		0.00		-5.20		4.689e-02		-50.480		1.312e-02		10.404
1		0.00		-4.80		4.289e-02		-51.213		1.154e-02		10.250
1		0.00		-4.40		3.825e-02		-52.065		9.766e-03		10.254
1		0.00		-4.00		3.450e-02		-52.274		8.538e-03		9.127
1		0.00		-3.60		3.072e-02		-52.013		7.117e-03		9.427
1		0.00		-3.20		2.621e-02		-51.425		5.960e-03		9.873
1		0.00		-2.80		2.262e-02		-51.124		4.965e-03		10.546
1		0.00		-2.40		1.851e-02		-48.659		4.118e-03		11.364
1		0.00		-2.00		1.380e-02		-45.836		2.927e-03		10.135
1		0.00		-1.60		9.803e-03		-41.590		1.978e-03		12.189
1		0.00		-1.20		5.735e-03		-43.220		1.582e-03		20.189
1		0.00		-0.80		2.067e-03		-32.058		8.434e-04		57.334
1		0.00		-0.40		3.600e-03		100.405		1.474e-03		35.501
2		0.00		0.00		7.409e-03		123.048		2.064e-03		15.794
2		0.00		0.40		1.100e-02		124.346		2.909e-03		10.118
2		0.00		0.80		1.530e-02		124.961		3.519e-03		9.677
2		0.00		1.20		1.943e-02		127.752		4.281e-03		9.173
2		0.00		1.60		2.343e-02		128.046		4.800e-03		8.363
2		0.00		2.00		2.721e-02		129.053		5.507e-03		8.018
2		0.00		2.40		3.063e-02		129.226		6.413e-03		7.714
2		0.00		2.80		3.343e-02		128.888		7.208e-03		8.340
2		0.00		3.20		3.624e-02		131.026		7.437e-03		7.435
2		0.00		3.60		3.925e-02		130.954		8.570e-03		8.732
2		0.00		4.00		4.190e-02		131.424		8.853e-03		7.880
2		0.00		4.40		4.339e-02		131.369		9.286e-03		7.881
2		0.00		4.80		4.653e-02		133.193		9.980e-03		7.582
2		0.00		5.20		4.802e-02		131.152		1.110e-02		9.091
2		0.00		5.60		4.948e-02		131.863		1.150e-02		9.960
2		0.00		6.00		5.159e-02		131.448		1.298e-02		10.930
2		0.00		6.40		5.324e-02		130.311		1.449e-02		13.053
2		0.00		6.80		5.254e-02		127.269		1.608e-02		18.369
2		0.00		7.20		5.567e-02		128.168		1.682e-02		17.480
2		0.00		7.60		5.719e-02		127.687		1.866e-02		18.929
2		0.00		8.00		6.060e-02		130.451		1.871e-02		15.602
2		0.00		8.40		6.319e-02		129.478		1.893e-02		17.468
2		0.00		8.80		6.467e-02		131.853		1.815e-02		23.231
2		0.00		9.20		6.486e-02		129.402		1.920e-02		31.259
2		0.00		9.60		6.532e-02		130.059		1.857e-02		15.271
2		0.00		10.00		6.459e-02		128.850		1.931e-02		17.784
2		0.00		9.60		6.424e-02		127.077		1.907e-02		26.475
2		0.00		9.20		6.346e-02		127.814		2.017e-02		19.714
2		0.00		8.80		6.131e-02		130.657		1.843e-02		17.440
2		0.00		8.40		5.942e-02		131.595		1.767e-02		15.221
2		0.00		8.00		5.392e-02		132.630		1.596e-02		15.921
2		0.00		7.60		5.376e-02		130.500		1.567e-02		16.678
2		0.00		7.20		5.007e-02		130.576		1.539e-02		15.608
2		0.00		6.80		4.790e-02		128.311		1.485e-02		19.160
2		0.00		6.40		4.475e-02		129.060		1.428e-02		20.869
2		0.00		6.00		4.135e-02		129.476		1.318e-02		17.827
2		0.00		5.60		3.861e-02		130.137		1.234e-02		19.080
2		0.00		5.20		3.479e-02		128.587		1.116e-02		18.304
2		0.00		4.80		3.215e-02		129.855		9.471e-03		17.044
2		0.00		4.40		2.902e-02		129.299		8.433e-03		18.795
2		0.00		4.00		2.497e-02		131.712		6.929e-03		16.771
2		0.00		3.60		2.154e-02		132.579		5.732e-03		15.164
2		0.00		3.20		1.811e-02		134.348		4.390e-03		14.456
2		0.00		2.80		1.398e-02		132.958		3.269e-03		17.193
2		0.00		2.40		9.458e-03		132.475		2.465e-03		18.327
2		0.00		2.00		5.336e-03		123.412		1.621e-03		32.109
2		0.00		1.60		2.000e-03		44.725		7.814e-04		85.323
2		0.00		1.20		3.664e-03		-43.502		1.282e-03		29.077
2		0.00		0.80		7.917e-03		-51.515		2.155e-03		15.024
2		0.00		0.40		1.231e-02		-52.934		3.380e-03		14.710
2		0.00		0.00		1.663e-02		-50.670		4.355e-03		12.223
2		0.00		-0.40		2.102e-02		-50.709		4.918e-03		11.909
2		0.00		-0.80		2.484e-02		-51.387		6.600e-03		10.892
2		0.00		-1.20		2.864e-02		-52.955		7.487e-03		14.176
2		0.00		-1.60		3.278e-02		-52.862		8.560e-03		14.020
2		0.00		-2.00		3.710e-02		-53.260		9.981e-03		14.387
2		0.00		-2.40		4.076e-02		-53.403		1.097e-02		14.787
2		0.00		-2.80		4.461e-02		-53.531		1.234e-02		16.495
2		0.00		-3.20		4.812e-02		-53.788		1.348e-02		16.050
2		0.00		-3.60		5.069e-02		-52.947		1.433e-02		14.013
2		0.00		-4.00		5.449e-02		-53.798		1.532e-02		16.278
2		0.00		-4.40		5.807e-02		-51.115		1.570e-02		10.565
2		0.00		-4.80		5.958e-02		-50.174		1.638e-02		10.757
2		0.00		-5.20		6.146e-02		-49.667		1.746e-02		16.178
2		0.00		-5.60		6.466e-02		-47.129		1.759e-02		13.719
2		0.00		-6.00		6.458e-02		-43.304		1.856e-02		15.152
2		0.00		-6.40		6.595e-02		-47.038		1.885e-02		16.278
2		0.00		-6.80		6.716e-02		-47.853		1.903e-02		16.628
2		0.00		-7.20		6.993e-02		-44.645		1.933e-02		13.956
2		0.00		-7.60		6.834e-02		-43.935		1.793e-02		15.984
2		0.00		-8.00		7.139e-02		-45.157		2.040e-02		16.848
2		0.00		-8.40		7.004e-02		-47.504		2.039e-02		17.173
2		0.00		-8.80		6.542e-02		-38.472		1.966e-02		14.185
2		0.00		-9.20		6.389e-02		-40.926		2.159e-02		13.257
2		0.00		-9.60		5.746e-02		-41.362		1.936e-02		9.260
2		0.00		-10.00		5.070e-02		-47.659		1.607e-02		16.760
2		0.00		-9.60		5.528e-02		-44.908		1.703e-02		12.852
2		0.00		-9.20		5.918e-02		-43.447		1.802e-02		12.411
2		0.00		-8.80		6.169e-02		-45.215		1.845e-02		13.144
2		0.00		-8.40		6.225e-02		-50.559		1.871e-02		18.936
2		0.00		-8.00		6.396e-02		-46.540		1.688e-02		14.533
2		0.00		-7.60		6.469e-02		-46.823		1.558e-02		12.648
2		0.00		-7.20		6.027e-02		-45.104		1.342e-02		12.670
2		0.00		-6.80		6.041e-02		-47.728		1.300e-02		10.203
2		0.00		-6.40		5.693e-02		-47.306		1.181e-02		9.288
2		0.00		-6.00		5.462e-02		-47.997		1.098e-02		7.777
2		0.00		-5.60		5.095e-02		-48.183		1.038e-02		8.065
2		0.00		-5.20		4.714e-02		-49.574		9.692e-03		7.888
2		0.00		-4.80		4.298e-02		-50.606		8.734e-03		7.452
2		0.00		-4.40		3.882e-02		-50.842		8.034e-03		7.398
2		0.00		-4.00		3.435e-02		-50.483		7.437e-03		9.151
2		0.00		-3.60		2.991e-02		-50.159		6.779e-03		8.888
2		0.00		-3.20		2.575e-02		-50.081		6.052e-03		8.812
2		0.00		-2.80		2.203e-02		-49.976		5.371e-03		9.585
2		0.00		-2.40		1.789e-02		-48.802		4.339e-03		10.935
2		0.00		-2.00		1.397e-02		-45.472		3.580e-03		10.660
2		0.00		-1.60		9.584e-03		-42.021		2.556e-03		12.148
2		0.00		-1.20		5.417e-03		-45.940		1.610e-03		28.342
2		0.00		-0.80		2.077e-03		-18.616		8.368e-04		62.625
2		0.00		-0.40		3.937e-03		100.412		1.377e-03		40.559
3		0.00		0.00		7.408e-03		123.347		2.154e-03		18.765
3		0.00		0.40		1.169e-02		122.447		3.224e-03		17.862
3		0.00		0.80		1.605e-02		127.068		4.201e-03		17.307
3		0.00		1.20		1.937e-02		126.867		5.021e-03		13.732
3		0.00		1.60		2.351e-02		126.967		6.028e-03		14.867
3		0.00		2.00		2.736e-02		129.244		6.709e-03		15.124
3		0.00		2.40		3.060e-02		128.714		7.691e-03		15.241
3		0.00		2.80		3.420e-02		129.697		8.720e-03		15.396
3		0.00		3.20		3.684e-02		129.467		9.556e-03		15.919
3		0.00		3.60		3.922e-02		129.364		1.095e-02		16.254
3		0.00		4.00		4.136e-02		130.841		1.180e-02		14.403
3		0.00		4.40		4.339e-02		129.622		1.260e-02		12.894
3		0.00		4.80		4.588e-02		129.693		1.357e-02		14.659
3		0.00		5.20		4.814e-02		130.005		1.425e-02		14.818
3		0.00		5.60		4.940e-02		127.849		1.533e-02		16.429
3		0.00		6.00		5.038e-02		129.886		1.466e-02		14.486
3		0.00		6.40		5.343e-02		130.415		1.564e-02		13.815
3		0.00		6.80		5.603e-02		128.878		1.640e-02		16.433
3		0.00		7.20		5.891e-02		129.599		1.724e-02		15.515
3		0.00		7.60		6.076e-02		132.046		1.675e-02		13.615
3		0.00		8.00		6.212e-02		131.527		1.678e-02		21.156
3		0.00		8.40		6.378e-02		131.671		1.787e-02		23.037
3		0.00		8.80		6.566e-02		131.469		1.846e-02		16.874
3		0.00		9.20		6.745e-02		130.662		1.912e-02		18.092
3		0.00		9.60		6.596e-02		129.935		1.980e-02		19.038
3		0.00		10.00		6.431e-02		133.609		1.810e-02		13.935
3		0.00		9.60		6.445e-02		131.892		1.759e-02		16.438
3		0.00		9.20		6.136e-02		128.340		1.751e-02		20.974
3		0.00		8.80		6.064e-02		130.190		1.700e-02		24.562
3		0.00		8.40		5.617e-02		130.436		1.654e-02		16.669
3		0.00		8.00		5.541e-02		129.407		1.642e-02		16.377
3		0.00		7.60		5.283e-02		131.463		1.459e-02		14.241
3		0.00		7.20		5.117e-02		132.323		1.293e-02		13.469
3		0.00		6.80		4.956e-02		131.835		1.201e-02		9.977
3		0.00		6.40		4.591e-02		131.666		1.133e-02		11.212
3		0.00		6.00		4.368e-02		132.611		9.782e-03		9.391
3		0.00		5.60		4.059e-02		132.569		8.944e-03		8.902
3		0.00		5.20		3.830e-02		133.325		7.672e-03		8.251
3		0.00		4.80		3.481e-02		134.252		6.820e-03		8.388
3		0.00		4.40		3.171e-02		133.062		6.278e-03		8.394
3		0.00		4.00		2.769e-02		133.450		5.390e-03		9.011
3		0.00		3.60		2.391e-02		132.491		4.244e-03		8.941
3		0.00		3.20		1.981e-02		133.702		3.607e-03		9.672
3		0.00		2.80		1.557e-02		135.161		2.774e-03		10.115
3		0.00		2.40		1.100e-02		136.124		2.102e-03		11.538
3		0.00		2.00		6.301e-03		132.420		1.512e-03		16.473
3		0.00		1.60		2.170e-03		66.716		8.068e-04		84.963
3		0.00		1.20		3.651e-03		-64.019		1.310e-03		25.330
3		0.00		0.80		7.760e-03		-55.877		2.164e-03		13.173
3		0.00		0.40		1.196e-02		-54.003		2.844e-03		11.050
3		0.00		0.00		1.662e-02		-51.654		3.386e-03		9.591
3		0.00		-0.40		2.074e-02		-52.243		4.192e-03		10.351
3		0.00		-0.80		2.491e-02		-50.519		5.198e-03		10.197
3		0.00		-1.20		2.883e-02		-51.544		6.239e-03		10.302
3		0.00		-1.60		3.308e-02		-52.850		7.161e-03		10.310
3		0.00		-2.00		3.775e-02		-51.241		7.740e-03		9.597
3		0.00		-2.40		4.204e-02		-51.742		8.660e-03		10.025
3		0.00		-2.80		4.520e-02		-51.292		9.426e-03		10.003
3		0.00		-3.20		5.014e-02		-53.187		1.045e-02		11.209
3		0.00		-3.60		5.323e-02		-53.182		1.182e-02		13.111
3		0.00		-4.00		5.611e-02		-52.679		1.268e-02		10.497
3		0.00		-4.40		5.885e-02		-51.926		1.445e-02		9.921
3		0.00		-4.80		6.125e-02		-51.269		1.581e-02		13.722
3		0.00		-5.20		6.380e-02		-50.904		1.753e-02		14.992
3		0.00		-5.60		6.405e-02		-46.582		1.769e-02		15.620
3		0.00		-6.00		6.730e-02		-47.659		1.801e-02		12.748
3		0.00		-6.40		6.482e-02		-46.986		1.771e-02		17.344
3		0.00		-6.80		6.751e-02		-47.478		2.029e-02		16.210
3		0.00		-7.20		6.562e-02		-42.089		2.097e-02		17.353
3		0.00		-7.60		6.643e-02		-39.959		2.238e-02		22.973
3		0.00		-8.00		6.603e-02		-42.439		2.296e-02		21.562
3		0.00		-8.40		6.355e-02		-37.780		2.028e-02		20.435
3		0.00		-8.80		6.056e-02		-45.919		1.918e-02		23.479
3		0.00		-9.20		6.223e-02		-39.386		1.960e-02		15.280
3		0.00		-9.60		5.933e-02		-43.362		1.866e-02		13.781
3		0.00		-10.00		5.545e-02		-44.249		1.597e-02		8.363
3		0.00		-9.60		6.057e-02		-43.927		1.611e-02		8.850
3		0.00		-9.20		6.563e-02		-43.251		1.667e-02		9.835
3		0.00		-8.80		6.441e-02		-41.436		1.611e-02		13.190
3		0.00		-8.40		6.499e-02		-42.688		1.461e-02		13.927
3		0.00		-8.00		6.655e-02		-46.724		1.548e-02		16.220
3		0.00		-7.60		6.615e-02		-48.844		1.514e-02		13.340
3		0.00		-7.20		6.475e-02		-45.602		1.433e-02		10.799
3		0.00		-6.80		6.102e-02		-49.189		1.364e-02		12.065
3		0.00		-6.40		5.907e-02		-47.021		1.150e-02		7.881
3		0.00		-6.00		5.521e-02		-47.430		1.173e-02		9.525
3		0.00		-5.60		5.176e-02		-47.848		1.197e-02		10.477
3		0.00		-5.20		4.731e-02		-50.217		1.207e-02		11.250
3		0.00		-4.80		4.306e-02		-50.934		1.144e-02		12.829
3		0.00		-4.40		3.858e-02		-51.459		1.041e-02		12.817
3		0.00		-4.00		3.447e-02		-51.525		9.478e-03		15.451
3		0.00		-3.60		3.106e-02		-51.168		8.504e-03		13.693
3		0.00		-3.20		2.686e-02		-50.827		7.468e-03		12.624
3		0.00		-2.80		2.285e-02		-49.350		6.274e-03		9.174
3		0.00		-2.40		1.926e-02		-47.881		4.885e-03		10.303
3		0.00		-2.00		1.536e-02		-47.375		3.365e-03		10.164
3		0.00		-1.60		1.044e-02		-48.199		2.090e-03		12.282
3		0.00		-1.20		6.680e-03		-37.991		1.675e-03		20.738
3		0.00		-0.80		2.520e-03		-35.855		9.797e-04		40.979
3		0.00		-0.40		3.284e-03		92.780		1.313e-03		40.597
4		0.00		0.00		7.446e-03		116.216		1.860e-03		13.203
4		0.00		0.40		1.131e-02		124.690		2.251e-03		10.813
4		0.00		0.80		1.599e-02		126.809		3.076e-03		9.044
4		0.00		1.20		2.005e-02		130.153		3.673e-03		10.154
4		0.00		1.60		2.380e-02		130.394		4.252e-03		8.136
4		0.00		2.00		2.738e-02		130.313		5.727e-03		10.822
4		0.00		2.40		3.092e-02		130.917		7.299e-03		9.816
4		0.00		2.80		3.411e-02		129.655		8.508e-03		14.920
4		0.00		3.20		3.656e-02		128.617		9.859e-03		17.700
4		0.00		3.60		3.951e-02		128.960		1.111e-02		16.870
4		0.00		4.00		4.215e-02		129.425		1.185e-02		14.955
4		0.00		4.40		4.502e-02		131.479		1.258e-02		9.799
4		0.00		4.80		4.788e-02		131.718		1.302e-02		8.356
4		0.00		5.20		5.064e-02		131.841		1.279e-02		8.787
4		0.00		5.60		5.345e-02		131.982		1.239e-02		7.389
4		0.00		6.00		5.600e-02		133.051		1.182e-02		6.273
4		0.00		6.40		5.831e-02		133.574		1.204e-02		7.424
4		0.00		6.80		5.967e-02		132.160		1.263e-02		8.814
4		0.00		7.20		6.152e-02		134.117		1.306e-02		9.622
4		0.00		7.60		6.139e-02		131.200		1.592e-02		15.689
4		0.00		8.00		6.610e-02		132.804		1.738e-02		12.236
4		0.00		8.40		6.512e-02		131.048		1.901e-02		16.617
4		0.00		8.80		6.769e-02		126.937		2.125e-02		36.474
4		0.00		9.20		6.715e-02		127.641		2.129e-02		37.815
4		0.00		9.60		6.272e-02		123.853		2.091e-02		34.868
4		0.00		10.00		6.162e-02		127.119		2.082e-02		28.096
4		0.00		9.60		6.239e-02		127.191		2.198e-02		32.901
4		0.00		9.20		6.099e-02		127.139		2.110e-02		24.117
4		0.00		8.80		6.139e-02		125.331		2.161e-02		21.860
4		0.00		8.40		5.855e-02		129.861		2.004e-02		15.708
4		0.00		8.00		5.786e-02		132.281		1.771e-02		9.658
4		0.00		7.60		5.524e-02		132.053		1.516e-02		11.040
4		0.00		7.20		5.289e-02		133.012		1.292e-02		10.266
4		0.00		6.80		5.004e-02		132.167		1.185e-02		10.911
4		0.00		6.40		4.657e-02		131.568		1.010e-02		8.306
4		0.00		6.00		4.497e-02		132.043		9.301e-03		7.735
4		0.00		5.60		4.168e-02		133.313		8.224e-03		7.612
4		0.00		5.20		3.833e-02		133.748		7.639e-03		8.604
4		0.00		4.80		3.503e-02		133.480		6.832e-03		9.241
4		0.00		4.40		3.075e-02		133.132		6.251e-03		10.739
4		0.00		4.00		2.693e-02		134.074		5.705e-03		10.412
4		0.00		3.60		2.343e-02		132.741		5.024e-03		12.019
4		0.00		3.20		1.951e-02		132.823		4.266e-03		12.518
4		0.00		2.80		1.518e-02		136.230		3.532e-03		12.635
4		0.00		2.40		1.032e-02		132.343		2.587e-03		17.210
4		0.00		2.00		5.803e-03		128.274		1.596e-03		24.003
4		0.00		1.60		2.222e-03		61.753		9.888e-04		76.505
4		0.00		1.20		3.201e-03		-64.797		1.216e-03		27.279
4		0.00		0.80		7.520e-03		-51.288		2.256e-03		16.862
4		0.00		0.40		1.182e-02		-49.642		3.101e-03		14.422
4		0.00		0.00		1.631e-02		-51.851		4.053e-03		10.417
4		0.00		-0.40		2.067e-02		-49.355		5.165e-03		9.212
4		0.00		-0.80		2.436e-02		-51.470		5.940e-03		8.867
4		0.00		-1.20		2.858e-02		-51.275		6.535e-03		9.792
4		0.00		-1.60		3.313e-02		-51.372		7.004e-03		9.543
4		0.00		-2.00		3.741e-02		-51.725		7.720e-03		8.616
4		0.00		-2.40		4.197e-02		-52.424		8.034e-03		7.672
4		0.00		-2.80		4.657e-02		-52.335		8.699e-03		6.655
4		0.00		-3.20		5.002e-02		-53.196		9.798e-03		7.326
4		0.00		-3.60		5.303e-02		-53.345		1.067e-02		9.376
4		0.00		-4.00		5.412e-02		-52.079		1.032e-02		8.490
4		0.00		-4.40		5.621e-02		-51.807		1.235e-02		11.466
4		0.00		-4.80		5.996e-02		-53.918		1.548e-02		14.290
4		0.00		-5.20		6.387e-02		-51.431		1.564e-02		11.120
4		0.00		-5.60		6.541e-02		-49.102		1.626e-02		10.842
4		0.00		-6.00		6.723e-02		-47.419		1.983e-02		13.420
4		0.00		-6.40		6.450e-02		-46.744		2.091e-02		15.361
4		0.00		-6.80		6.639e-02		-44.232		2.230e-02		15.142
4		0.00		-7.20		6.490e-02		-43.458		2.065e-02		18.486
4		0.00		-7.60		6.523e-02		-39.353		2.240e-02		20.486
4		0.00		-8.00		6.520e-02		-44.354		2.140e-02		21.050
4		0.00		-8.40		6.479e-02		-40.615		2.395e-02		23.817
4		0.00		-8.80		6.226e-02		-44.435		2.384e-02		26.106
4		0.00		-9.20		5.790e-02		-41.786		2.129e-02		30.194
4		0.00		-9.60		5.697e-02		-47.210		1.996e-02		19.357
4		0.00		-10.00		5.162e-02		-46.433		1.752e-02		15.408
4		0.00		-9.60		5.871e-02		-47.076		1.925e-02		12.830
4		0.00		-9.20		6.248e-02		-45.383		1.790e-02		11.962
4		0.00		-8.80		6.322e-02		-43.530		1.668e-02		10.330
4		0.00		-8.40		6.668e-02		-44.158		1.649e-02		11.558
4		0.00		-8.00		6.641e-02		-44.616		1.586e-02		11.707
4		0.00		-7.60		6.587e-02		-46.982		1.478e-02		12.601
4		0.00		-7.20		6.341e-02		-46.004		1.385e-02		12.915
4		0.00		-6.80		6.171e-02		-48.115		1.251e-02		9.609
4		0.00		-6.40		5.712e-02		-48.178		1.118e-02		10.042
4		0.00		-6.00		5.530e-02		-48.157		1.098e-02		7.610
4		0.00		-5.60		5.041e-02		-48.065		1.025e-02		8.014
4		0.00		-5.20		4.648e-02		-48.680		9.753e-03		8.498
4		0.00		-4.80		4.256e-02		-49.455		9.479e-03		9.325
4		0.00		-4.40		3.864e-02		-50.449		8.697e-03		8.648
4		0.00		-4.00		3.454e-02		-49.656		8.014e-03		9.403
4		0.00		-3.60		3.084e-02		-49.189		6.937e-03		9.850
4		0.00		-3.20		2.687e-02		-48.611		6.277e-03		10.800
4		0.00		-2.80		2.262e-02		-47.735		5.329e-03		11.664
4		0.00		-2.40		1.845e-02		-46.738		4.227e-03		10.007
4		0.00		-2.00		1.464e-02		-39.964		3.301e-03		9.298
4		0.00		-1.60		1.012e-02		-40.599		2.275e-03		10.716
4		0.00		-1.20		5.672e-03		-43.539		1.656e-03		16.940
4		0.00		-0.80		2.080e-03		-24.374		8.281e-04		51.828
4		0.00		-0.40		3.573e-03		102.207		1.295e-03		31.756
5		0.00		0.00		7.808e-03		123.975		2.040e-03		16.016
5		0.00		0.40		1.203e-02		124.734		2.582e-03		9.147
5		0.00		0.80		1.645e-02		127.703		3.220e-03		9.085
5		0.00		1.20		2.092e-02		128.194		3.834e-03		7.279
5		0.00		1.60		2.443e-02		129.895		4.418e-03		7.797
5		0.00		2.00		2.781e-02		130.162		5.364e-03		7.160
5		0.00		2.40		3.093e-02		128.720		6.408e-03		8.158
5		0.00		2.80		3.384e-02		130.330		7.151e-03		7.207
5		0.00		3.20		3.762e-02		130.994		7.648e-03		7.132
5		0.00		3.60		3.957e-02		132.291		8.473e-03		7.081
5		0.00		4.00		4.190e-02		130.533		9.904e-03		8.710
5		0.00		4.40		4.451e-02		130.824		1.135e-02		9.539
5		0.00		4.80		4.659e-02		131.348		1.167e-02		8.390
5		0.00		5.20		5.026e-02		132.205		1.241e-02		8.828
5		0.00		5.60		5.228e-02		131.204		1.280e-02		9.424
5		0.00		6.00		5.374e-02		131.455		1.329e-02		12.298
5		0.00		6.40		5.740e-02		130.871		1.446e-02		11.972
5		0.00		6.80		5.944e-02		130.471		1.559e-02		12.801
5		0.00		7.20		6.090e-02		130.126		1.630e-02		14.721
5		0.00		7.60		6.058e-02		131.123		1.636e-02		15.012
5		0.00		8.00		6.408e-02		134.183		1.719e-02		11.495
5		0.00		8.40		6.453e-02		132.703		1.795e-02		21.343
5		0.00		8.80		6.533e-02		125.284		1.892e-02		34.580
5		0.00		9.20		6.602e-02		127.509		2.020e-02		34.307
5		0.00		9.60		6.468e-02		125.920		1.993e-02		34.329
5		0.00		10.00		6.246e-02		133.295		2.007e-02		16.175
5		0.00		9.60		6.448e-02		129.266		2.013e-02		27.263
5		0.00		9.20		6.531e-02		130.650		1.963e-02		15.183
5		0.00		8.80		6.230e-02		128.998		1.925e-02		27.925
5		0.00		8.40		5.659e-02		130.330		1.830e-02		29.630
5		0.00		8.00		5.874e-02		132.467		1.729e-02		13.813
5		0.00		7.60		5.592e-02		131.027		1.662e-02		16.552
5		0.00		7.20		5.441e-02		130.606		1.586e-02		16.862
5		0.00		6.80		5.164e-02		132.065		1.402e-02		13.841
5		0.00		6.40		4.982e-02		132.795		1.273e-02		10.907
5		0.00		6.00		4.694e-02		132.636		1.218e-02		12.580
5		0.00		5.60		4.305e-02		131.643		1.086e-02		15.538
5		0.00		5.20		3.958e-02		133.046		9.432e-03		12.242
5		0.00		4.80		3.659e-02		132.093		8.421e-03		13.182
5		0.00		4.40		3.240e-02		133.291		7.271e-03		12.738
5		0.00		4.00		2.887e-02		133.892		6.565e-03		11.406
5		0.00		3.60		2.461e-02		134.364		5.232e-03		10.832
5		0.00		3.20		2.086e-02		133.626		4.597e-03		10.804
5		0.00		2.80		1.620e-02		131.271		3.746e-03		13.889
5		0.00		2.40		1.245e-02		130.709		3.081e-03		17.923
5		0.00		2.00		7.732e-03		128.834		2.064e-03		19.444
5		0.00		1.60		3.588e-03		100.965		1.284e-03		68.274
5		0.00		1.20		2.047e-03		-35.101		8.695e-04		53.658
5		0.00		0.80		5.948e-03		-52.872		1.717e-03		16.495
5		0.00		0.40		1.010e-02		-50.033		2.481e-03		14.559
5		0.00		0.00		1.442e-02		-51.490		3.583e-03		12.869
5		0.00		-0.40		1.887e-02		-51.919		4.633e-03		12.484
5		0.00		-0.80		2.306e-02		-51.109		5.363e-03		12.906
5		0.00		-1.20		2.727e-02		-51.458		6.027e-03		11.346
5		0.00		-1.60		3.153e-02		-51.062		7.285e-03		11.839
5		0.00		-2.00		3.509e-02		-51.044		8.331e-03		12.798
5		0.00		-2.40		3.876e-02		-50.928		9.370e-03		11.522
5		0.00		-2.80		4.210e-02		-52.177		1.070e-02		13.624
5		0.00		-3.20		4.670e-02		-52.492		1.158e-02		14.006
5		0.00		-3.60		4.950e-02		-53.507		1.301e-02		16.812
5		0.00		-4.00		5.307e-02		-53.551		1.377e-02		16.172
5		0.00		-4.40		5.678e-02		-50.922		1.522e-02		13.845
5		0.00		-4.80		5.815e-02		-49.358		1.572e-02		16.978
5		0.00		-5.20		6.104e-02		-48.185		1.824e-02		18.295
5		0.00		-5.60		6.269e-02		-49.887		1.861e-02		16.034
5		0.00		-6.00		6.195e-02		-44.692		1.818e-02		18.310
5		0.00		-6.40		6.250e-02		-46.831		1.814e-02		14.724
5		0.00		-6.80		6.322e-02		-45.123		1.929e-02		17.149
5		0.00		-7.20		6.259e-02		-43.514		1.834e-02		19.881
5		0.00		-7.60		6.267e-02		-37.326		1.979e-02		22.231
5		0.00		-8.00		6.414e-02		-43.631		2.057e-02		21.357
5		0.00		-8.40		6.312e-02		-40.613		1.884e-02		19.504
5		0.00		-8.80		6.360e-02		-38.279		1.981e-02		22.068
5		0.00		-9.20		6.112e-02		-39.056		1.841e-02		24.058
5		0.00		-9.60		5.878e-02		-40.051		1.854e-02		24.280
5		0.00		-10.00		5.388e-02		-39.711		1.705e-02		21.714
5		0.00		-9.60		5.943e-02		-42.832		1.925e-02		24.784
5		0.00		-9.20		6.092e-02		-42.447		1.889e-02		18.915
5		0.00		-8.80		6.048e-02		-44.280		1.725e-02		20.433
5		0.00		-8.40		6.346e-02		-46.097		1.795e-02		20.654
5		0.00		-8.00		6.294e-02		-43.316		1.801e-02		17.904
5		0.00		-7.60		6.354e-02		-45.439		1.871e-02		12.945
5		0.00		-7.20		6.061e-02		-44.331		1.861e-02		18.345
5		0.00		-6.80		5.839e-02		-48.758		1.781e-02		16.671
5		0.00		-6.40		5.496e-02		-50.559		1.667e-02		17.939
5		0.00		-6.00		5.245e-02		-50.558		1.539e-02		16.609
5		0.00		-5.60		4.819e-02		-49.997		1.384e-02		15.668
5		0.00		-5.20		4.533e-02		-49.450		1.244e-02		11.505
5		0.00		-4.80		4.123e-02		-49.214		1.074e-02		9.973
5		0.00		-4.40		3.791e-02		-49.808		9.217e-03		8.203
5		0.00		-4.00		3.357e-02		-49.923		7.153e-03		8.457
5		0.00		-3.60		3.067e-02		-48.844		5.540e-03		7.258
5		0.00		-3.20		2.674e-02		-47.915		4.799e-03		8.353
5		0.00		-2.80		2.271e-02		-47.601		3.911e-03		9.380
5		0.00		-2.40		1.833e-02		-44.504		3.116e-03		9.504
5		0.00		-2.00		1.413e-02		-48.237		2.438e-03		10.361
5		0.00		-1.60		9.559e-03		-38.893		1.780e-03		14.503
5		0.00		-1.20		5.416e-03		-41.178		1.420e-03		16.932
5		0.00		-0.80		2.030e-03		-20.194		1.025e-03		58.832
5		0.00		-0.40		3.982e-03		107.119		1.320e-03		24.566
6		0.00		0.00		7.719e-03		124.192		2.016e-03		11.762
6		0.00		0.40		1.214e-02		129.340		2.669e-03		9.017
6		0.00		0.80		1.609e-02		126.725		3.175e-03		8.220
6		0.00		1.20		1.968e-02		129.535		3.920e-03		8.792
6		0.00		1.60		2.390e-02		127.967		4.658e-03		7.411
6		0.00		2.00		2.733e-02		129.619		5.612e-03		7.015
6		0.00		2.40		3.142e-02		130.324		6.505e-03		6.963
6		0.00		2.80		3.399e-02		130.451		6.978e-03		6.862
6		0.00		3.20		3.739e-02		130.475		8.041e-03		6.445
6		0.00		3.60		4.056e-02		131.203		8.579e-03		6.771
6		0.00		4.00		4.364e-02		131.572		9.494e-03		6.877
6		0.00		4.40		4.634e-02		132.275		9.592e-03		5.611
6		0.00		4.80		4.907e-02		132.867		1.049e-02		5.489
6		0.00		5.20		5.154e-02		131.713		1.160e-02		6.659
6		0.00		5.60		5.466e-02		132.030		1.219e-02		6.824
6		0.00		6.00		5.709e-02		132.234		1.320e-02		8.204
6		0.00		6.40		5.784e-02		132.697		1.341e-02		9.478
6		0.00		6.80		6.035e-02		132.920		1.488e-02		9.524
6		0.00		7.20		6.098e-02		134.112		1.501e-02		11.354
6		0.00		7.60		6.185e-02		132.758		1.658e-02		12.313
6		0.00		8.00		6.362e-02		131.458		1.875e-02		12.893
6		0.00		8.40		6.321e-02		131.992		2.017e-02		13.312
6		0.00		8.80		6.267e-02		128.463		2.127e-02		32.365
6		0.00		9.20		6.077e-02		129.954		2.042e-02		31.542
6		0.00		9.60		6.206e-02		130.930		2.181e-02		13.880
6		0.00		10.00		5.834e-02		129.619		2.110e-02		16.700
6		0.00		9.60		5.962e-02		129.630		2.099e-02		17.228
6		0.00		9.20		6.054e-02		126.510		2.149e-02		21.014
6		0.00		8.80		6.031e-02		125.374		2.094e-02		20.602
6		0.00		8.40		5.903e-02		126.763		2.057e-02		21.140
6		0.00		8.00		5.684e-02		127.137		1.819e-02		21.911
6		0.00		7.60		5.431e-02		129.549		1.691e-02		19.568
6		0.00		7.20		5.221e-02		129.225		1.641e-02		19.860
6		0.00		6.80		4.999e-02		128.297		1.508e-02		19.401
6		0.00		6.40		4.689e-02		129.952		1.398e-02		19.877
6		0.00		6.00		4.432e-02		130.688		1.209e-02		16.637
6		0.00		5.60		4.183e-02		130.985		1.089e-02		18.538
6		0.00		5.20		3.839e-02		131.610		1.004e-02		15.734
6		0.00		4.80		3.477e-02		131.021		8.909e-03		20.221
6		0.00		4.40		3.059e-02		130.285		8.177e-03		17.352
6		0.00		4.00		2.721e-02		131.326		7.349e-03		18.676
6		0.00		3.60		2.304e-02		130.919		6.026e-03		18.759
6		0.00		3.20		1.967e-02		132.286		4.651e-03		15.665
6		0.00		2.80		1.500e-02		130.264		3.754e-03		18.819
6		0.00		2.40		1.154e-02		134.194		2.594e-03		15.669
6		0.00		2.00		6.867e-03		133.332		1.774e-03		18.727
6		0.00		1.60		3.023e-03		95.768		1.127e-03		62.115
6		0.00		1.20		2.821e-03		-51.071		1.137e-03		40.146
6		0.00		0.80		6.812e-03		-53.550		1.538e-03		15.198
6		0.00		0.40		1.140e-02		-46.512		2.272e-03		12.145
6		0.00		0.00		1.596e-02		-49.316		2.710e-03		10.287
6		0.00		-0.40		2.061e-02		-49.728		3.336e-03		9.613
6		0.00		-0.80		2.518e-02		-51.409		4.248e-03		8.361
6		0.00		-1.20		2.894e-02		-52.011		5.101e-03		8.721
6		0.00		-1.60		3.387e-02		-52.024		5.536e-03		8.417
6		0.00		-2.00		3.763e-02		-52.531		6.447e-03		7.603
6		0.00		-2.40		4.213e-02		-52.588		7.694e-03		7.448
6		0.00		-2.80		4.533e-02		-52.589		9.054e-03		6.450
6		0.00		-3.20		4.792e-02		-52.486		1.101e-02		8.250
6		0.00		-3.60		5.090e-02		-52.979		1.281e-02		8.246
6		0.00		-4.00		5.404e-02		-53.640		1.462e-02		8.148
6		0.00		-4.40		5.632e-02		-53.242		1.666e-02		9.276
6		0.00		-4.80		5.679e-02		-53.226		1.865e-02		12.223
6		0.00		-5.20		5.929e-02		-52.099		1.994e-02		13.891
6		0.00		-5.60		6.054e-02		-50.253		1.949e-02		14.235
6		0.00		-6.00		6.112e-02		-47.853		1.852e-02		15.670
6		0.00		-6.40		6.289e-02		-45.539		1.807e-02		18.326
6		0.00		-6.80		6.644e-02		-45.858		1.969e-02		17.325
6		0.00		-7.20		6.444e-02		-42.944		1.939e-02		12.936
6		0.00		-7.60		6.941e-02		-44.234		2.011e-02		15.990
6		0.00		-8.00		7.061e-02		-42.672		2.114e-02		14.930
6		0.00		-8.40		7.135e-02		-40.667		2.077e-02		15.472
6		0.00		-8.80		6.969e-02		-39.919		1.875e-02		12.310
6		0.00		-9.20		6.712e-02		-44.656		1.871e-02		12.106
6		0.00		-9.60		6.072e-02		-44.730		1.563e-02		10.939
6		0.00		-10.00		5.284e-02		-45.026		1.309e-02		10.145
6		0.00		-9.60		5.885e-02		-45.458		1.612e-02		10.430
6		0.00		-9.20		6.219e-02		-45.702		1.799e-02		12.430
6		0.00		-8.80		6.381e-02		-43.847		1.751e-02		10.137
6		0.00		-8.40		6.413e-02		-45.766		1.737e-02		12.102
6		0.00		-8.00		6.275e-02		-46.363		1.779e-02		13.887
6		0.00		-7.60		6.138e-02		-46.337		1.893e-02		11.292
6		0.00		-7.20		5.896e-02		-44.750		1.821e-02		16.597
6		0.00		-6.80		5.869e-02		-47.247		1.787e-02		17.093
6		0.00		-6.40		5.708e-02		-49.975		1.655e-02		16.472
6		0.00		-6.00		5.413e-02		-47.188		1.415e-02		10.925
6		0.00		-5.60		5.154e-02		-48.077		1.276e-02		12.477
6		0.00		-5.20		4.857e-02		-47.905		1.051e-02		8.064
6		0.00		-4.80		4.420e-02		-48.930		9.135e-03		8.097
6		0.00		-4.40		4.069e-02		-50.044		6.995e-03		7.136
6		0.00		-4.00		3.629e-02		-49.878		6.561e-03		8.056
6		0.00		-3.60		3.217e-02		-49.722		5.460e-03		8.106
6		0.00		-3.20		2.818e-02		-49.740		4.853e-03		7.491
6		0.00		-2.80		2.406e-02		-48.480		4.094e-03		7.566
6		0.00		-2.40		1.955e-02		-48.323		3.876e-03		8.581
6		0.00		-2.00		1.503e-02		-46.521		3.449e-03		9.929
6		0.00		-1.60		1.038e-02		-39.456		2.818e-03		11.619
6		0.00		-1.20		6.430e-03		-39.335		2.033e-03		23.438
6		0.00		-0.80		2.651e-03		-33.098		1.202e-03		39.110
6		0.00		-0.40		2.878e-03		86.983		1.096e-03		36.999
7		0.00		0.00		6.853e-03		121.068		1.907e-03		20.717
7		0.00		0.40		1.096e-02		123.240		3.255e-03		15.277
7		0.00		0.80		1.484e-02		129.032		3.230e-03		10.641
7		0.00		1.20		1.908e-02		128.668		3.917e-03		9.102
7		0.00		1.60		2.317e-02		129.544		4.523e-03		7.523
7		0.00		2.00		2.765e-02		129.837		4.679e-03		6.970
7		0.00		2.40		3.093e-02		128.867		5.776e-03		7.028
7		0.00		2.80		3.404e-02		130.152		6.428e-03		6.718
7		0.00		3.20		3.691e-02		131.515		8.217e-03		6.901
7		0.00		3.60		3.920e-02		131.104		9.380e-03		8.501
7		0.00		4.00		4.166e-02		131.698		1.110e-02		9.119
7		0.00		4.40		4.423e-02		129.945		1.201e-02		15.129
7		0.00		4.80		4.674e-02		129.203		1.276e-02		19.788
7		0.00		5.20		4.910e-02		129.333		1.405e-02		17.972
7		0.00		5.60		5.141e-02		130.090		1.401e-02		12.378
7		0.00		6.00		5.354e-02		129.764		1.398e-02		11.246
7		0.00		6.40		5.444e-02		131.380		1.316e-02		10.206
7		0.00		6.80		5.776e-02		134.153		1.269e-02		8.800
7		0.00		7.20		6.016e-02		133.839		1.456e-02		9.552
7		0.00		7.60		6.068e-02		135.872		1.599e-02		11.229
7		0.00		8.00		6.306e-02		133.937		1.806e-02		10.189
7		0.00		8.40		6.207e-02		130.924		1.925e-02		17.565
7		0.00		8.80		6.301e-02		126.687		1.946e-02		34.744
7		0.00		9.20		6.597e-02		128.807		2.114e-02		29.076
7		0.00		9.60		6.645e-02		126.170		2.242e-02		31.181
7		0.00		10.00		6.529e-02		134.540		1.984e-02		14.112
7		0.00		9.60		6.494e-02		130.608		1.899e-02		20.512
7		0.00		9.20		6.464e-02		129.268		1.681e-02		18.307
7		0.00		8.80		6.466e-02		134.945		1.408e-02		11.435
7		0.00		8.40		6.316e-02		133.972		1.484e-02		10.824
7		0.00		8.00		6.033e-02		133.261		1.597e-02		10.303
7		0.00		7.60		5.629e-02		131.000		1.795e-02		12.562
7		0.00		7.20		5.283e-02		127.775		1.805e-02		20.354
7		0.00		6.80		4.997e-02		128.164		1.641e-02		24.209
7		0.00		6.40		4.658e-02		129.325		1.443e-02		19.655
7		0.00		6.00		4.391e-02		130.473		1.277e-02		14.848
7		0.00		5.60		4.055e-02		132.116		1.013e-02		10.279
7		0.00		5.20		3.759e-02		133.119		8.786e-03		8.783
7		0.00		4.80		3.473e-02		132.239		7.476e-03		8.738
7		0.00		4.40		3.139e-02		132.464		6.475e-03		8.531
7		0.00		4.00		2.769e-02		134.208		5.676e-03		9.076
7		0.00		3.60		2.414e-02		132.609		5.223e-03		8.870
7		0.00		3.20		1.990e-02		134.664		4.845e-03		9.323
7		0.00		2.80		1.551e-02		131.159		4.000e-03		22.386
7		0.00		2.40		1.199e-02		132.093		2.844e-03		18.240
7		0.00		2.00		7.435e-03		134.037		2.021e-03		17.025
7		0.00		1.60		3.605e-03		123.424		1.256e-03		45.986
7		0.00		1.20		2.132e-03		-43.704		8.522e-04		50.890
7		0.00		0.80		5.847e-03		-53.870		1.725e-03		20.037
7		0.00		0.40		1.058e-02		-48.628		2.462e-03		11.264
7		0.00		0.00		1.522e-02		-51.227		2.786e-03		11.837
7		0.00		-0.40		1.976e-02		-50.444		3.506e-03		10.111
7		0.00		-0.80		2.341e-02		-51.024		4.518e-03		9.092
7		0.00		-1.20		2.806e-02		-52.049		5.897e-03		8.521
7		0.00		-1.60		3.132e-02		-52.476		7.444e-03		8.771
7		0.00		-2.00		3.531e-02		-52.360		9.128e-03		9.097
7		0.00		-2.40		3.847e-02		-52.021		1.018e-02		12.541
7		0.00		-2.80		4.327e-02		-53.202		1.095e-02		12.111
7		0.00		-3.20		4.655e-02		-51.903		1.126e-02		11.217
7		0.00		-3.60		5.016e-02		-53.752		1.171e-02		12.813
7		0.00		-4.00		5.448e-02		-53.023		1.204e-02		9.969
7		0.00		-4.40		5.742e-02		-52.696		1.198e-02		10.408
7		0.00		-4.80		6.067e-02		-51.652		1.326e-02		11.442
7		0.00		-5.20		6.140e-02		-51.566		1.384e-02		12.391
7		0.00		-5.60		6.480e-02		-49.672		1.380e-02		10.428
7		0.00		-6.00		6.656e-02		-44.598		1.592e-02		12.286
7		0.00		-6.40		6.593e-02		-46.652		1.578e-02		11.957
7		0.00		-6.80		6.567e-02		-45.238		1.762e-02		13.226
7		0.00		-7.20		6.647e-02		-46.761		2.075e-02		15.651
7		0.00		-7.60		6.392e-02		-45.214		2.139e-02		16.938
7		0.00		-8.00		6.385e-02		-45.840		2.226e-02		23.465
7		0.00		-8.40		6.211e-02		-42.956		2.014e-02		23.484
7		0.00		-8.80		6.351e-02		-39.505		2.249e-02		28.640
7		0.00		-9.20		6.114e-02		-47.860		2.297e-02		24.861
7		0.00		-9.60		5.607e-02		-45.956		1.947e-02		18.963
7		0.00		-10.00		5.083e-02		-44.850		1.640e-02		12.902
7		0.00		-9.60		5.814e-02		-46.866		1.778e-02		13.494
7		0.00		-9.20		6.328e-02		-43.357		1.755e-02		9.702
7		0.00		-8.80		6.420e-02		-40.927		1.511e-02		9.362
7		0.00		-8.40		6.515e-02		-46.550		1.602e-02		13.011
7		0.00		-8.00		6.630e-02		-46.658		1.445e-02		11.454
7		0.00		-7.60		6.817e-02		-47.181		1.493e-02		10.234
7		0.00		-7.20		6.367e-02		-46.771		1.427e-02		10.170
7		0.00		-6.80		6.198e-02		-48.440		1.385e-02		7.857
7		0.00		-6.40		5.962e-02		-47.891		1.449e-02		7.924
7		0.00		-6.00		5.472e-02		-48.887		1.414e-02		8.990
7		0.00		-5.60		5.037e-02		-49.498		1.455e-02		9.415
7		0.00		-5.20		4.658e-02		-49.320		1.326e-02		12.733
7		0.00		-4.80		4.304e-02		-51.731		1.141e-02		12.605
7		0.00		-4.40		3.892e-02		-52.106		9.998e-03		12.972
7		0.00		-4.00		3.476e-02		-50.944		8.476e-03		12.440
7		0.00		-3.60		3.173e-02		-49.643		6.630e-03		8.250
7		0.00		-3.20		2.726e-02		-49.462		5.740e-03		9.182
7		0.00		-2.80		2.369e-02		-46.551		4.404e-03		8.008
7		0.00		-2.40		1.992e-02		-48.688		3.372e-03		7.676
7		0.00		-2.00		1.520e-02		-47.569		2.651e-03		7.933
7		0.00		-1.60		1.079e-02		-38.374		1.760e-03		10.847
7		0.00		-1.20		6.854e-03		-39.557		1.357e-03		17.381
7		0.00		-0.80		2.734e-03		-16.021		1.153e-03		45.527
7		0.00		-0.40		3.118e-03		95.735		1.048e-03		40.241
8		0.00		0.00		6.955e-03		118.299		1.705e-03		16.597
8		0.00		0.40		1.127e-02		123.986		2.465e-03		10.529
8		0.00		0.80		1.556e-02		127.874		3.113e-03		8.368
8		0.00		1.20		1.995e-02		129.086		4.244e-03		7.878
8		0.00		1.60		2.322e-02		128.132		5.631e-03		9.666
8		0.00		2.00		2.607e-02		128.980		7.029e-03		10.615
8		0.00		2.40		2.975e-02		129.081		8.398e-03		9.763
8		0.00		2.80		3.216e-02		128.878		9.780e-03		12.333
8		0.00		3.20		3.516e-02		129.255		1.078e-02		13.721
8		0.00		3.60		3.768e-02		127.839		1.119e-02		18.989
8		0.00		4.00		4.017e-02		129.913		1.187e-02		17.855
8		0.00		4.40		4.175e-02		128.459		1.256e-02		21.618
8		0.00		4.80		4.516e-02		129.973		1.378e-02		21.342
8		0.00		5.20		4.720e-02		129.307		1.385e-02		20.463
8		0.00		5.60		5.034e-02		130.666		1.415e-02		16.570
8		0.00		6.00		5.299e-02		130.563		1.432e-02		14.568
8		0.00		6.40		5.557e-02		130.303		1.500e-02		14.597
8		0.00		6.80		5.802e-02		132.097		1.546e-02		11.977
8		0.00		7.20		5.802e-02		131.106		1.634e-02		16.896
8		0.00		7.60		6.058e-02		131.428		1.641e-02		12.955
8		0.00		8.00		6.278e-02		130.735		1.774e-02		15.157
8		0.00		8.40		6.587e-02		132.424		1.687e-02		19.097
8		0.00		8.80		6.710e-02		132.468		1.704e-02		11.555
8		0.00		9.20		6.682e-02		129.201		1.872e-02		23.426
8		0.00		9.60		6.669e-02		129.533		1.971e-02		22.290
8		0.00		10.00		6.205e-02		131.760		1.778e-02		19.762
8		0.00		9.60		6.427e-02		130.989		1.745e-02		20.660
8		0.00		9.20		6.400e-02		131.658		1.632e-02		14.883
8		0.00		8.80		6.225e-02		131.078		1.773e-02		20.975
8		0.00		8.40		5.946e-02		130.532		1.572e-02		15.836
8		0.00		8.00		5.815e-02		131.907		1.421e-02		13.381
8		0.00		7.60		5.577e-02		131.370		1.220e-02		33.515
8		0.00		7.20		5.466e-02		132.466		1.184e-02		9.126
8		0.00		6.80		5.204e-02		133.976		1.063e-02		7.027
8		0.00		6.40		4.980e-02		133.768		1.025e-02		7.145
8		0.00		6.00		4.616e-02		134.121		9.573e-03		7.150
8		0.00		5.60		4.305e-02		132.219		8.968e-03		6.791
8		0.00		5.20		4.027e-02		132.734		8.138e-03		7.509
8		0.00		4.80		3.606e-02		132.811		7.506e-03		7.787
8		0.00		4.40		3.250e-02		132.483		6.488e-03		8.234
8		0.00		4.00		2.853e-02		134.000		5.705e-03		7.846
8		0.00		3.60		2.485e-02		134.720		5.005e-03		7.510
8		0.00		3.20		2.086e-02		133.810		4.110e-03		7.407
8		0.00		2.80		1.640e-02		134.610		3.611e-03		9.454
8		0.00		2.40		1.240e-02		133.985		2.656e-03		9.710
8		0.00		2.00		7.873e-03		130.217		1.877e-03		13.924
8		0.00		1.60		3.544e-03		108.968		1.447e-03		59.067
8		0.00		1.20		2.229e-03		-39.974		9.346e-04		61.463
8		0.00		0.80		5.659e-03		-54.885		1.473e-03		18.286
8		0.00		0.40		9.870e-03		-52.791		2.190e-03		12.812
8		0.00		0.00		1.429e-02		-52.276		2.830e-03		9.171
8		0.00		-0.40		1.853e-02		-51.481		3.208e-03		9.085
8		0.00		-0.80		2.323e-02		-50.633		3.896e-03		8.719
8		0.00		-1.20		2.775e-02		-51.170		5.023e-03		8.741
8		0.00		-1.60		3.206e-02		-51.406		6.135e-03		7.928
8		0.00		-2.00		3.582e-02		-51.431		7.092e-03		8.000
8		0.00		-2.40		3.942e-02		-52.588		8.275e-03		8.144
8		0.00		-2.80		4.297e-02		-52.937		9.464e-03		8.534
8		0.00		-3.20		4.680e-02		-52.420		1.094e-02		8.964
8		0.00		-3.60		5.001e-02		-53.153		1.251e-02		8.715
8		0.00		-4.00		5.394e-02		-53.671		1.384e-02		8.430
8		0.00		-4.40		5.584e-02		-52.540		1.560e-02		8.789
8		0.00		-4.80		5.751e-02		-53.190		1.812e-02		11.395
8		0.00		-5.20		5.906e-02		-51.131		1.796e-02		11.589
8		0.00		-5.60		5.942e-02		-49.203		1.878e-02		12.717
8		0.00		-6.00		6.075e-02		-50.257		1.923e-02		14.560
8		0.00		-6.40		6.024e-02		-47.077		1.777e-02		16.089
8		0.00		-6.80		6.376e-02		-42.585		2.209e-02		26.877
8		0.00		-7.20		6.391e-02		-45.646		2.007e-02		19.644
8		0.00		-7.60		6.564e-02		-42.721		2.062e-02		19.246
8		0.00		-8.00		6.428e-02		-38.735		1.975e-02		23.575
8		0.00		-8.40		6.240e-02		-38.215		1.764e-02		20.441
8		0.00		-8.80		6.280e-02		-39.297		1.833e-02		22.303
8		0.00		-9.20		6.542e-02		-42.615		2.096e-02		15.398
8		0.00		-9.60		6.226e-02		-47.490		2.024e-02		18.751
8		0.00		-10.00		5.513e-02		-44.424		1.612e-02		11.588
8		0.00		-9.60		6.206e-02		-45.005		1.882e-02		10.652
8		0.00		-9.20		6.516e-02		-44.387		1.863e-02		13.540
8		0.00		-8.80		6.594e-02		-42.833		1.617e-02		11.744
8		0.00		-8.40		6.741e-02		-45.716		1.736e-02		15.812
8		0.00		-8.00		6.714e-02		-44.084		1.575e-02		13.079
8		0.00		-7.60		6.432e-02		-42.892		1.472e-02		14.303
8		0.00		-7.20		6.283e-02		-45.674		1.452e-02		12.766
8		0.00		-6.80		6.130e-02		-47.692		1.383e-02		9.990
8		0.00		-6.40		5.931e-02		-47.572		1.345e-02		7.722
8		0.00		-6.00		5.487e-02		-47.613		1.272e-02		8.546
8		0.00		-5.60		5.240e-02		-48.986		1.315e-02		6.597
8		0.00		-5.20		4.795e-02		-50.188		1.255e-02		8.189
8		0.00		-4.80		4.380e-02		-50.592		1.174e-02		8.357
8		0.00		-4.40		3.945e-02		-50.317		1.035e-02		8.923
8		0.00		-4.00		3.586e-02		-51.367		8.989e-03		10.168
8		0.00		-3.60		3.217e-02		-51.211		7.936e-03		8.485
8		0.00		-3.20		2.769e-02		-49.951		6.868e-03		11.294
8		0.00		-2.80		2.410e-02		-48.888		5.683e-03		11.163
8		0.00		-2.40		1.985e-02		-47.163		4.291e-03		12.466
8		0.00		-2.00		1.603e-02		-46.971		3.623e-03		13.601
8		0.00		-1.60		1.199e-02		-41.180		2.639e-03		10.444
8		0.00		-1.20		7.392e-03		-39.195		1.755e-03		14.462
8		0.00		-0.80		3.424e-03		-31.691		1.050e-03		26.773
8		0.00		-0.40		2.168e-03		50.887		1.020e-03		56.823
