# Date of analysis: 2023-11-20 16;19
# 
# Loop index	Read Volt (V)	Write Volt (V)	Amplitude (a.u)	Phase (deg)	Sigma Amp (a.u)	Sigma Pha (deg)	
1		0.00		0.00		1.338e-02		-79.225		8.507e-03		61.166
1		0.00		0.40		9.792e-03		-60.655		2.106e-03		18.373
1		0.00		0.80		3.765e-03		-55.076		1.460e-03		55.552
1		0.00		1.20		3.962e-03		83.929		1.752e-03		65.254
1		0.00		1.60		8.034e-03		126.931		2.770e-03		16.384
1		0.00		2.00		1.147e-02		126.364		3.656e-03		17.510
1		0.00		2.40		1.652e-02		127.142		5.111e-03		19.359
1		0.00		2.80		2.020e-02		124.387		6.689e-03		27.844
1		0.00		3.20		2.393e-02		123.419		7.658e-03		29.667
1		0.00		3.60		2.773e-02		124.820		9.145e-03		27.709
1		0.00		4.00		3.065e-02		128.720		9.789e-03		17.676
1		0.00		4.40		3.395e-02		128.160		1.047e-02		11.026
1		0.00		4.80		3.480e-02		129.317		9.561e-03		12.326
1		0.00		5.20		3.906e-02		128.012		9.871e-03		12.268
1		0.00		5.60		4.104e-02		127.447		1.050e-02		12.264
1		0.00		6.00		4.216e-02		126.517		1.071e-02		13.446
1		0.00		6.40		4.229e-02		124.636		1.276e-02		17.825
1		0.00		6.80		4.401e-02		126.541		1.319e-02		15.935
1		0.00		7.20		4.473e-02		124.725		1.435e-02		20.989
1		0.00		7.60		4.487e-02		124.285		1.472e-02		23.054
1		0.00		8.00		4.765e-02		122.050		1.579e-02		33.387
1		0.00		8.40		4.912e-02		124.992		1.626e-02		33.468
1		0.00		8.80		5.092e-02		123.727		1.711e-02		36.208
1		0.00		9.20		5.199e-02		123.232		1.820e-02		31.450
1		0.00		9.60		5.174e-02		125.943		1.948e-02		21.555
1		0.00		10.00		4.834e-02		128.338		1.789e-02		13.030
1		0.00		9.60		4.842e-02		127.113		1.693e-02		15.035
1		0.00		9.20		4.822e-02		127.377		1.647e-02		15.116
1		0.00		8.80		4.645e-02		127.146		1.544e-02		16.360
1		0.00		8.40		4.390e-02		127.973		1.338e-02		16.151
1		0.00		8.00		4.199e-02		129.306		1.184e-02		14.458
1		0.00		7.60		4.044e-02		128.647		1.161e-02		16.393
1		0.00		7.20		3.943e-02		128.676		1.084e-02		15.376
1		0.00		6.80		3.714e-02		129.201		1.021e-02		14.786
1		0.00		6.40		3.608e-02		128.996		1.006e-02		14.339
1		0.00		6.00		3.471e-02		130.778		9.773e-03		14.679
1		0.00		5.60		3.423e-02		129.746		9.801e-03		20.395
1		0.00		5.20		3.201e-02		127.902		9.733e-03		24.886
1		0.00		4.80		3.147e-02		126.906		9.753e-03		27.916
1		0.00		4.40		2.667e-02		128.227		8.202e-03		29.376
1		0.00		4.00		2.487e-02		125.620		7.902e-03		26.833
1		0.00		3.60		2.210e-02		129.503		6.919e-03		21.929
1		0.00		3.20		1.870e-02		129.505		5.714e-03		18.406
1		0.00		2.80		1.561e-02		131.232		4.953e-03		20.539
1		0.00		2.40		1.195e-02		128.315		3.806e-03		26.269
1		0.00		2.00		8.392e-03		123.635		3.282e-03		33.858
1		0.00		1.60		4.890e-03		98.021		1.928e-03		59.748
1		0.00		1.20		3.263e-03		5.804		1.384e-03		86.835
1		0.00		0.80		4.810e-03		-57.457		1.837e-03		34.026
1		0.00		0.40		9.493e-03		-49.348		2.154e-03		20.265
1		0.00		0.00		1.405e-02		-53.370		2.677e-03		15.313
1		0.00		-0.40		1.758e-02		-49.956		3.183e-03		15.261
1		0.00		-0.80		2.009e-02		-50.113		3.977e-03		16.040
1		0.00		-1.20		2.211e-02		-47.926		4.824e-03		16.999
1		0.00		-1.60		2.361e-02		-48.706		5.685e-03		17.772
1		0.00		-2.00		2.566e-02		-49.353		6.265e-03		17.917
1		0.00		-2.40		2.800e-02		-47.384		7.206e-03		16.098
1		0.00		-2.80		2.876e-02		-47.634		7.569e-03		13.986
1		0.00		-3.20		3.032e-02		-47.918		8.110e-03		16.450
1		0.00		-3.60		3.247e-02		-49.321		8.798e-03		12.248
1		0.00		-4.00		3.333e-02		-52.125		8.981e-03		11.940
1		0.00		-4.40		3.468e-02		-51.685		8.650e-03		12.395
1		0.00		-4.80		3.625e-02		-50.396		9.099e-03		10.875
1		0.00		-5.20		3.721e-02		-48.829		8.449e-03		10.537
1		0.00		-5.60		3.857e-02		-48.626		9.289e-03		12.112
1		0.00		-6.00		4.027e-02		-48.483		9.364e-03		12.743
1		0.00		-6.40		4.084e-02		-49.007		1.075e-02		14.791
1		0.00		-6.80		4.064e-02		-48.308		1.132e-02		15.107
1		0.00		-7.20		4.000e-02		-47.588		1.052e-02		15.090
1		0.00		-7.60		4.052e-02		-47.639		1.133e-02		15.492
1		0.00		-8.00		4.143e-02		-46.843		1.210e-02		15.944
1		0.00		-8.40		3.985e-02		-46.369		1.235e-02		18.232
1		0.00		-8.80		3.972e-02		-44.740		1.279e-02		22.572
1		0.00		-9.20		3.669e-02		-34.622		1.254e-02		24.603
1		0.00		-9.60		3.453e-02		-36.057		1.158e-02		24.622
1		0.00		-10.00		2.960e-02		-36.277		9.462e-03		20.422
1		0.00		-9.60		3.389e-02		-41.498		1.065e-02		14.196
1		0.00		-9.20		3.872e-02		-41.442		1.138e-02		10.917
1		0.00		-8.80		4.059e-02		-42.275		1.125e-02		11.154
1		0.00		-8.40		4.300e-02		-44.513		1.081e-02		12.701
1		0.00		-8.00		4.305e-02		-46.668		1.024e-02		13.454
1		0.00		-7.60		4.169e-02		-47.557		1.011e-02		15.371
1		0.00		-7.20		4.023e-02		-46.393		9.331e-03		13.567
1		0.00		-6.80		3.823e-02		-45.969		9.222e-03		14.401
1		0.00		-6.40		3.627e-02		-45.584		9.196e-03		12.198
1		0.00		-6.00		3.481e-02		-47.033		9.485e-03		14.392
1		0.00		-5.60		3.212e-02		-48.574		9.156e-03		19.635
1		0.00		-5.20		3.113e-02		-48.668		9.122e-03		18.540
1		0.00		-4.80		2.773e-02		-46.230		8.173e-03		19.138
1		0.00		-4.40		2.608e-02		-49.808		7.270e-03		13.309
1		0.00		-4.00		2.420e-02		-50.293		6.259e-03		10.502
1		0.00		-3.60		2.160e-02		-50.891		5.134e-03		10.253
1		0.00		-3.20		1.937e-02		-52.033		3.910e-03		12.046
1		0.00		-2.80		1.663e-02		-49.064		2.970e-03		12.783
1		0.00		-2.40		1.385e-02		-51.623		2.340e-03		13.610
1		0.00		-2.00		1.031e-02		-50.677		2.162e-03		17.884
1		0.00		-1.60		6.798e-03		-43.354		1.602e-03		18.151
1		0.00		-1.20		2.732e-03		-37.951		1.327e-03		45.668
1		0.00		-0.80		2.521e-03		62.067		9.767e-04		66.160
1		0.00		-0.40		6.201e-03		115.525		2.064e-03		38.010
2		0.00		0.00		9.921e-03		121.889		2.764e-03		25.515
2		0.00		0.40		1.428e-02		125.716		3.530e-03		13.655
2		0.00		0.80		1.839e-02		131.417		4.386e-03		9.186
2		0.00		1.20		2.289e-02		129.099		4.707e-03		8.664
2		0.00		1.60		2.620e-02		128.481		5.524e-03		8.754
2		0.00		2.00		2.979e-02		127.775		6.478e-03		9.988
2		0.00		2.40		3.178e-02		129.745		6.930e-03		11.132
2		0.00		2.80		3.296e-02		129.430		8.164e-03		11.122
2		0.00		3.20		3.602e-02		130.040		9.054e-03		11.744
2		0.00		3.60		3.796e-02		128.576		1.083e-02		17.806
2		0.00		4.00		3.964e-02		126.123		1.157e-02		24.112
2		0.00		4.40		4.155e-02		127.731		1.319e-02		24.932
2		0.00		4.80		4.355e-02		130.581		1.398e-02		17.318
2		0.00		5.20		4.535e-02		131.489		1.321e-02		9.639
2		0.00		5.60		4.755e-02		130.160		1.154e-02		10.218
2		0.00		6.00		4.808e-02		129.021		1.117e-02		10.906
2		0.00		6.40		4.845e-02		128.268		1.157e-02		12.974
2		0.00		6.80		4.778e-02		129.316		1.188e-02		15.003
2		0.00		7.20		4.994e-02		131.191		1.242e-02		13.422
2		0.00		7.60		5.173e-02		127.719		1.533e-02		18.236
2		0.00		8.00		5.301e-02		129.011		1.638e-02		22.772
2		0.00		8.40		5.552e-02		126.820		1.831e-02		28.433
2		0.00		8.80		5.732e-02		128.986		1.886e-02		20.738
2		0.00		9.20		5.833e-02		130.146		1.865e-02		20.813
2		0.00		9.60		5.597e-02		130.284		1.755e-02		11.747
2		0.00		10.00		5.085e-02		131.136		1.589e-02		13.724
2		0.00		9.60		5.173e-02		129.135		1.583e-02		14.866
2		0.00		9.20		4.954e-02		129.555		1.381e-02		16.837
2		0.00		8.80		4.700e-02		130.888		1.276e-02		15.147
2		0.00		8.40		4.669e-02		130.691		1.354e-02		13.985
2		0.00		8.00		4.542e-02		130.246		1.369e-02		15.706
2		0.00		7.60		4.613e-02		130.226		1.438e-02		17.272
2		0.00		7.20		4.682e-02		128.399		1.507e-02		23.939
2		0.00		6.80		4.437e-02		129.075		1.494e-02		25.001
2		0.00		6.40		4.359e-02		132.741		1.385e-02		8.738
2		0.00		6.00		4.229e-02		132.432		1.194e-02		8.402
2		0.00		5.60		4.023e-02		131.886		1.038e-02		10.366
2		0.00		5.20		3.813e-02		131.326		9.564e-03		9.890
2		0.00		4.80		3.545e-02		132.577		9.154e-03		10.863
2		0.00		4.40		3.309e-02		131.594		8.437e-03		11.097
2		0.00		4.00		2.954e-02		133.805		7.440e-03		10.359
2		0.00		3.60		2.612e-02		130.856		7.256e-03		20.397
2		0.00		3.20		2.353e-02		129.956		6.599e-03		25.531
2		0.00		2.80		1.886e-02		127.967		5.846e-03		22.821
2		0.00		2.40		1.522e-02		132.437		4.693e-03		22.745
2		0.00		2.00		1.099e-02		129.954		3.783e-03		29.067
2		0.00		1.60		6.877e-03		123.505		2.820e-03		43.627
2		0.00		1.20		3.119e-03		50.505		1.273e-03		81.005
2		0.00		0.80		4.126e-03		-68.507		1.738e-03		38.709
2		0.00		0.40		7.613e-03		-54.639		2.130e-03		20.382
2		0.00		0.00		1.081e-02		-55.515		2.860e-03		17.646
2		0.00		-0.40		1.337e-02		-52.314		3.719e-03		20.145
2		0.00		-0.80		1.641e-02		-49.081		4.773e-03		22.669
2		0.00		-1.20		1.953e-02		-48.249		5.805e-03		19.258
2		0.00		-1.60		2.129e-02		-49.891		5.776e-03		14.118
2		0.00		-2.00		2.423e-02		-53.111		5.340e-03		12.034
2		0.00		-2.40		2.637e-02		-50.415		4.880e-03		12.938
2		0.00		-2.80		2.790e-02		-51.691		4.813e-03		12.827
2		0.00		-3.20		2.948e-02		-52.465		5.663e-03		13.529
2		0.00		-3.60		3.073e-02		-50.056		6.005e-03		13.209
2		0.00		-4.00		3.142e-02		-48.473		7.295e-03		13.026
2		0.00		-4.40		3.295e-02		-49.303		8.677e-03		17.020
2		0.00		-4.80		3.449e-02		-46.882		9.556e-03		15.514
2		0.00		-5.20		3.724e-02		-45.820		1.078e-02		14.860
2		0.00		-5.60		3.935e-02		-46.965		1.094e-02		10.453
2		0.00		-6.00		4.057e-02		-46.524		1.021e-02		10.275
2		0.00		-6.40		4.023e-02		-46.201		9.224e-03		12.392
2		0.00		-6.80		4.249e-02		-47.303		9.189e-03		12.248
2		0.00		-7.20		4.271e-02		-46.595		1.013e-02		14.162
2		0.00		-7.60		4.451e-02		-45.335		1.189e-02		12.554
2		0.00		-8.00		4.376e-02		-45.683		1.282e-02		14.521
2		0.00		-8.40		4.381e-02		-45.538		1.424e-02		20.427
2		0.00		-8.80		4.282e-02		-38.827		1.476e-02		18.910
2		0.00		-9.20		4.025e-02		-39.597		1.364e-02		11.143
2		0.00		-9.60		3.576e-02		-42.680		1.118e-02		9.927
2		0.00		-10.00		3.046e-02		-42.187		8.793e-03		11.466
2		0.00		-9.60		3.652e-02		-45.256		1.029e-02		12.779
2		0.00		-9.20		4.000e-02		-42.184		1.078e-02		14.087
2		0.00		-8.80		4.343e-02		-42.103		1.147e-02		12.336
2		0.00		-8.40		4.435e-02		-44.683		1.263e-02		16.024
2		0.00		-8.00		4.556e-02		-46.650		1.386e-02		22.178
2		0.00		-7.60		4.723e-02		-40.555		1.402e-02		22.291
2		0.00		-7.20		4.530e-02		-42.186		1.328e-02		16.943
2		0.00		-6.80		4.405e-02		-45.357		1.168e-02		9.399
2		0.00		-6.40		4.148e-02		-45.435		9.700e-03		10.428
2		0.00		-6.00		4.007e-02		-46.700		8.521e-03		10.582
2		0.00		-5.60		3.670e-02		-47.433		8.031e-03		12.434
2		0.00		-5.20		3.382e-02		-47.603		7.570e-03		13.630
2		0.00		-4.80		3.048e-02		-48.078		7.542e-03		13.847
2		0.00		-4.40		2.852e-02		-48.404		7.489e-03		14.524
2		0.00		-4.00		2.536e-02		-51.983		6.979e-03		21.190
2		0.00		-3.60		2.261e-02		-46.651		6.497e-03		24.443
2		0.00		-3.20		1.980e-02		-47.500		5.859e-03		15.981
2		0.00		-2.80		1.738e-02		-49.461		4.636e-03		12.846
2		0.00		-2.40		1.431e-02		-46.534		3.525e-03		12.908
2		0.00		-2.00		1.119e-02		-49.621		2.379e-03		13.373
2		0.00		-1.60		8.353e-03		-47.275		1.899e-03		17.036
2		0.00		-1.20		4.401e-03		-48.653		1.322e-03		28.727
2		0.00		-0.80		2.122e-03		-8.820		8.647e-04		75.356
2		0.00		-0.40		3.802e-03		101.508		1.531e-03		44.931
3		0.00		0.00		8.032e-03		123.402		2.421e-03		20.903
3		0.00		0.40		1.230e-02		127.021		3.276e-03		18.413
3		0.00		0.80		1.628e-02		129.338		4.379e-03		22.847
3		0.00		1.20		2.070e-02		129.566		5.765e-03		12.584
3		0.00		1.60		2.414e-02		129.936		6.083e-03		9.614
3		0.00		2.00		2.865e-02		131.914		6.149e-03		9.449
3		0.00		2.40		3.219e-02		130.753		6.791e-03		9.528
3		0.00		2.80		3.456e-02		130.112		7.629e-03		10.508
3		0.00		3.20		3.743e-02		130.240		8.617e-03		10.072
3		0.00		3.60		4.017e-02		131.346		9.978e-03		9.656
3		0.00		4.00		4.123e-02		129.727		1.153e-02		15.941
3		0.00		4.40		4.349e-02		128.043		1.320e-02		21.559
3		0.00		4.80		4.617e-02		129.286		1.522e-02		20.786
3		0.00		5.20		4.809e-02		133.179		1.520e-02		8.366
3		0.00		5.60		4.932e-02		131.580		1.369e-02		8.097
3		0.00		6.00		5.007e-02		130.318		1.293e-02		10.640
3		0.00		6.40		4.961e-02		129.532		1.320e-02		14.095
3		0.00		6.80		5.041e-02		132.952		1.265e-02		12.236
3		0.00		7.20		5.315e-02		131.265		1.532e-02		13.844
3		0.00		7.60		5.505e-02		128.963		1.707e-02		24.259
3		0.00		8.00		5.827e-02		130.021		1.855e-02		28.555
3		0.00		8.40		5.989e-02		132.382		1.941e-02		21.172
3		0.00		8.80		6.102e-02		130.321		1.807e-02		13.681
3		0.00		9.20		6.086e-02		129.410		1.710e-02		17.178
3		0.00		9.60		5.888e-02		131.479		1.722e-02		14.902
3		0.00		10.00		5.567e-02		131.412		1.645e-02		17.187
3		0.00		9.60		5.721e-02		127.803		1.797e-02		17.970
3		0.00		9.20		5.797e-02		127.226		1.956e-02		22.825
3		0.00		8.80		5.622e-02		128.711		1.980e-02		29.664
3		0.00		8.40		5.478e-02		128.072		1.962e-02		30.567
3		0.00		8.00		5.351e-02		132.855		1.764e-02		10.818
3		0.00		7.60		5.257e-02		132.058		1.437e-02		11.257
3		0.00		7.20		5.042e-02		131.007		1.345e-02		14.517
3		0.00		6.80		4.638e-02		132.944		1.178e-02		14.160
3		0.00		6.40		4.595e-02		131.503		1.279e-02		11.706
3		0.00		6.00		4.518e-02		127.646		1.405e-02		22.341
3		0.00		5.60		4.251e-02		128.502		1.329e-02		21.925
3		0.00		5.20		3.985e-02		133.219		1.182e-02		9.255
3		0.00		4.80		3.878e-02		131.685		1.003e-02		9.265
3		0.00		4.40		3.544e-02		132.780		7.805e-03		8.672
3		0.00		4.00		3.178e-02		132.755		6.913e-03		9.568
3		0.00		3.60		2.839e-02		133.186		6.745e-03		10.378
3		0.00		3.20		2.470e-02		131.909		6.511e-03		17.858
3		0.00		2.80		1.997e-02		133.493		5.460e-03		21.083
3		0.00		2.40		1.596e-02		134.321		4.429e-03		11.459
3		0.00		2.00		1.121e-02		134.817		3.520e-03		20.366
3		0.00		1.60		6.863e-03		128.666		2.582e-03		34.914
3		0.00		1.20		3.291e-03		50.792		1.206e-03		92.025
3		0.00		0.80		4.016e-03		-50.839		1.765e-03		42.054
3		0.00		0.40		8.013e-03		-47.953		2.496e-03		18.816
3		0.00		0.00		1.203e-02		-49.645		3.724e-03		15.918
3		0.00		-0.40		1.609e-02		-52.865		4.282e-03		11.241
3		0.00		-0.80		1.986e-02		-48.908		3.947e-03		11.704
3		0.00		-1.20		2.328e-02		-51.012		4.002e-03		11.929
3		0.00		-1.60		2.415e-02		-50.813		4.515e-03		12.542
3		0.00		-2.00		2.523e-02		-48.047		5.719e-03		12.225
3		0.00		-2.40		2.696e-02		-49.459		7.245e-03		16.400
3		0.00		-2.80		2.879e-02		-49.445		8.387e-03		12.381
3		0.00		-3.20		3.083e-02		-50.898		7.856e-03		10.248
3		0.00		-3.60		3.404e-02		-51.928		7.035e-03		10.141
3		0.00		-4.00		3.543e-02		-51.433		7.028e-03		12.156
3		0.00		-4.40		3.651e-02		-49.554		7.789e-03		11.843
3		0.00		-4.80		3.752e-02		-48.448		9.583e-03		13.961
3		0.00		-5.20		3.977e-02		-48.198		1.061e-02		20.941
3		0.00		-5.60		4.264e-02		-45.374		1.234e-02		16.509
3		0.00		-6.00		4.380e-02		-45.906		1.074e-02		10.027
3		0.00		-6.40		4.511e-02		-46.683		1.001e-02		11.809
3		0.00		-6.80		4.591e-02		-45.914		1.000e-02		13.046
3		0.00		-7.20		4.704e-02		-44.308		1.085e-02		12.082
3		0.00		-7.60		4.666e-02		-44.826		1.336e-02		13.684
3		0.00		-8.00		4.769e-02		-47.384		1.551e-02		22.890
3		0.00		-8.40		4.626e-02		-42.257		1.608e-02		24.117
3		0.00		-8.80		4.411e-02		-44.032		1.585e-02		15.462
3		0.00		-9.20		4.201e-02		-41.696		1.350e-02		10.258
3		0.00		-9.60		3.715e-02		-43.991		1.157e-02		12.973
3		0.00		-10.00		3.169e-02		-42.291		8.885e-03		13.878
3		0.00		-9.60		3.655e-02		-44.165		1.127e-02		12.101
3		0.00		-9.20		4.107e-02		-44.809		1.393e-02		20.069
3		0.00		-8.80		4.481e-02		-39.572		1.527e-02		24.739
3		0.00		-8.40		4.596e-02		-43.156		1.514e-02		16.004
3		0.00		-8.00		4.742e-02		-44.888		1.301e-02		8.208
3		0.00		-7.60		4.694e-02		-45.243		1.102e-02		9.528
3		0.00		-7.20		4.482e-02		-44.809		9.882e-03		12.273
3		0.00		-6.80		4.358e-02		-45.371		9.802e-03		10.664
3		0.00		-6.40		4.099e-02		-44.729		1.070e-02		15.184
3		0.00		-6.00		3.948e-02		-45.736		1.078e-02		18.553
3		0.00		-5.60		3.819e-02		-47.494		1.090e-02		19.013
3		0.00		-5.20		3.621e-02		-46.801		9.436e-03		10.007
3		0.00		-4.80		3.377e-02		-46.963		7.248e-03		10.016
3		0.00		-4.40		3.034e-02		-48.398		5.119e-03		10.739
3		0.00		-4.00		2.647e-02		-48.522		5.519e-03		13.054
3		0.00		-3.60		2.366e-02		-47.910		5.177e-03		11.546
3		0.00		-3.20		2.124e-02		-49.127		5.528e-03		14.364
3		0.00		-2.80		1.740e-02		-49.856		5.012e-03		17.813
3		0.00		-2.40		1.466e-02		-45.212		4.410e-03		15.245
3		0.00		-2.00		1.098e-02		-46.137		3.368e-03		13.858
3		0.00		-1.60		8.005e-03		-45.678		2.100e-03		15.348
3		0.00		-1.20		4.011e-03		-46.449		1.489e-03		27.664
3		0.00		-0.80		2.240e-03		11.125		8.459e-04		75.364
3		0.00		-0.40		5.156e-03		124.163		1.627e-03		21.092
4		0.00		0.00		9.072e-03		123.245		2.724e-03		18.703
4		0.00		0.40		1.365e-02		125.102		3.582e-03		22.636
4		0.00		0.80		1.756e-02		129.229		4.880e-03		18.061
4		0.00		1.20		2.190e-02		131.918		5.663e-03		10.761
4		0.00		1.60		2.639e-02		132.201		6.207e-03		7.794
4		0.00		2.00		3.071e-02		130.075		6.601e-03		7.844
4		0.00		2.40		3.392e-02		129.732		7.245e-03		9.085
4		0.00		2.80		3.722e-02		132.569		8.234e-03		9.563
4		0.00		3.20		4.069e-02		132.480		9.269e-03		9.539
4		0.00		3.60		4.272e-02		128.761		1.124e-02		20.987
4		0.00		4.00		4.471e-02		129.559		1.262e-02		23.291
4		0.00		4.40		4.730e-02		130.280		1.462e-02		16.692
4		0.00		4.80		4.910e-02		132.500		1.467e-02		8.110
4		0.00		5.20		5.065e-02		131.060		1.344e-02		8.736
4		0.00		5.60		5.046e-02		129.657		1.295e-02		10.962
4		0.00		6.00		5.024e-02		131.800		1.300e-02		14.249
4		0.00		6.40		5.106e-02		132.056		1.396e-02		14.685
4		0.00		6.80		5.284e-02		130.231		1.557e-02		13.791
4		0.00		7.20		5.331e-02		128.812		1.675e-02		20.502
4		0.00		7.60		5.584e-02		129.024		1.867e-02		27.567
4		0.00		8.00		5.888e-02		126.366		2.046e-02		36.418
4		0.00		8.40		6.019e-02		130.926		1.984e-02		23.392
4		0.00		8.80		6.207e-02		132.483		1.904e-02		9.981
4		0.00		9.20		6.295e-02		131.069		1.824e-02		11.741
4		0.00		9.60		5.953e-02		130.412		1.692e-02		13.563
4		0.00		10.00		5.697e-02		130.456		1.646e-02		14.884
4		0.00		9.60		5.725e-02		128.481		1.598e-02		18.755
4		0.00		9.20		5.683e-02		130.837		1.542e-02		16.103
4		0.00		8.80		5.583e-02		130.728		1.542e-02		16.581
4		0.00		8.40		5.396e-02		133.211		1.486e-02		15.560
4		0.00		8.00		5.381e-02		132.508		1.500e-02		14.073
4		0.00		7.60		5.410e-02		131.187		1.706e-02		22.226
4		0.00		7.20		5.251e-02		128.543		1.710e-02		25.273
4		0.00		6.80		5.246e-02		129.886		1.784e-02		22.670
4		0.00		6.40		5.030e-02		131.404		1.714e-02		16.591
4		0.00		6.00		4.526e-02		132.742		1.395e-02		8.583
4		0.00		5.60		4.327e-02		133.021		1.214e-02		8.503
4		0.00		5.20		4.106e-02		133.228		1.051e-02		9.191
4		0.00		4.80		3.908e-02		132.580		9.250e-03		8.803
4		0.00		4.40		3.636e-02		131.315		8.298e-03		9.444
4		0.00		4.00		3.241e-02		131.307		7.471e-03		9.393
4		0.00		3.60		2.916e-02		132.505		6.807e-03		9.168
4		0.00		3.20		2.557e-02		132.568		5.933e-03		9.799
4		0.00		2.80		2.105e-02		133.106		5.044e-03		9.526
4		0.00		2.40		1.653e-02		130.451		4.677e-03		15.075
4		0.00		2.00		1.274e-02		131.434		3.582e-03		16.822
4		0.00		1.60		8.381e-03		130.937		2.781e-03		25.344
4		0.00		1.20		4.267e-03		90.708		1.780e-03		58.090
4		0.00		0.80		3.230e-03		-29.740		1.531e-03		57.328
4		0.00		0.40		7.579e-03		-48.207		2.635e-03		26.343
4		0.00		0.00		1.219e-02		-51.140		3.294e-03		14.030
4		0.00		-0.40		1.660e-02		-47.299		3.920e-03		12.810
4		0.00		-0.80		2.058e-02		-50.199		4.471e-03		10.869
4		0.00		-1.20		2.239e-02		-49.875		4.401e-03		12.103
4		0.00		-1.60		2.453e-02		-51.392		4.676e-03		13.597
4		0.00		-2.00		2.640e-02		-49.974		5.227e-03		12.842
4		0.00		-2.40		2.764e-02		-49.308		5.858e-03		12.064
4		0.00		-2.80		2.949e-02		-49.092		6.990e-03		12.503
4		0.00		-3.20		3.074e-02		-49.039		8.081e-03		13.411
4		0.00		-3.60		3.158e-02		-49.776		8.888e-03		14.364
4		0.00		-4.00		3.380e-02		-48.549		9.732e-03		13.661
4		0.00		-4.40		3.606e-02		-50.911		1.044e-02		18.607
4		0.00		-4.80		3.917e-02		-45.982		1.130e-02		15.075
4		0.00		-5.20		4.127e-02		-47.883		1.155e-02		9.444
4		0.00		-5.60		4.319e-02		-47.195		1.160e-02		8.541
4		0.00		-6.00		4.478e-02		-45.868		1.142e-02		7.879
4		0.00		-6.40		4.656e-02		-45.978		1.061e-02		7.589
4		0.00		-6.80		4.815e-02		-45.397		1.099e-02		9.253
4		0.00		-7.20		4.841e-02		-45.702		1.037e-02		10.035
4		0.00		-7.60		5.072e-02		-46.245		1.096e-02		11.127
4		0.00		-8.00		4.941e-02		-44.815		1.060e-02		11.904
4		0.00		-8.40		4.728e-02		-43.508		1.141e-02		12.325
4		0.00		-8.80		4.590e-02		-41.934		1.207e-02		11.856
4		0.00		-9.20		4.323e-02		-41.786		1.221e-02		10.833
4		0.00		-9.60		3.816e-02		-44.235		1.214e-02		11.181
4		0.00		-10.00		3.353e-02		-44.027		1.136e-02		15.726
4		0.00		-9.60		3.795e-02		-45.949		1.323e-02		21.042
4		0.00		-9.20		4.288e-02		-38.850		1.422e-02		18.376
4		0.00		-8.80		4.648e-02		-44.758		1.528e-02		22.600
4		0.00		-8.40		4.880e-02		-42.481		1.607e-02		20.964
4		0.00		-8.00		4.765e-02		-42.758		1.585e-02		18.072
4		0.00		-7.60		4.793e-02		-44.876		1.423e-02		8.519
4		0.00		-7.20		4.796e-02		-44.870		1.307e-02		7.508
4		0.00		-6.80		4.525e-02		-44.735		1.107e-02		8.793
4		0.00		-6.40		4.241e-02		-45.095		8.972e-03		9.246
4		0.00		-6.00		4.122e-02		-45.278		8.042e-03		9.342
4		0.00		-5.60		3.941e-02		-46.984		7.424e-03		10.417
4		0.00		-5.20		3.683e-02		-48.084		7.105e-03		12.248
4		0.00		-4.80		3.409e-02		-46.767		5.807e-03		10.426
4		0.00		-4.40		3.058e-02		-48.446		5.964e-03		10.451
4		0.00		-4.00		2.680e-02		-48.630		5.579e-03		11.935
4		0.00		-3.60		2.406e-02		-47.614		5.558e-03		12.399
4		0.00		-3.20		2.065e-02		-46.478		5.373e-03		12.171
4		0.00		-2.80		1.713e-02		-47.936		4.565e-03		16.220
4		0.00		-2.40		1.399e-02		-46.943		3.928e-03		18.432
4		0.00		-2.00		1.069e-02		-44.038		3.357e-03		17.039
4		0.00		-1.60		6.496e-03		-37.510		2.319e-03		19.222
4		0.00		-1.20		3.613e-03		-49.169		1.731e-03		42.449
4		0.00		-0.80		2.492e-03		42.993		1.126e-03		78.332
4		0.00		-0.40		5.600e-03		118.087		1.991e-03		33.077
5		0.00		0.00		1.018e-02		124.769		2.673e-03		14.850
5		0.00		0.40		1.477e-02		130.541		3.429e-03		10.779
5		0.00		0.80		1.940e-02		129.744		4.120e-03		9.934
5		0.00		1.20		2.360e-02		130.479		4.732e-03		8.484
5		0.00		1.60		2.798e-02		130.569		5.001e-03		8.917
5		0.00		2.00		3.193e-02		129.939		5.667e-03		8.446
5		0.00		2.40		3.533e-02		132.363		6.941e-03		8.835
5		0.00		2.80		3.869e-02		132.008		8.019e-03		9.742
5		0.00		3.20		4.086e-02		132.642		9.511e-03		10.715
5		0.00		3.60		4.373e-02		131.825		1.055e-02		11.903
5		0.00		4.00		4.604e-02		129.726		1.184e-02		18.814
5		0.00		4.40		4.841e-02		129.021		1.429e-02		22.905
5		0.00		4.80		4.992e-02		128.209		1.556e-02		23.672
5		0.00		5.20		5.150e-02		129.404		1.669e-02		21.971
5		0.00		5.60		5.289e-02		132.312		1.725e-02		14.468
5		0.00		6.00		5.451e-02		132.573		1.672e-02		9.217
5		0.00		6.40		5.578e-02		132.691		1.665e-02		8.804
5		0.00		6.80		5.585e-02		132.313		1.469e-02		10.044
5		0.00		7.20		5.594e-02		131.452		1.405e-02		12.134
5		0.00		7.60		5.760e-02		131.414		1.483e-02		13.224
5		0.00		8.00		5.707e-02		127.934		1.471e-02		16.773
5		0.00		8.40		5.916e-02		130.679		1.652e-02		19.454
5		0.00		8.80		6.060e-02		131.297		1.690e-02		17.691
5		0.00		9.20		6.192e-02		129.244		1.708e-02		19.585
5		0.00		9.60		6.018e-02		132.941		1.701e-02		16.722
5		0.00		10.00		6.225e-02		130.369		1.888e-02		16.251
5		0.00		9.60		6.191e-02		130.674		2.004e-02		22.460
5		0.00		9.20		6.230e-02		133.503		1.938e-02		18.707
5		0.00		8.80		5.907e-02		130.543		1.861e-02		26.699
5		0.00		8.40		5.906e-02		130.126		1.817e-02		27.109
5		0.00		8.00		5.696e-02		132.942		1.772e-02		24.377
5		0.00		7.60		5.637e-02		128.331		1.863e-02		32.092
5		0.00		7.20		5.462e-02		128.089		1.898e-02		32.873
5		0.00		6.80		5.142e-02		129.234		1.753e-02		30.480
5		0.00		6.40		5.048e-02		128.721		1.781e-02		24.845
5		0.00		6.00		4.755e-02		128.086		1.694e-02		23.258
5		0.00		5.60		4.563e-02		131.687		1.525e-02		13.319
5		0.00		5.20		4.311e-02		132.317		1.339e-02		10.514
5		0.00		4.80		3.965e-02		132.203		1.111e-02		8.359
5		0.00		4.40		3.554e-02		132.649		9.437e-03		9.876
5		0.00		4.00		3.197e-02		133.470		8.074e-03		9.020
5		0.00		3.60		2.858e-02		133.942		6.681e-03		10.212
5		0.00		3.20		2.410e-02		131.434		5.628e-03		9.933
5		0.00		2.80		2.001e-02		131.362		4.760e-03		8.373
5		0.00		2.40		1.493e-02		133.575		3.617e-03		9.623
5		0.00		2.00		9.853e-03		134.067		2.674e-03		10.295
5		0.00		1.60		4.859e-03		107.994		1.841e-03		56.768
5		0.00		1.20		2.454e-03		-9.302		8.466e-04		78.405
5		0.00		0.80		5.808e-03		-52.932		1.656e-03		23.523
5		0.00		0.40		9.839e-03		-46.806		2.349e-03		14.953
5		0.00		0.00		1.425e-02		-49.246		3.199e-03		14.521
5		0.00		-0.40		1.770e-02		-48.503		4.295e-03		15.431
5		0.00		-0.80		2.191e-02		-49.913		5.525e-03		14.887
5		0.00		-1.20		2.409e-02		-49.829		6.400e-03		16.403
5		0.00		-1.60		2.627e-02		-52.457		7.375e-03		16.904
5		0.00		-2.00		2.828e-02		-49.988		7.906e-03		16.930
5		0.00		-2.40		3.088e-02		-50.117		8.819e-03		16.861
5		0.00		-2.80		3.331e-02		-50.657		9.527e-03		11.083
5		0.00		-3.20		3.446e-02		-50.033		9.493e-03		8.801
5		0.00		-3.60		3.650e-02		-50.628		9.254e-03		8.525
5		0.00		-4.00		3.955e-02		-49.860		9.061e-03		7.651
5		0.00		-4.40		4.152e-02		-50.433		8.558e-03		8.203
5		0.00		-4.80		4.323e-02		-48.596		8.470e-03		8.590
5		0.00		-5.20		4.352e-02		-48.108		9.335e-03		10.274
5		0.00		-5.60		4.519e-02		-46.988		9.460e-03		9.627
5		0.00		-6.00		4.556e-02		-45.087		9.850e-03		10.548
5		0.00		-6.40		4.708e-02		-45.423		1.059e-02		10.867
5		0.00		-6.80		4.890e-02		-44.428		1.160e-02		10.703
5		0.00		-7.20		5.042e-02		-45.024		1.280e-02		11.803
5		0.00		-7.60		5.050e-02		-44.935		1.428e-02		14.947
5		0.00		-8.00		4.972e-02		-46.366		1.544e-02		17.844
5		0.00		-8.40		5.001e-02		-45.342		1.648e-02		22.960
5		0.00		-8.80		4.816e-02		-39.368		1.657e-02		21.563
5		0.00		-9.20		4.604e-02		-32.702		1.684e-02		23.243
5		0.00		-9.60		4.062e-02		-36.722		1.535e-02		22.440
5		0.00		-10.00		3.481e-02		-39.005		1.256e-02		19.338
5		0.00		-9.60		3.975e-02		-42.306		1.402e-02		8.728
5		0.00		-9.20		4.377e-02		-42.867		1.413e-02		10.282
5		0.00		-8.80		4.644e-02		-43.481		1.387e-02		10.215
5		0.00		-8.40		4.759e-02		-44.688		1.256e-02		11.066
5		0.00		-8.00		4.815e-02		-45.586		1.171e-02		12.729
5		0.00		-7.60		4.711e-02		-44.743		1.070e-02		11.905
5		0.00		-7.20		4.665e-02		-44.977		1.074e-02		11.856
5		0.00		-6.80		4.481e-02		-44.622		1.075e-02		11.071
5		0.00		-6.40		4.379e-02		-44.548		1.113e-02		11.530
5		0.00		-6.00		4.189e-02		-44.508		1.097e-02		13.063
5		0.00		-5.60		3.985e-02		-46.928		1.057e-02		17.583
5		0.00		-5.20		3.674e-02		-46.453		9.779e-03		15.201
5		0.00		-4.80		3.469e-02		-47.779		9.273e-03		14.112
5		0.00		-4.40		3.171e-02		-48.769		8.023e-03		8.144
5		0.00		-4.00		2.877e-02		-47.805		6.814e-03		8.833
5		0.00		-3.60		2.570e-02		-47.429		5.385e-03		9.705
5		0.00		-3.20		2.221e-02		-48.209		4.414e-03		10.896
5		0.00		-2.80		1.901e-02		-48.114		3.587e-03		11.732
5		0.00		-2.40		1.500e-02		-46.018		2.991e-03		12.592
5		0.00		-2.00		1.117e-02		-44.252		2.487e-03		15.543
5		0.00		-1.60		7.069e-03		-46.405		1.896e-03		17.546
5		0.00		-1.20		3.149e-03		-47.074		1.478e-03		39.599
5		0.00		-0.80		3.010e-03		75.952		1.234e-03		56.656
5		0.00		-0.40		6.603e-03		121.237		1.991e-03		21.682
6		0.00		0.00		1.108e-02		127.683		3.263e-03		14.395
6		0.00		0.40		1.543e-02		130.163		3.999e-03		10.028
6		0.00		0.80		2.082e-02		129.296		4.322e-03		8.564
6		0.00		1.20		2.539e-02		129.677		4.774e-03		8.780
6		0.00		1.60		2.994e-02		130.663		5.851e-03		9.184
6		0.00		2.00		3.393e-02		131.172		6.564e-03		8.244
6		0.00		2.40		3.781e-02		132.344		8.119e-03		8.771
6		0.00		2.80		4.083e-02		131.731		9.935e-03		15.126
6		0.00		3.20		4.421e-02		129.878		1.088e-02		19.069
6		0.00		3.60		4.794e-02		129.304		1.307e-02		20.490
6		0.00		4.00		4.950e-02		132.037		1.339e-02		8.684
6		0.00		4.40		5.165e-02		132.728		1.286e-02		7.696
6		0.00		4.80		5.240e-02		131.907		1.249e-02		8.753
6		0.00		5.20		5.234e-02		131.668		1.264e-02		12.006
6		0.00		5.60		5.372e-02		131.785		1.429e-02		13.370
6		0.00		6.00		5.307e-02		132.303		1.586e-02		14.636
6		0.00		6.40		5.441e-02		129.331		1.821e-02		24.246
6		0.00		6.80		5.736e-02		132.015		1.921e-02		21.611
6		0.00		7.20		5.691e-02		130.550		2.019e-02		21.818
6		0.00		7.60		5.890e-02		134.558		1.798e-02		9.603
6		0.00		8.00		5.541e-02		132.331		1.487e-02		15.664
6		0.00		8.40		5.811e-02		132.781		1.597e-02		15.500
6		0.00		8.80		6.070e-02		132.077		1.717e-02		19.836
6		0.00		9.20		6.171e-02		132.452		2.035e-02		21.499
6		0.00		9.60		6.258e-02		128.952		2.148e-02		28.198
6		0.00		10.00		6.013e-02		131.627		2.100e-02		29.908
6		0.00		9.60		6.379e-02		132.795		2.058e-02		10.125
6		0.00		9.20		6.281e-02		134.086		1.841e-02		12.960
6		0.00		8.80		6.012e-02		132.750		1.575e-02		14.153
6		0.00		8.40		5.867e-02		131.183		1.619e-02		21.961
6		0.00		8.00		5.830e-02		134.642		1.614e-02		13.741
6		0.00		7.60		5.586e-02		133.630		1.637e-02		21.220
6		0.00		7.20		5.594e-02		129.833		1.801e-02		29.045
6		0.00		6.80		5.406e-02		132.768		1.694e-02		14.302
6		0.00		6.40		5.229e-02		133.630		1.358e-02		8.953
6		0.00		6.00		4.888e-02		133.361		1.099e-02		8.708
6		0.00		5.60		4.591e-02		133.468		1.003e-02		9.051
6		0.00		5.20		4.345e-02		133.882		1.146e-02		8.016
6		0.00		4.80		4.177e-02		130.582		1.206e-02		16.308
6		0.00		4.40		3.771e-02		130.553		1.147e-02		16.576
6		0.00		4.00		3.459e-02		133.148		9.909e-03		7.465
6		0.00		3.60		3.018e-02		133.400		7.349e-03		8.312
6		0.00		3.20		2.645e-02		132.291		5.921e-03		8.645
6		0.00		2.80		2.184e-02		134.177		5.144e-03		7.919
6		0.00		2.40		1.724e-02		133.776		4.467e-03		13.711
6		0.00		2.00		1.247e-02		132.724		3.815e-03		24.774
6		0.00		1.60		6.912e-03		128.176		2.567e-03		36.342
6		0.00		1.20		2.601e-03		2.200		1.130e-03		82.746
6		0.00		0.80		5.569e-03		-56.189		1.674e-03		21.412
6		0.00		0.40		1.061e-02		-50.213		2.100e-03		15.030
6		0.00		0.00		1.502e-02		-48.424		3.026e-03		12.859
6		0.00		-0.40		1.922e-02		-49.143		4.399e-03		15.286
6		0.00		-0.80		2.284e-02		-49.521		5.742e-03		12.382
6		0.00		-1.20		2.646e-02		-49.537		6.364e-03		9.463
6		0.00		-1.60		2.962e-02		-48.954		5.551e-03		8.297
6		0.00		-2.00		3.136e-02		-50.016		5.633e-03		10.067
6		0.00		-2.40		3.314e-02		-48.953		6.873e-03		9.682
6		0.00		-2.80		3.435e-02		-50.348		8.062e-03		11.779
6		0.00		-3.20		3.571e-02		-49.932		9.919e-03		17.594
6		0.00		-3.60		3.758e-02		-49.027		1.054e-02		9.429
6		0.00		-4.00		4.030e-02		-50.283		8.992e-03		7.483
6		0.00		-4.40		4.207e-02		-50.770		8.578e-03		9.492
6		0.00		-4.80		4.318e-02		-48.736		8.904e-03		9.585
6		0.00		-5.20		4.386e-02		-45.789		1.067e-02		12.088
6		0.00		-5.60		4.566e-02		-48.553		1.206e-02		19.304
6		0.00		-6.00		4.787e-02		-45.851		1.317e-02		16.193
6		0.00		-6.40		4.924e-02		-45.381		1.179e-02		7.701
6		0.00		-6.80		5.069e-02		-45.425		1.041e-02		8.935
6		0.00		-7.20		5.104e-02		-46.208		1.051e-02		11.664
6		0.00		-7.60		5.159e-02		-45.117		1.177e-02		11.623
6		0.00		-8.00		5.272e-02		-44.524		1.413e-02		13.854
6		0.00		-8.40		5.358e-02		-43.953		1.523e-02		16.540
6		0.00		-8.80		5.266e-02		-41.062		1.598e-02		17.952
6		0.00		-9.20		4.875e-02		-41.320		1.443e-02		7.674
6		0.00		-9.60		4.215e-02		-42.812		1.190e-02		10.078
6		0.00		-10.00		3.691e-02		-41.903		9.879e-03		10.445
6		0.00		-9.60		4.290e-02		-42.805		1.252e-02		10.251
6		0.00		-9.20		4.592e-02		-43.807		1.496e-02		19.231
6		0.00		-8.80		4.967e-02		-43.505		1.620e-02		23.620
6		0.00		-8.40		5.142e-02		-42.827		1.686e-02		13.768
6		0.00		-8.00		5.193e-02		-43.274		1.405e-02		7.381
6		0.00		-7.60		5.201e-02		-44.764		1.190e-02		8.527
6		0.00		-7.20		4.794e-02		-45.484		1.046e-02		9.947
6		0.00		-6.80		4.707e-02		-44.738		1.046e-02		9.802
6		0.00		-6.40		4.456e-02		-45.066		1.127e-02		10.770
6		0.00		-6.00		4.331e-02		-46.203		1.130e-02		17.159
6		0.00		-5.60		4.177e-02		-44.549		1.102e-02		13.577
6		0.00		-5.20		3.944e-02		-45.770		9.267e-03		7.085
6		0.00		-4.80		3.686e-02		-48.169		6.745e-03		8.157
6		0.00		-4.40		3.329e-02		-48.307		5.677e-03		8.478
6		0.00		-4.00		2.949e-02		-47.999		5.011e-03		10.283
6		0.00		-3.60		2.553e-02		-47.822		5.036e-03		10.072
6		0.00		-3.20		2.231e-02		-46.881		5.290e-03		13.126
6		0.00		-2.80		1.855e-02		-46.766		4.611e-03		14.005
6		0.00		-2.40		1.515e-02		-46.318		3.793e-03		12.970
6		0.00		-2.00		1.134e-02		-46.403		2.747e-03		11.575
6		0.00		-1.60		7.280e-03		-43.259		1.882e-03		15.234
6		0.00		-1.20		3.218e-03		-41.232		1.279e-03		33.505
6		0.00		-0.80		2.875e-03		82.689		1.388e-03		48.408
6		0.00		-0.40		7.239e-03		123.566		2.275e-03		18.187
7		0.00		0.00		1.151e-02		125.144		3.006e-03		21.286
7		0.00		0.40		1.607e-02		125.373		4.401e-03		19.279
7		0.00		0.80		2.097e-02		132.646		5.505e-03		9.953
7		0.00		1.20		2.549e-02		129.905		5.555e-03		8.617
7		0.00		1.60		3.041e-02		130.561		5.837e-03		7.463
7		0.00		2.00		3.484e-02		130.923		6.514e-03		7.819
7		0.00		2.40		3.925e-02		130.967		7.587e-03		8.193
7		0.00		2.80		4.251e-02		132.598		9.713e-03		10.189
7		0.00		3.20		4.597e-02		131.942		1.125e-02		17.253
7		0.00		3.60		4.951e-02		130.677		1.227e-02		17.948
7		0.00		4.00		5.108e-02		132.352		1.325e-02		7.864
7		0.00		4.40		5.345e-02		132.470		1.204e-02		7.014
7		0.00		4.80		5.343e-02		132.010		1.066e-02		9.053
7		0.00		5.20		5.486e-02		132.776		1.152e-02		10.338
7		0.00		5.60		5.620e-02		133.981		1.198e-02		11.086
7		0.00		6.00		5.688e-02		132.687		1.503e-02		14.238
7		0.00		6.40		5.989e-02		131.040		1.779e-02		19.308
7		0.00		6.80		6.063e-02		132.144		1.895e-02		18.495
7		0.00		7.20		6.056e-02		135.324		1.932e-02		11.023
7		0.00		7.60		6.212e-02		132.795		1.812e-02		17.937
7		0.00		8.00		6.135e-02		132.617		1.624e-02		11.670
7		0.00		8.40		6.269e-02		127.457		1.808e-02		33.019
7		0.00		8.80		6.339e-02		131.660		1.956e-02		20.633
7		0.00		9.20		6.451e-02		134.199		2.031e-02		19.567
7		0.00		9.60		6.423e-02		125.585		2.295e-02		34.071
7		0.00		10.00		6.215e-02		129.599		2.287e-02		33.626
7		0.00		9.60		6.307e-02		132.257		2.182e-02		23.191
7		0.00		9.20		6.392e-02		135.722		1.974e-02		12.507
7		0.00		8.80		6.548e-02		135.231		1.829e-02		12.304
7		0.00		8.40		6.253e-02		133.912		1.628e-02		12.033
7		0.00		8.00		6.143e-02		134.323		1.569e-02		12.864
7		0.00		7.60		5.840e-02		133.410		1.574e-02		16.524
7		0.00		7.20		5.718e-02		134.427		1.417e-02		10.882
7		0.00		6.80		5.484e-02		131.778		1.568e-02		21.088
7		0.00		6.40		5.291e-02		132.067		1.454e-02		25.289
7		0.00		6.00		5.375e-02		129.078		1.549e-02		25.051
7		0.00		5.60		4.972e-02		132.044		1.464e-02		14.258
7		0.00		5.20		4.675e-02		133.127		1.279e-02		7.479
7		0.00		4.80		4.348e-02		132.695		1.067e-02		7.550
7		0.00		4.40		3.868e-02		132.893		8.817e-03		7.986
7		0.00		4.00		3.449e-02		133.588		7.748e-03		9.005
7		0.00		3.60		3.003e-02		133.083		7.145e-03		8.565
7		0.00		3.20		2.620e-02		133.274		6.797e-03		10.040
7		0.00		2.80		2.168e-02		133.723		5.965e-03		16.977
7		0.00		2.40		1.663e-02		130.679		4.988e-03		21.251
7		0.00		2.00		1.141e-02		134.627		3.747e-03		17.149
7		0.00		1.60		6.132e-03		121.628		2.487e-03		54.457
7		0.00		1.20		2.679e-03		-14.867		9.738e-04		80.167
7		0.00		0.80		6.476e-03		-51.428		1.738e-03		18.492
7		0.00		0.40		1.168e-02		-52.648		2.186e-03		16.595
7		0.00		0.00		1.607e-02		-50.587		2.954e-03		13.236
7		0.00		-0.40		2.021e-02		-47.575		4.008e-03		10.570
7		0.00		-0.80		2.379e-02		-50.854		5.155e-03		12.839
7		0.00		-1.20		2.737e-02		-49.665		6.617e-03		16.593
7		0.00		-1.60		3.047e-02		-51.649		7.359e-03		9.685
7		0.00		-2.00		3.348e-02		-51.668		7.467e-03		7.919
7		0.00		-2.40		3.617e-02		-49.788		6.555e-03		7.468
7		0.00		-2.80		3.829e-02		-50.498		6.474e-03		8.165
7		0.00		-3.20		3.873e-02		-51.153		7.023e-03		8.917
7		0.00		-3.60		4.057e-02		-50.629		7.891e-03		9.807
7		0.00		-4.00		4.080e-02		-50.240		9.936e-03		11.191
7		0.00		-4.40		4.193e-02		-49.677		1.133e-02		15.737
7		0.00		-4.80		4.453e-02		-49.972		1.275e-02		15.776
7		0.00		-5.20		4.641e-02		-47.448		1.306e-02		7.901
7		0.00		-5.60		4.847e-02		-46.741		1.193e-02		7.774
7		0.00		-6.00		4.984e-02		-47.180		1.061e-02		8.058
7		0.00		-6.40		5.041e-02		-47.378		1.042e-02		10.042
7		0.00		-6.80		5.093e-02		-45.871		1.120e-02		11.763
7		0.00		-7.20		5.268e-02		-44.392		1.279e-02		11.942
7		0.00		-7.60		5.547e-02		-44.928		1.447e-02		15.182
7		0.00		-8.00		5.631e-02		-45.465		1.520e-02		21.299
7		0.00		-8.40		5.632e-02		-42.748		1.620e-02		15.015
7		0.00		-8.80		5.435e-02		-42.771		1.582e-02		12.974
7		0.00		-9.20		5.087e-02		-41.413		1.398e-02		8.257
7		0.00		-9.60		4.575e-02		-43.351		1.209e-02		8.569
7		0.00		-10.00		3.928e-02		-42.657		9.372e-03		9.877
7		0.00		-9.60		4.467e-02		-41.291		1.070e-02		8.634
7		0.00		-9.20		4.861e-02		-40.970		1.258e-02		9.265
7		0.00		-8.80		5.070e-02		-41.164		1.420e-02		11.758
7		0.00		-8.40		5.255e-02		-46.093		1.595e-02		18.601
7		0.00		-8.00		5.328e-02		-45.134		1.664e-02		16.711
7		0.00		-7.60		5.241e-02		-44.967		1.694e-02		18.521
7		0.00		-7.20		5.050e-02		-45.675		1.579e-02		9.181
7		0.00		-6.80		4.939e-02		-45.303		1.327e-02		6.469
7		0.00		-6.40		4.716e-02		-45.476		1.091e-02		6.806
7		0.00		-6.00		4.470e-02		-46.272		9.314e-03		8.585
7		0.00		-5.60		4.180e-02		-47.685		8.247e-03		8.664
7		0.00		-5.20		3.926e-02		-47.839		7.721e-03		8.590
7		0.00		-4.80		3.645e-02		-47.871		7.094e-03		9.648
7		0.00		-4.40		3.270e-02		-48.320		7.220e-03		10.613
7		0.00		-4.00		2.960e-02		-48.874		6.734e-03		11.351
7		0.00		-3.60		2.595e-02		-47.699		6.132e-03		12.502
7		0.00		-3.20		2.284e-02		-49.359		5.525e-03		13.465
7		0.00		-2.80		1.861e-02		-46.883		4.636e-03		9.059
7		0.00		-2.40		1.497e-02		-44.613		3.386e-03		9.520
7		0.00		-2.00		1.121e-02		-46.084		2.598e-03		11.711
7		0.00		-1.60		7.038e-03		-35.188		1.739e-03		13.737
7		0.00		-1.20		2.848e-03		-34.189		1.401e-03		51.814
7		0.00		-0.80		3.490e-03		100.296		1.419e-03		49.597
7		0.00		-0.40		8.083e-03		123.717		2.309e-03		15.047
8		0.00		0.00		1.248e-02		129.952		2.901e-03		12.131
8		0.00		0.40		1.733e-02		130.029		4.036e-03		11.216
8		0.00		0.80		2.180e-02		128.619		5.359e-03		15.366
8		0.00		1.20		2.636e-02		127.342		6.690e-03		17.128
8		0.00		1.60		3.077e-02		130.384		8.160e-03		10.193
8		0.00		2.00		3.563e-02		131.221		8.868e-03		6.682
8		0.00		2.40		4.007e-02		132.143		8.720e-03		5.682
8		0.00		2.80		4.401e-02		131.136		8.759e-03		5.918
8		0.00		3.20		4.626e-02		130.441		8.390e-03		7.247
8		0.00		3.60		4.994e-02		132.092		9.363e-03		6.842
8		0.00		4.00		5.251e-02		134.268		1.009e-02		6.907
8		0.00		4.40		5.529e-02		132.750		1.274e-02		10.972
8		0.00		4.80		5.583e-02		133.725		1.378e-02		13.970
8		0.00		5.20		5.790e-02		131.776		1.494e-02		20.318
8		0.00		5.60		6.069e-02		132.653		1.611e-02		17.536
8		0.00		6.00		6.046e-02		135.738		1.633e-02		9.821
8		0.00		6.40		6.103e-02		135.690		1.517e-02		8.734
8		0.00		6.80		6.309e-02		134.885		1.510e-02		9.285
8		0.00		7.20		6.146e-02		135.352		1.417e-02		13.053
8		0.00		7.60		6.350e-02		128.209		1.698e-02		30.946
8		0.00		8.00		6.164e-02		127.371		1.925e-02		31.518
8		0.00		8.40		6.242e-02		128.686		1.871e-02		29.542
8		0.00		8.80		6.349e-02		135.327		2.030e-02		18.332
8		0.00		9.20		6.531e-02		126.161		2.368e-02		26.112
8		0.00		9.60		6.254e-02		125.201		2.279e-02		35.078
8		0.00		10.00		6.202e-02		125.856		2.413e-02		38.500
8		0.00		9.60		6.224e-02		130.497		2.335e-02		34.930
8		0.00		9.20		6.359e-02		130.650		2.104e-02		30.306
8		0.00		8.80		6.412e-02		135.355		2.040e-02		11.507
8		0.00		8.40		6.280e-02		135.758		1.713e-02		9.509
8		0.00		8.00		6.204e-02		135.674		1.569e-02		9.731
8		0.00		7.60		5.911e-02		133.397		1.321e-02		12.299
8		0.00		7.20		5.719e-02		133.958		1.231e-02		11.867
8		0.00		6.80		5.617e-02		132.651		1.299e-02		13.283
8		0.00		6.40		5.522e-02		134.002		1.188e-02		10.326
8		0.00		6.00		5.189e-02		134.206		1.132e-02		10.493
8		0.00		5.60		4.995e-02		134.303		1.106e-02		8.643
8		0.00		5.20		4.656e-02		134.686		1.091e-02		9.559
8		0.00		4.80		4.345e-02		132.881		1.023e-02		13.786
8		0.00		4.40		3.930e-02		132.015		1.024e-02		17.610
8		0.00		4.00		3.478e-02		130.525		9.345e-03		18.840
8		0.00		3.60		3.065e-02		132.397		8.394e-03		16.174
8		0.00		3.20		2.597e-02		132.976		7.181e-03		9.532
8		0.00		2.80		2.122e-02		134.762		5.698e-03		10.426
8		0.00		2.40		1.582e-02		135.207		4.098e-03		9.698
8		0.00		2.00		1.097e-02		137.343		2.967e-03		13.457
8		0.00		1.60		5.256e-03		111.344		1.870e-03		54.703
8		0.00		1.20		2.613e-03		-51.156		1.177e-03		60.841
8		0.00		0.80		7.340e-03		-54.037		1.659e-03		19.422
8		0.00		0.40		1.205e-02		-51.954		2.243e-03		13.540
8		0.00		0.00		1.712e-02		-50.683		3.040e-03		11.387
8		0.00		-0.40		2.135e-02		-47.763		4.171e-03		11.724
8		0.00		-0.80		2.524e-02		-49.967		5.371e-03		13.811
8		0.00		-1.20		2.789e-02		-50.160		6.509e-03		13.463
8		0.00		-1.60		3.037e-02		-50.472		7.420e-03		11.817
8		0.00		-2.00		3.313e-02		-48.517		7.574e-03		8.301
8		0.00		-2.40		3.563e-02		-51.113		7.426e-03		7.981
8		0.00		-2.80		3.831e-02		-50.198		6.992e-03		7.534
8		0.00		-3.20		4.066e-02		-51.373		6.897e-03		7.389
8		0.00		-3.60		4.090e-02		-51.689		7.331e-03		9.374
8		0.00		-4.00		4.210e-02		-49.163		7.890e-03		8.198
8		0.00		-4.40		4.272e-02		-48.081		9.593e-03		8.786
8		0.00		-4.80		4.306e-02		-48.169		1.181e-02		12.685
8		0.00		-5.20		4.445e-02		-48.683		1.259e-02		15.190
8		0.00		-5.60		4.687e-02		-48.524		1.415e-02		15.740
8		0.00		-6.00		4.854e-02		-46.856		1.477e-02		8.306
8		0.00		-6.40		4.872e-02		-45.980		1.322e-02		5.820
8		0.00		-6.80		5.035e-02		-45.598		1.194e-02		6.787
8		0.00		-7.20		5.174e-02		-46.238		1.167e-02		8.669
8		0.00		-7.60		5.259e-02		-44.987		1.152e-02		10.187
8		0.00		-8.00		5.381e-02		-44.575		1.238e-02		8.781
8		0.00		-8.40		5.261e-02		-41.749		1.421e-02		13.360
8		0.00		-8.80		5.114e-02		-42.837		1.436e-02		20.975
8		0.00		-9.20		5.074e-02		-39.055		1.532e-02		22.288
8		0.00		-9.60		4.461e-02		-40.992		1.373e-02		12.156
8		0.00		-10.00		3.953e-02		-41.663		1.104e-02		7.342
8		0.00		-9.60		4.472e-02		-43.098		1.168e-02		9.171
8		0.00		-9.20		4.857e-02		-41.007		1.217e-02		9.186
8		0.00		-8.80		4.930e-02		-40.977		1.122e-02		11.115
8		0.00		-8.40		5.110e-02		-43.049		1.251e-02		9.484
8		0.00		-8.00		5.110e-02		-44.608		1.444e-02		16.347
8		0.00		-7.60		5.173e-02		-46.619		1.443e-02		21.308
8		0.00		-7.20		5.039e-02		-45.609		1.546e-02		15.217
8		0.00		-6.80		4.846e-02		-44.583		1.358e-02		8.361
8		0.00		-6.40		4.616e-02		-44.723		1.049e-02		7.414
8		0.00		-6.00		4.427e-02		-45.008		8.580e-03		8.033
8		0.00		-5.60		4.200e-02		-47.038		7.603e-03		9.162
8		0.00		-5.20		3.843e-02		-47.244		7.302e-03		9.640
8		0.00		-4.80		3.466e-02		-46.415		7.140e-03		8.314
8		0.00		-4.40		3.127e-02		-46.622		7.498e-03		10.321
8		0.00		-4.00		2.799e-02		-48.393		6.790e-03		12.717
8		0.00		-3.60		2.532e-02		-47.117		6.201e-03		11.770
8		0.00		-3.20		2.211e-02		-46.728		4.953e-03		8.085
8		0.00		-2.80		1.868e-02		-45.672		3.565e-03		9.095
8		0.00		-2.40		1.456e-02		-46.311		2.399e-03		10.956
8		0.00		-2.00		1.048e-02		-44.468		2.110e-03		12.512
8		0.00		-1.60		6.073e-03		-43.134		1.686e-03		22.443
8		0.00		-1.20		2.200e-03		-17.068		1.089e-03		62.168
8		0.00		-0.80		4.091e-03		109.905		1.501e-03		35.538
8		0.00		-0.40		8.431e-03		126.893		2.357e-03		24.297
