# Date of analysis: 2023-11-20 16;19
# 
# Loop index	Read Volt (V)	Write Volt (V)	Amplitude (a.u)	Phase (deg)	Sigma Amp (a.u)	Sigma Pha (deg)	
1		0.00		0.00		1.625e-02		-53.901		3.084e-03		13.949
1		0.00		0.40		1.210e-02		-48.538		2.340e-03		10.169
1		0.00		0.80		7.174e-03		-51.028		1.805e-03		15.023
1		0.00		1.20		2.685e-03		-36.010		9.632e-04		38.569
1		0.00		1.60		3.602e-03		108.770		1.255e-03		34.722
1		0.00		2.00		8.165e-03		126.340		2.015e-03		14.091
1		0.00		2.40		1.288e-02		127.252		2.535e-03		8.824
1		0.00		2.80		1.772e-02		130.089		3.355e-03		8.005
1		0.00		3.20		2.243e-02		129.494		4.065e-03		7.676
1		0.00		3.60		2.675e-02		130.281		5.054e-03		6.971
1		0.00		4.00		3.096e-02		128.829		6.391e-03		7.544
1		0.00		4.40		3.446e-02		127.398		8.171e-03		10.196
1		0.00		4.80		3.862e-02		129.551		9.946e-03		11.079
1		0.00		5.20		4.225e-02		128.365		1.121e-02		12.325
1		0.00		5.60		4.614e-02		128.464		1.219e-02		10.031
1		0.00		6.00		5.030e-02		129.093		1.121e-02		7.633
1		0.00		6.40		5.447e-02		131.058		1.037e-02		5.908
1		0.00		6.80		5.572e-02		130.815		1.071e-02		6.578
1		0.00		7.20		5.889e-02		132.209		1.184e-02		7.410
1		0.00		7.60		6.070e-02		129.988		1.456e-02		12.706
1		0.00		8.00		6.225e-02		134.385		1.504e-02		8.802
1		0.00		8.40		6.210e-02		129.093		1.731e-02		32.166
1		0.00		8.80		6.653e-02		131.929		1.841e-02		15.650
1		0.00		9.20		6.459e-02		130.445		1.781e-02		18.952
1		0.00		9.60		6.575e-02		131.395		1.794e-02		15.392
1		0.00		10.00		6.388e-02		134.359		1.812e-02		11.104
1		0.00		9.60		6.114e-02		134.095		1.593e-02		14.239
1		0.00		9.20		6.367e-02		133.409		1.746e-02		11.060
1		0.00		8.80		6.016e-02		130.827		1.649e-02		14.772
1		0.00		8.40		5.892e-02		130.278		1.682e-02		13.692
1		0.00		8.00		5.567e-02		129.450		1.582e-02		13.169
1		0.00		7.60		5.401e-02		129.797		1.521e-02		10.499
1		0.00		7.20		5.118e-02		131.120		1.472e-02		9.135
1		0.00		6.80		4.793e-02		128.869		1.344e-02		13.585
1		0.00		6.40		4.505e-02		129.206		1.243e-02		12.513
1		0.00		6.00		4.192e-02		129.251		1.080e-02		10.297
1		0.00		5.60		3.837e-02		129.541		8.928e-03		8.236
1		0.00		5.20		3.489e-02		129.777		7.763e-03		7.037
1		0.00		4.80		3.056e-02		131.140		5.920e-03		6.454
1		0.00		4.40		2.661e-02		131.483		4.809e-03		6.535
1		0.00		4.00		2.194e-02		131.717		4.092e-03		7.901
1		0.00		3.60		1.731e-02		131.350		2.991e-03		7.232
1		0.00		3.20		1.238e-02		133.006		2.431e-03		10.206
1		0.00		2.80		7.264e-03		127.645		1.565e-03		15.313
1		0.00		2.40		2.596e-03		103.391		9.530e-04		42.776
1		0.00		2.00		3.296e-03		-62.375		1.293e-03		29.233
1		0.00		1.60		7.745e-03		-47.271		2.149e-03		15.876
1		0.00		1.20		1.258e-02		-50.718		3.256e-03		12.217
1		0.00		0.80		1.737e-02		-52.802		4.359e-03		11.428
1		0.00		0.40		2.209e-02		-50.357		5.450e-03		9.262
1		0.00		0.00		2.743e-02		-52.133		6.425e-03		8.470
1		0.00		-0.40		3.213e-02		-50.931		7.027e-03		7.133
1		0.00		-0.80		3.797e-02		-53.291		7.593e-03		6.381
1		0.00		-1.20		4.256e-02		-53.412		7.732e-03		6.471
1		0.00		-1.60		4.790e-02		-52.751		8.230e-03		5.031
1		0.00		-2.00		5.226e-02		-53.261		8.637e-03		5.998
1		0.00		-2.40		5.515e-02		-52.623		9.485e-03		5.148
1		0.00		-2.80		5.746e-02		-52.999		1.044e-02		7.521
1		0.00		-3.20		6.195e-02		-53.983		1.311e-02		9.232
1		0.00		-3.60		6.271e-02		-52.588		1.320e-02		10.239
1		0.00		-4.00		6.333e-02		-50.727		1.462e-02		11.751
1		0.00		-4.40		6.506e-02		-51.998		1.850e-02		17.747
1		0.00		-4.80		6.613e-02		-45.903		1.739e-02		13.623
1		0.00		-5.20		6.413e-02		-41.385		1.861e-02		22.689
1		0.00		-5.60		6.345e-02		-42.297		1.829e-02		23.197
1		0.00		-6.00		6.741e-02		-46.177		1.793e-02		19.189
1		0.00		-6.40		6.867e-02		-43.846		1.981e-02		19.824
1		0.00		-6.80		6.667e-02		-41.694		1.751e-02		21.105
1		0.00		-7.20		6.778e-02		-47.702		1.898e-02		21.404
1		0.00		-7.60		6.699e-02		-34.760		1.745e-02		21.852
1		0.00		-8.00		6.807e-02		-32.571		1.946e-02		21.381
1		0.00		-8.40		6.630e-02		-36.442		1.687e-02		23.082
1		0.00		-8.80		6.615e-02		-36.576		1.782e-02		22.687
1		0.00		-9.20		6.366e-02		-38.922		1.705e-02		17.941
1		0.00		-9.60		6.233e-02		-37.846		1.695e-02		15.203
1		0.00		-10.00		5.623e-02		-41.598		1.419e-02		11.335
1		0.00		-9.60		5.883e-02		-39.599		1.524e-02		16.564
1		0.00		-9.20		6.368e-02		-39.690		1.869e-02		19.302
1		0.00		-8.80		6.761e-02		-40.406		1.765e-02		17.358
1		0.00		-8.40		6.669e-02		-38.566		1.710e-02		15.523
1		0.00		-8.00		6.347e-02		-42.128		1.638e-02		20.299
1		0.00		-7.60		6.589e-02		-42.949		1.611e-02		12.924
1		0.00		-7.20		6.186e-02		-41.937		1.573e-02		13.830
1		0.00		-6.80		6.290e-02		-47.743		1.614e-02		12.237
1		0.00		-6.40		6.106e-02		-48.206		1.529e-02		12.207
1		0.00		-6.00		5.835e-02		-47.363		1.442e-02		7.216
1		0.00		-5.60		5.507e-02		-50.952		1.459e-02		12.281
1		0.00		-5.20		5.124e-02		-50.505		1.343e-02		10.699
1		0.00		-4.80		4.847e-02		-52.511		1.266e-02		11.855
1		0.00		-4.40		4.434e-02		-52.933		1.140e-02		10.494
1		0.00		-4.00		4.010e-02		-52.977		1.033e-02		8.931
1		0.00		-3.60		3.590e-02		-52.288		9.016e-03		9.363
1		0.00		-3.20		3.139e-02		-51.653		7.771e-03		8.128
1		0.00		-2.80		2.725e-02		-50.465		6.059e-03		8.491
1		0.00		-2.40		2.283e-02		-50.518		5.089e-03		8.598
1		0.00		-2.00		1.864e-02		-51.307		3.842e-03		7.616
1		0.00		-1.60		1.363e-02		-46.954		2.527e-03		10.825
1		0.00		-1.20		9.488e-03		-40.131		1.840e-03		13.880
1		0.00		-0.80		4.757e-03		-26.073		1.339e-03		20.862
1		0.00		-0.40		1.740e-03		13.565		7.614e-04		61.911
2		0.00		0.00		5.248e-03		117.575		1.539e-03		17.743
2		0.00		0.40		9.699e-03		124.836		2.225e-03		10.928
2		0.00		0.80		1.436e-02		128.673		2.700e-03		9.274
2		0.00		1.20		1.859e-02		129.078		3.422e-03		8.016
2		0.00		1.60		2.335e-02		128.747		3.995e-03		6.270
2		0.00		2.00		2.761e-02		130.201		4.883e-03		6.647
2		0.00		2.40		3.096e-02		128.480		6.233e-03		5.795
2		0.00		2.80		3.459e-02		129.131		7.268e-03		6.640
2		0.00		3.20		3.811e-02		131.095		8.012e-03		5.249
2		0.00		3.60		4.103e-02		128.843		9.456e-03		7.790
2		0.00		4.00		4.395e-02		129.059		1.000e-02		6.475
2		0.00		4.40		4.614e-02		129.621		1.127e-02		7.988
2		0.00		4.80		4.864e-02		129.930		1.270e-02		10.383
2		0.00		5.20		5.114e-02		129.763		1.378e-02		10.930
2		0.00		5.60		5.333e-02		130.077		1.384e-02		11.811
2		0.00		6.00		5.626e-02		132.137		1.428e-02		9.807
2		0.00		6.40		5.916e-02		131.866		1.536e-02		10.938
2		0.00		6.80		6.166e-02		131.327		1.663e-02		15.944
2		0.00		7.20		6.161e-02		134.365		1.584e-02		12.592
2		0.00		7.60		6.312e-02		133.855		1.717e-02		17.889
2		0.00		8.00		6.481e-02		133.847		1.761e-02		20.935
2		0.00		8.40		6.408e-02		130.368		1.643e-02		32.336
2		0.00		8.80		6.708e-02		131.731		1.778e-02		25.361
2		0.00		9.20		6.696e-02		129.211		1.828e-02		33.342
2		0.00		9.60		6.642e-02		126.926		2.082e-02		40.568
2		0.00		10.00		6.923e-02		133.151		2.113e-02		10.571
2		0.00		9.60		6.444e-02		130.014		1.707e-02		14.860
2		0.00		9.20		6.171e-02		133.707		1.554e-02		20.467
2		0.00		8.80		6.083e-02		134.731		1.443e-02		16.713
2		0.00		8.40		5.959e-02		134.969		1.370e-02		10.479
2		0.00		8.00		5.935e-02		132.924		1.335e-02		10.018
2		0.00		7.60		5.838e-02		131.682		1.307e-02		9.997
2		0.00		7.20		5.603e-02		131.830		1.216e-02		7.839
2		0.00		6.80		5.377e-02		131.124		1.209e-02		8.435
2		0.00		6.40		5.012e-02		131.140		1.101e-02		7.479
2		0.00		6.00		4.799e-02		131.262		9.654e-03		7.372
2		0.00		5.60		4.427e-02		131.635		9.008e-03		5.484
2		0.00		5.20		4.066e-02		131.452		8.395e-03		7.083
2		0.00		4.80		3.638e-02		131.267		7.590e-03		7.814
2		0.00		4.40		3.224e-02		131.069		6.775e-03		7.766
2		0.00		4.00		2.778e-02		131.871		5.996e-03		9.294
2		0.00		3.60		2.308e-02		130.639		5.178e-03		10.199
2		0.00		3.20		1.812e-02		131.835		4.405e-03		10.551
2		0.00		2.80		1.352e-02		127.678		3.247e-03		12.683
2		0.00		2.40		8.529e-03		124.541		2.481e-03		23.450
2		0.00		2.00		4.135e-03		115.690		1.386e-03		38.725
2		0.00		1.60		1.904e-03		-33.580		7.817e-04		61.108
2		0.00		1.20		5.769e-03		-46.793		1.610e-03		15.177
2		0.00		0.80		1.041e-02		-46.507		2.537e-03		11.556
2		0.00		0.40		1.506e-02		-52.503		3.384e-03		9.583
2		0.00		0.00		1.962e-02		-51.008		4.309e-03		9.964
2		0.00		-0.40		2.453e-02		-50.833		4.930e-03		8.023
2		0.00		-0.80		2.937e-02		-52.084		5.860e-03		8.384
2		0.00		-1.20		3.377e-02		-52.163		6.387e-03		6.951
2		0.00		-1.60		3.919e-02		-52.352		6.866e-03		5.802
2		0.00		-2.00		4.385e-02		-51.635		7.004e-03		5.071
2		0.00		-2.40		4.777e-02		-52.291		7.658e-03		5.520
2		0.00		-2.80		5.154e-02		-52.398		8.549e-03		5.271
2		0.00		-3.20		5.572e-02		-52.431		1.001e-02		6.220
2		0.00		-3.60		5.883e-02		-53.525		1.116e-02		7.759
2		0.00		-4.00		6.096e-02		-52.219		1.192e-02		9.402
2		0.00		-4.40		6.393e-02		-53.625		1.520e-02		14.237
2		0.00		-4.80		6.425e-02		-51.649		1.510e-02		13.807
2		0.00		-5.20		6.217e-02		-44.182		1.433e-02		12.179
2		0.00		-5.60		6.414e-02		-42.526		1.546e-02		12.839
2		0.00		-6.00		6.236e-02		-41.454		1.706e-02		17.827
2		0.00		-6.40		6.380e-02		-48.077		1.868e-02		24.381
2		0.00		-6.80		6.412e-02		-32.740		1.927e-02		21.476
2		0.00		-7.20		6.614e-02		-49.123		1.895e-02		25.360
2		0.00		-7.60		6.708e-02		-35.059		2.072e-02		21.802
2		0.00		-8.00		6.852e-02		-47.898		2.063e-02		24.256
2		0.00		-8.40		6.837e-02		-45.097		2.006e-02		23.970
2		0.00		-8.80		6.668e-02		-42.330		1.921e-02		22.089
2		0.00		-9.20		6.350e-02		-40.742		1.893e-02		22.383
2		0.00		-9.60		6.277e-02		-42.411		1.756e-02		15.895
2		0.00		-10.00		5.975e-02		-40.347		1.659e-02		17.333
2		0.00		-9.60		6.158e-02		-36.367		1.712e-02		18.645
2		0.00		-9.20		6.399e-02		-39.187		1.718e-02		13.983
2		0.00		-8.80		6.435e-02		-37.503		1.577e-02		14.463
2		0.00		-8.40		6.647e-02		-38.238		1.499e-02		10.845
2		0.00		-8.00		6.671e-02		-42.245		1.490e-02		13.012
2		0.00		-7.60		6.665e-02		-42.599		1.513e-02		10.337
2		0.00		-7.20		6.416e-02		-43.618		1.325e-02		7.752
2		0.00		-6.80		6.295e-02		-45.888		1.300e-02		6.483
2		0.00		-6.40		6.185e-02		-47.192		1.282e-02		5.862
2		0.00		-6.00		5.786e-02		-48.115		1.193e-02		6.432
2		0.00		-5.60		5.562e-02		-49.160		1.149e-02		6.360
2		0.00		-5.20		5.167e-02		-49.162		1.016e-02		5.586
2		0.00		-4.80		4.679e-02		-50.232		9.368e-03		6.664
2		0.00		-4.40		4.217e-02		-49.916		8.444e-03		5.438
2		0.00		-4.00		3.828e-02		-51.501		7.550e-03		5.865
2		0.00		-3.60		3.400e-02		-50.378		7.025e-03		6.047
2		0.00		-3.20		2.987e-02		-50.656		6.126e-03		8.011
2		0.00		-2.80		2.527e-02		-48.268		5.229e-03		8.071
2		0.00		-2.40		2.111e-02		-48.567		4.388e-03		8.516
2		0.00		-2.00		1.693e-02		-48.047		3.389e-03		9.574
2		0.00		-1.60		1.237e-02		-45.477		2.762e-03		11.106
2		0.00		-1.20		8.196e-03		-41.291		1.976e-03		11.323
2		0.00		-0.80		3.216e-03		-20.890		1.021e-03		31.292
2		0.00		-0.40		2.264e-03		71.428		8.411e-04		53.065
3		0.00		0.00		6.082e-03		118.182		1.640e-03		16.286
3		0.00		0.40		1.073e-02		121.965		2.415e-03		13.398
3		0.00		0.80		1.464e-02		125.941		3.493e-03		7.967
3		0.00		1.20		1.881e-02		124.824		4.642e-03		8.844
3		0.00		1.60		2.304e-02		127.570		5.520e-03		8.402
3		0.00		2.00		2.702e-02		127.832		6.131e-03		7.836
3		0.00		2.40		3.102e-02		127.927		6.680e-03		6.774
3		0.00		2.80		3.475e-02		128.855		7.018e-03		6.362
3		0.00		3.20		3.850e-02		129.273		7.220e-03		4.912
3		0.00		3.60		4.164e-02		130.390		7.511e-03		5.635
3		0.00		4.00		4.462e-02		131.007		8.478e-03		5.509
3		0.00		4.40		4.761e-02		132.025		8.516e-03		4.653
3		0.00		4.80		5.052e-02		131.847		9.670e-03		4.587
3		0.00		5.20		5.235e-02		131.132		1.047e-02		5.910
3		0.00		5.60		5.514e-02		131.631		1.115e-02		7.627
3		0.00		6.00		5.774e-02		130.999		1.270e-02		8.778
3		0.00		6.40		6.037e-02		130.319		1.475e-02		10.559
3		0.00		6.80		6.118e-02		130.398		1.597e-02		15.345
3		0.00		7.20		6.142e-02		131.520		1.682e-02		17.738
3		0.00		7.60		6.285e-02		138.265		1.564e-02		11.389
3		0.00		8.00		6.200e-02		136.698		1.568e-02		15.565
3		0.00		8.40		6.267e-02		132.572		1.711e-02		41.691
3		0.00		8.80		6.086e-02		127.510		1.784e-02		31.617
3		0.00		9.20		6.535e-02		124.270		2.236e-02		36.017
3		0.00		9.60		6.370e-02		126.476		2.173e-02		39.781
3		0.00		10.00		6.132e-02		130.180		2.036e-02		23.831
3		0.00		9.60		6.688e-02		127.381		2.233e-02		22.174
3		0.00		9.20		6.516e-02		131.129		2.067e-02		33.445
3		0.00		8.80		6.282e-02		132.996		1.839e-02		16.571
3		0.00		8.40		6.200e-02		133.290		1.753e-02		11.526
3		0.00		8.00		6.126e-02		132.164		1.683e-02		8.073
3		0.00		7.60		6.064e-02		130.335		1.653e-02		9.198
3		0.00		7.20		5.696e-02		130.755		1.461e-02		7.804
3		0.00		6.80		5.466e-02		130.987		1.271e-02		6.293
3		0.00		6.40		5.150e-02		132.702		1.096e-02		5.601
3		0.00		6.00		4.842e-02		131.098		9.782e-03		6.231
3		0.00		5.60		4.477e-02		132.681		8.687e-03		4.956
3		0.00		5.20		4.042e-02		131.963		7.539e-03		5.626
3		0.00		4.80		3.672e-02		132.830		6.477e-03		4.715
3		0.00		4.40		3.231e-02		132.136		5.807e-03		5.529
3		0.00		4.00		2.828e-02		131.932		5.200e-03		4.912
3		0.00		3.60		2.416e-02		131.677		4.259e-03		5.858
3		0.00		3.20		1.948e-02		133.417		3.324e-03		6.837
3		0.00		2.80		1.469e-02		130.370		2.827e-03		9.493
3		0.00		2.40		9.978e-03		130.068		2.062e-03		10.535
3		0.00		2.00		5.402e-03		134.790		1.387e-03		18.503
3		0.00		1.60		1.814e-03		29.029		7.688e-04		75.524
3		0.00		1.20		4.274e-03		-47.883		1.334e-03		19.920
3		0.00		0.80		8.797e-03		-46.388		2.144e-03		13.093
3		0.00		0.40		1.390e-02		-47.529		2.886e-03		9.239
3		0.00		0.00		1.836e-02		-49.836		3.949e-03		7.703
3		0.00		-0.40		2.302e-02		-47.804		5.194e-03		7.601
3		0.00		-0.80		2.776e-02		-49.502		5.863e-03		6.448
3		0.00		-1.20		3.235e-02		-51.099		7.083e-03		6.556
3		0.00		-1.60		3.704e-02		-51.549		8.163e-03		7.723
3		0.00		-2.00		4.163e-02		-51.807		9.640e-03		8.315
3		0.00		-2.40		4.585e-02		-53.129		1.043e-02		10.807
3		0.00		-2.80		4.988e-02		-53.483		1.151e-02		10.387
3		0.00		-3.20		5.441e-02		-53.774		1.312e-02		11.065
3		0.00		-3.60		5.733e-02		-53.701		1.351e-02		11.147
3		0.00		-4.00		6.230e-02		-53.650		1.475e-02		9.069
3		0.00		-4.40		6.373e-02		-52.958		1.529e-02		8.448
3		0.00		-4.80		6.315e-02		-50.021		1.721e-02		10.260
3		0.00		-5.20		6.458e-02		-48.543		1.644e-02		9.562
3		0.00		-5.60		6.395e-02		-45.325		1.406e-02		10.573
3		0.00		-6.00		6.530e-02		-43.228		1.408e-02		12.703
3		0.00		-6.40		6.739e-02		-44.763		1.628e-02		12.726
3		0.00		-6.80		6.727e-02		-39.486		1.520e-02		16.647
3		0.00		-7.20		6.686e-02		-37.510		1.592e-02		18.221
3		0.00		-7.60		6.968e-02		-43.778		1.818e-02		21.416
3		0.00		-8.00		6.851e-02		-39.489		1.874e-02		22.408
3		0.00		-8.40		6.908e-02		-39.594		1.822e-02		21.320
3		0.00		-8.80		6.448e-02		-37.256		1.413e-02		17.894
3		0.00		-9.20		6.404e-02		-36.498		1.528e-02		16.994
3		0.00		-9.60		6.032e-02		-38.067		1.371e-02		12.731
3		0.00		-10.00		5.637e-02		-41.170		1.305e-02		7.071
3		0.00		-9.60		5.874e-02		-39.207		1.397e-02		12.000
3		0.00		-9.20		6.056e-02		-35.227		1.378e-02		11.886
3		0.00		-8.80		6.407e-02		-34.672		1.447e-02		13.152
3		0.00		-8.40		6.329e-02		-36.822		1.474e-02		16.026
3		0.00		-8.00		6.462e-02		-39.916		1.465e-02		14.416
3		0.00		-7.60		6.321e-02		-42.548		1.464e-02		13.864
3		0.00		-7.20		6.300e-02		-47.121		1.579e-02		12.543
3		0.00		-6.80		6.241e-02		-48.757		1.511e-02		11.545
3		0.00		-6.40		5.973e-02		-48.947		1.453e-02		10.642
3		0.00		-6.00		5.687e-02		-49.095		1.304e-02		9.013
3		0.00		-5.60		5.351e-02		-48.826		1.243e-02		8.028
3		0.00		-5.20		5.045e-02		-48.979		1.173e-02		5.640
3		0.00		-4.80		4.592e-02		-50.841		1.108e-02		9.371
3		0.00		-4.40		4.183e-02		-49.699		9.867e-03		6.608
3		0.00		-4.00		3.759e-02		-50.083		9.147e-03		6.429
3		0.00		-3.60		3.332e-02		-49.975		7.849e-03		9.250
3		0.00		-3.20		2.919e-02		-49.346		6.941e-03		8.729
3		0.00		-2.80		2.515e-02		-49.644		5.555e-03		9.021
3		0.00		-2.40		2.086e-02		-48.599		4.612e-03		7.707
3		0.00		-2.00		1.631e-02		-46.521		3.686e-03		10.731
3		0.00		-1.60		1.238e-02		-43.459		2.802e-03		8.909
3		0.00		-1.20		7.769e-03		-36.855		1.938e-03		13.781
3		0.00		-0.80		3.287e-03		-39.548		1.121e-03		30.439
3		0.00		-0.40		2.540e-03		70.616		1.045e-03		49.357
4		0.00		0.00		6.395e-03		121.696		1.609e-03		13.420
4		0.00		0.40		1.088e-02		122.872		2.307e-03		10.821
4		0.00		0.80		1.465e-02		125.682		3.019e-03		8.342
4		0.00		1.20		1.915e-02		127.178		3.673e-03		7.364
4		0.00		1.60		2.311e-02		128.970		4.413e-03		6.094
4		0.00		2.00		2.737e-02		129.886		5.306e-03		5.739
4		0.00		2.40		3.137e-02		129.984		5.933e-03		5.789
4		0.00		2.80		3.499e-02		130.551		6.925e-03		6.207
4		0.00		3.20		3.866e-02		130.891		7.471e-03		5.240
4		0.00		3.60		4.184e-02		130.297		7.921e-03		5.327
4		0.00		4.00		4.491e-02		131.797		8.045e-03		3.841
4		0.00		4.40		4.762e-02		131.880		8.541e-03		4.817
4		0.00		4.80		5.083e-02		131.394		9.378e-03		5.757
4		0.00		5.20		5.381e-02		131.793		9.718e-03		5.040
4		0.00		5.60		5.573e-02		132.715		1.017e-02		5.608
4		0.00		6.00		5.808e-02		133.055		1.125e-02		5.595
4		0.00		6.40		5.978e-02		132.052		1.219e-02		9.107
4		0.00		6.80		6.151e-02		133.945		1.251e-02		9.188
4		0.00		7.20		6.270e-02		135.288		1.211e-02		9.275
4		0.00		7.60		6.342e-02		137.691		1.284e-02		9.895
4		0.00		8.00		6.362e-02		131.300		1.541e-02		25.659
4		0.00		8.40		6.282e-02		135.444		1.433e-02		24.158
4		0.00		8.80		6.686e-02		132.022		1.534e-02		29.291
4		0.00		9.20		6.778e-02		138.269		1.693e-02		17.621
4		0.00		9.60		6.633e-02		130.285		1.882e-02		21.980
4		0.00		10.00		6.500e-02		133.378		1.785e-02		20.371
4		0.00		9.60		6.638e-02		137.858		1.598e-02		13.820
4		0.00		9.20		6.332e-02		132.387		1.577e-02		23.848
4		0.00		8.80		6.309e-02		132.150		1.597e-02		18.881
4		0.00		8.40		6.399e-02		133.724		1.431e-02		12.442
4		0.00		8.00		6.217e-02		133.262		1.416e-02		11.165
4		0.00		7.60		5.923e-02		132.885		1.349e-02		12.087
4		0.00		7.20		5.744e-02		131.708		1.305e-02		10.566
4		0.00		6.80		5.470e-02		131.637		1.153e-02		8.477
4		0.00		6.40		5.205e-02		132.932		1.001e-02		4.963
4		0.00		6.00		4.914e-02		133.318		9.219e-03		4.846
4		0.00		5.60		4.573e-02		132.123		8.684e-03		5.330
4		0.00		5.20		4.211e-02		132.580		7.796e-03		4.534
4		0.00		4.80		3.779e-02		132.732		6.868e-03		4.333
4		0.00		4.40		3.346e-02		131.022		6.004e-03		5.231
4		0.00		4.00		2.870e-02		131.033		5.526e-03		6.814
4		0.00		3.60		2.463e-02		132.982		4.855e-03		5.598
4		0.00		3.20		2.055e-02		132.794		3.572e-03		6.817
4		0.00		2.80		1.567e-02		132.726		3.038e-03		8.207
4		0.00		2.40		1.111e-02		132.826		2.296e-03		10.860
4		0.00		2.00		6.687e-03		128.191		1.893e-03		17.989
4		0.00		1.60		2.270e-03		75.344		9.348e-04		72.205
4		0.00		1.20		3.466e-03		-63.281		1.071e-03		25.690
4		0.00		0.80		8.159e-03		-53.458		1.874e-03		12.067
4		0.00		0.40		1.287e-02		-49.706		2.380e-03		10.991
4		0.00		0.00		1.763e-02		-48.831		3.116e-03		7.869
4		0.00		-0.40		2.207e-02		-50.717		3.487e-03		7.504
4		0.00		-0.80		2.675e-02		-50.770		4.668e-03		7.412
4		0.00		-1.20		3.186e-02		-51.545		5.754e-03		6.026
4		0.00		-1.60		3.609e-02		-52.117		6.712e-03		6.459
4		0.00		-2.00		4.044e-02		-52.866		8.129e-03		5.602
4		0.00		-2.40		4.462e-02		-52.553		9.207e-03		6.976
4		0.00		-2.80		4.893e-02		-52.802		1.041e-02		6.013
4		0.00		-3.20		5.284e-02		-53.326		1.243e-02		6.434
4		0.00		-3.60		5.567e-02		-53.706		1.346e-02		6.988
4		0.00		-4.00		5.787e-02		-53.739		1.461e-02		7.596
4		0.00		-4.40		6.155e-02		-53.925		1.683e-02		9.798
4		0.00		-4.80		6.133e-02		-50.516		1.631e-02		10.149
4		0.00		-5.20		6.298e-02		-46.895		1.801e-02		10.847
4		0.00		-5.60		6.308e-02		-44.827		1.787e-02		11.109
4		0.00		-6.00		6.261e-02		-40.850		1.773e-02		21.870
4		0.00		-6.40		6.434e-02		-43.094		1.924e-02		23.728
4		0.00		-6.80		6.537e-02		-39.925		1.863e-02		20.784
4		0.00		-7.20		6.570e-02		-39.942		1.694e-02		21.353
4		0.00		-7.60		6.696e-02		-39.422		1.872e-02		24.386
4		0.00		-8.00		6.549e-02		-34.454		1.695e-02		22.471
4		0.00		-8.40		6.786e-02		-38.137		1.903e-02		21.626
4		0.00		-8.80		6.424e-02		-34.462		1.770e-02		18.940
4		0.00		-9.20		6.180e-02		-37.458		1.785e-02		19.242
4		0.00		-9.60		6.063e-02		-36.557		1.802e-02		18.300
4		0.00		-10.00		5.660e-02		-43.242		1.614e-02		13.738
4		0.00		-9.60		5.989e-02		-42.658		1.741e-02		15.868
4		0.00		-9.20		5.857e-02		-37.642		1.776e-02		19.819
4		0.00		-8.80		5.947e-02		-37.244		1.844e-02		17.226
4		0.00		-8.40		6.322e-02		-43.001		1.858e-02		17.246
4		0.00		-8.00		6.260e-02		-41.287		1.655e-02		15.601
4		0.00		-7.60		6.661e-02		-45.538		1.720e-02		11.503
4		0.00		-7.20		6.300e-02		-46.652		1.592e-02		13.770
4		0.00		-6.80		5.955e-02		-48.238		1.433e-02		12.977
4		0.00		-6.40		5.771e-02		-48.557		1.265e-02		10.098
4		0.00		-6.00		5.683e-02		-48.267		1.165e-02		6.656
4		0.00		-5.60		5.413e-02		-48.747		1.072e-02		5.875
4		0.00		-5.20		5.025e-02		-49.303		9.235e-03		5.603
4		0.00		-4.80		4.705e-02		-49.727		7.538e-03		4.380
4		0.00		-4.40		4.290e-02		-49.903		6.890e-03		5.742
4		0.00		-4.00		3.896e-02		-50.368		5.939e-03		4.226
4		0.00		-3.60		3.442e-02		-50.386		5.318e-03		4.939
4		0.00		-3.20		3.001e-02		-49.292		4.543e-03		6.059
4		0.00		-2.80		2.586e-02		-48.499		3.970e-03		6.312
4		0.00		-2.40		2.112e-02		-48.076		3.303e-03		7.194
4		0.00		-2.00		1.658e-02		-47.513		2.751e-03		8.907
4		0.00		-1.60		1.210e-02		-44.109		2.007e-03		10.153
4		0.00		-1.20		7.428e-03		-41.205		1.592e-03		12.172
4		0.00		-0.80		3.069e-03		-28.026		1.177e-03		37.229
4		0.00		-0.40		2.467e-03		66.353		9.563e-04		48.912
5		0.00		0.00		6.302e-03		119.274		1.757e-03		13.581
5		0.00		0.40		1.074e-02		125.846		2.496e-03		9.377
5		0.00		0.80		1.518e-02		125.687		3.106e-03		6.703
5		0.00		1.20		1.930e-02		126.312		4.036e-03		9.226
5		0.00		1.60		2.302e-02		128.745		5.168e-03		8.595
5		0.00		2.00		2.735e-02		129.318		6.162e-03		7.804
5		0.00		2.40		3.148e-02		128.926		6.989e-03		7.167
5		0.00		2.80		3.519e-02		128.902		7.945e-03		7.560
5		0.00		3.20		3.891e-02		128.834		8.838e-03		7.575
5		0.00		3.60		4.193e-02		129.321		9.455e-03		8.381
5		0.00		4.00		4.490e-02		129.731		1.056e-02		10.147
5		0.00		4.40		4.800e-02		129.115		1.152e-02		10.325
5		0.00		4.80		5.023e-02		129.547		1.215e-02		10.019
5		0.00		5.20		5.336e-02		129.900		1.274e-02		10.875
5		0.00		5.60		5.579e-02		130.381		1.364e-02		11.469
5		0.00		6.00		5.750e-02		130.258		1.487e-02		13.353
5		0.00		6.40		5.886e-02		129.528		1.607e-02		15.571
5		0.00		6.80		6.019e-02		130.371		1.685e-02		19.033
5		0.00		7.20		6.133e-02		130.279		1.749e-02		21.038
5		0.00		7.60		6.001e-02		133.464		1.806e-02		22.489
5		0.00		8.00		6.095e-02		136.097		1.727e-02		17.551
5		0.00		8.40		6.115e-02		132.578		1.736e-02		28.749
5		0.00		8.80		6.451e-02		128.401		1.985e-02		37.232
5		0.00		9.20		6.279e-02		127.058		2.044e-02		39.338
5		0.00		9.60		6.239e-02		129.160		1.928e-02		37.257
5		0.00		10.00		6.123e-02		132.642		1.719e-02		30.081
5		0.00		9.60		6.309e-02		132.474		1.754e-02		27.076
5		0.00		9.20		6.426e-02		131.225		1.807e-02		30.613
5		0.00		8.80		6.263e-02		134.787		1.697e-02		19.574
5		0.00		8.40		6.262e-02		134.437		1.590e-02		14.298
5		0.00		8.00		6.228e-02		131.131		1.590e-02		13.864
5		0.00		7.60		5.929e-02		132.153		1.439e-02		11.936
5		0.00		7.20		5.733e-02		130.710		1.374e-02		10.609
5		0.00		6.80		5.432e-02		131.189		1.260e-02		8.616
5		0.00		6.40		5.143e-02		131.333		1.097e-02		7.343
5		0.00		6.00		4.736e-02		131.588		1.066e-02		6.908
5		0.00		5.60		4.492e-02		132.837		8.914e-03		4.722
5		0.00		5.20		4.097e-02		132.172		7.997e-03		5.489
5		0.00		4.80		3.707e-02		133.395		6.609e-03		5.363
5		0.00		4.40		3.344e-02		132.565		6.204e-03		5.567
5		0.00		4.00		2.923e-02		132.202		4.943e-03		5.494
5		0.00		3.60		2.546e-02		130.900		4.312e-03		6.859
5		0.00		3.20		2.080e-02		132.031		3.431e-03		6.221
5		0.00		2.80		1.635e-02		131.686		2.806e-03		8.981
5		0.00		2.40		1.181e-02		133.884		1.930e-03		9.383
5		0.00		2.00		7.023e-03		131.313		1.542e-03		14.761
5		0.00		1.60		2.599e-03		91.155		1.053e-03		48.384
5		0.00		1.20		3.154e-03		-49.393		1.286e-03		34.930
5		0.00		0.80		8.030e-03		-51.013		1.808e-03		14.216
5		0.00		0.40		1.238e-02		-55.936		2.083e-03		9.913
5		0.00		0.00		1.689e-02		-51.339		2.944e-03		8.344
5		0.00		-0.40		2.175e-02		-52.234		3.467e-03		6.200
5		0.00		-0.80		2.662e-02		-50.341		4.429e-03		5.954
5		0.00		-1.20		3.043e-02		-51.327		6.021e-03		7.279
5		0.00		-1.60		3.495e-02		-52.698		7.512e-03		7.322
5		0.00		-2.00		3.973e-02		-52.393		8.894e-03		6.766
5		0.00		-2.40		4.284e-02		-53.088		1.036e-02		7.027
5		0.00		-2.80		4.727e-02		-52.941		1.149e-02		7.839
5		0.00		-3.20		5.053e-02		-54.500		1.290e-02		10.082
5		0.00		-3.60		5.386e-02		-54.243		1.420e-02		8.780
5		0.00		-4.00		5.734e-02		-53.555		1.494e-02		10.807
5		0.00		-4.40		6.056e-02		-52.765		1.539e-02		9.579
5		0.00		-4.80		6.145e-02		-49.678		1.567e-02		10.655
5		0.00		-5.20		6.411e-02		-47.627		1.672e-02		14.018
5		0.00		-5.60		6.496e-02		-45.277		1.655e-02		13.093
5		0.00		-6.00		6.336e-02		-39.592		1.559e-02		12.297
5		0.00		-6.40		6.519e-02		-39.441		1.692e-02		16.144
5		0.00		-6.80		6.748e-02		-40.115		1.912e-02		16.093
5		0.00		-7.20		6.769e-02		-36.944		1.679e-02		22.427
5		0.00		-7.60		6.709e-02		-39.423		1.895e-02		22.868
5		0.00		-8.00		6.790e-02		-35.005		1.638e-02		17.087
5		0.00		-8.40		6.735e-02		-41.623		1.738e-02		21.103
5		0.00		-8.80		6.541e-02		-35.723		1.732e-02		20.415
5		0.00		-9.20		6.253e-02		-34.732		1.643e-02		13.033
5		0.00		-9.60		6.014e-02		-39.675		1.531e-02		12.099
5		0.00		-10.00		5.567e-02		-40.763		1.390e-02		7.417
5		0.00		-9.60		5.860e-02		-39.914		1.447e-02		9.906
5		0.00		-9.20		6.090e-02		-38.568		1.411e-02		10.839
5		0.00		-8.80		6.467e-02		-38.809		1.476e-02		9.855
5		0.00		-8.40		6.505e-02		-39.424		1.522e-02		11.981
5		0.00		-8.00		6.385e-02		-41.021		1.457e-02		10.635
5		0.00		-7.60		6.719e-02		-45.725		1.627e-02		9.912
5		0.00		-7.20		6.427e-02		-45.252		1.497e-02		10.269
5		0.00		-6.80		6.274e-02		-45.640		1.559e-02		13.415
5		0.00		-6.40		6.221e-02		-48.264		1.456e-02		13.140
5		0.00		-6.00		5.781e-02		-48.184		1.344e-02		12.639
5		0.00		-5.60		5.414e-02		-47.364		1.208e-02		8.809
5		0.00		-5.20		5.056e-02		-48.865		1.084e-02		7.571
5		0.00		-4.80		4.724e-02		-49.243		9.136e-03		5.940
5		0.00		-4.40		4.238e-02		-49.440		7.388e-03		5.788
5		0.00		-4.00		3.850e-02		-49.315		6.668e-03		4.898
5		0.00		-3.60		3.398e-02		-49.956		5.534e-03		6.304
5		0.00		-3.20		2.961e-02		-49.006		4.834e-03		5.519
5		0.00		-2.80		2.535e-02		-49.623		4.060e-03		6.471
5		0.00		-2.40		2.057e-02		-46.604		3.499e-03		7.561
5		0.00		-2.00		1.647e-02		-45.696		3.060e-03		7.097
5		0.00		-1.60		1.192e-02		-43.820		2.588e-03		10.007
5		0.00		-1.20		7.186e-03		-43.148		1.969e-03		15.488
5		0.00		-0.80		3.041e-03		-25.212		1.214e-03		32.067
5		0.00		-0.40		2.497e-03		68.195		1.144e-03		52.453
6		0.00		0.00		6.122e-03		122.135		1.767e-03		19.325
6		0.00		0.40		1.064e-02		128.322		2.445e-03		11.400
6		0.00		0.80		1.496e-02		126.356		2.789e-03		8.616
6		0.00		1.20		1.941e-02		128.482		3.332e-03		7.071
6		0.00		1.60		2.345e-02		129.144		3.573e-03		6.540
6		0.00		2.00		2.790e-02		129.201		4.148e-03		5.766
6		0.00		2.40		3.167e-02		129.638		5.009e-03		5.897
6		0.00		2.80		3.513e-02		130.180		5.976e-03		5.711
6		0.00		3.20		3.815e-02		130.286		7.448e-03		5.171
6		0.00		3.60		4.099e-02		129.626		1.012e-02		7.499
6		0.00		4.00		4.346e-02		128.463		1.085e-02		9.570
6		0.00		4.40		4.627e-02		129.249		1.197e-02		11.827
6		0.00		4.80		4.883e-02		130.216		1.208e-02		7.995
6		0.00		5.20		5.163e-02		131.004		1.257e-02		9.338
6		0.00		5.60		5.418e-02		131.983		1.199e-02		6.196
6		0.00		6.00		5.696e-02		131.590		1.224e-02		8.215
6		0.00		6.40		5.925e-02		132.477		1.190e-02		6.839
6		0.00		6.80		6.065e-02		134.543		1.201e-02		9.154
6		0.00		7.20		6.112e-02		134.823		1.200e-02		8.643
6		0.00		7.60		6.491e-02		135.023		1.418e-02		8.388
6		0.00		8.00		6.527e-02		136.842		1.510e-02		10.812
6		0.00		8.40		6.606e-02		134.117		1.709e-02		20.339
6		0.00		8.80		6.734e-02		132.597		1.840e-02		26.184
6		0.00		9.20		6.620e-02		130.541		1.951e-02		35.523
6		0.00		9.60		6.354e-02		135.511		1.713e-02		23.500
6		0.00		10.00		6.375e-02		129.214		1.778e-02		26.726
6		0.00		9.60		6.556e-02		130.907		1.738e-02		32.175
6		0.00		9.20		6.542e-02		133.517		1.580e-02		24.349
6		0.00		8.80		6.687e-02		129.606		1.717e-02		35.418
6		0.00		8.40		6.175e-02		137.181		1.358e-02		8.421
6		0.00		8.00		6.189e-02		132.646		1.615e-02		8.860
6		0.00		7.60		5.967e-02		131.345		1.673e-02		9.519
6		0.00		7.20		5.651e-02		129.490		1.596e-02		18.360
6		0.00		6.80		5.359e-02		129.461		1.497e-02		16.218
6		0.00		6.40		5.008e-02		130.922		1.307e-02		11.837
6		0.00		6.00		4.768e-02		130.688		1.117e-02		8.648
6		0.00		5.60		4.522e-02		132.667		8.815e-03		4.593
6		0.00		5.20		4.176e-02		133.007		7.408e-03		4.801
6		0.00		4.80		3.807e-02		132.852		6.428e-03		4.978
6		0.00		4.40		3.365e-02		132.027		6.400e-03		6.154
6		0.00		4.00		2.972e-02		131.168		6.344e-03		6.302
6		0.00		3.60		2.536e-02		129.891		5.916e-03		10.389
6		0.00		3.20		2.125e-02		132.569		4.811e-03		11.206
6		0.00		2.80		1.639e-02		130.757		3.708e-03		10.997
6		0.00		2.40		1.162e-02		129.560		2.191e-03		10.022
6		0.00		2.00		7.096e-03		130.327		1.547e-03		14.751
6		0.00		1.60		2.674e-03		92.928		9.710e-04		58.550
6		0.00		1.20		2.600e-03		-60.676		1.028e-03		28.768
6		0.00		0.80		7.238e-03		-49.631		1.525e-03		14.970
6		0.00		0.40		1.156e-02		-49.537		2.847e-03		11.008
6		0.00		0.00		1.636e-02		-48.427		3.830e-03		8.979
6		0.00		-0.40		2.059e-02		-50.513		4.450e-03		11.069
6		0.00		-0.80		2.511e-02		-46.541		5.210e-03		7.712
6		0.00		-1.20		3.023e-02		-51.053		5.087e-03		6.342
6		0.00		-1.60		3.511e-02		-51.055		5.217e-03		5.348
6		0.00		-2.00		3.972e-02		-50.846		5.649e-03		4.799
6		0.00		-2.40		4.414e-02		-51.929		7.174e-03		4.777
6		0.00		-2.80		4.779e-02		-52.533		9.413e-03		6.005
6		0.00		-3.20		5.156e-02		-53.929		1.157e-02		8.199
6		0.00		-3.60		5.517e-02		-53.388		1.242e-02		10.519
6		0.00		-4.00		5.725e-02		-52.193		1.266e-02		10.971
6		0.00		-4.40		5.944e-02		-51.209		1.275e-02		8.983
6		0.00		-4.80		6.356e-02		-50.677		1.413e-02		9.657
6		0.00		-5.20		6.065e-02		-47.188		1.244e-02		11.582
6		0.00		-5.60		6.337e-02		-44.991		1.227e-02		8.649
6		0.00		-6.00		6.385e-02		-43.382		1.417e-02		13.182
6		0.00		-6.40		6.584e-02		-41.236		1.648e-02		13.356
6		0.00		-6.80		6.539e-02		-43.042		1.910e-02		17.169
6		0.00		-7.20		6.654e-02		-40.052		1.948e-02		26.368
6		0.00		-7.60		6.541e-02		-37.618		2.013e-02		21.140
6		0.00		-8.00		6.253e-02		-40.872		1.824e-02		28.512
6		0.00		-8.40		6.711e-02		-40.585		1.789e-02		22.342
6		0.00		-8.80		6.966e-02		-35.198		1.647e-02		15.955
6		0.00		-9.20		6.411e-02		-35.579		1.548e-02		16.752
6		0.00		-9.60		6.037e-02		-36.528		1.417e-02		11.744
6		0.00		-10.00		5.775e-02		-41.982		1.494e-02		12.772
6		0.00		-9.60		6.109e-02		-42.195		1.655e-02		20.740
6		0.00		-9.20		6.072e-02		-36.670		1.678e-02		23.235
6		0.00		-8.80		6.268e-02		-35.417		1.656e-02		14.155
6		0.00		-8.40		6.508e-02		-38.589		1.540e-02		12.729
6		0.00		-8.00		6.589e-02		-41.716		1.515e-02		12.763
6		0.00		-7.60		6.430e-02		-41.981		1.207e-02		10.217
6		0.00		-7.20		6.434e-02		-43.275		1.198e-02		6.419
6		0.00		-6.80		6.394e-02		-46.713		1.473e-02		6.477
6		0.00		-6.40		6.022e-02		-48.992		1.561e-02		10.385
6		0.00		-6.00		5.766e-02		-49.211		1.491e-02		12.550
6		0.00		-5.60		5.351e-02		-48.604		1.308e-02		10.291
6		0.00		-5.20		5.025e-02		-47.983		1.109e-02		6.274
6		0.00		-4.80		4.727e-02		-48.454		8.494e-03		4.340
6		0.00		-4.40		4.321e-02		-49.799		7.176e-03		4.447
6		0.00		-4.00		3.933e-02		-50.376		6.205e-03		5.374
6		0.00		-3.60		3.446e-02		-50.490		6.101e-03		6.307
6		0.00		-3.20		2.956e-02		-49.648		5.935e-03		7.379
6		0.00		-2.80		2.530e-02		-48.962		5.498e-03		8.765
6		0.00		-2.40		2.051e-02		-46.782		4.414e-03		8.611
6		0.00		-2.00		1.652e-02		-43.718		3.035e-03		8.636
6		0.00		-1.60		1.232e-02		-38.775		2.030e-03		12.299
6		0.00		-1.20		7.946e-03		-40.158		1.441e-03		10.449
6		0.00		-0.80		3.559e-03		-16.592		1.130e-03		24.931
6		0.00		-0.40		2.661e-03		75.485		1.216e-03		48.878
7		0.00		0.00		5.972e-03		113.712		1.730e-03		16.072
7		0.00		0.40		9.993e-03		121.990		2.730e-03		17.075
7		0.00		0.80		1.427e-02		125.296		3.672e-03		14.160
7		0.00		1.20		1.857e-02		129.881		4.113e-03		11.201
7		0.00		1.60		2.305e-02		129.408		4.620e-03		6.654
7		0.00		2.00		2.736e-02		129.664		4.995e-03		6.796
7		0.00		2.40		3.117e-02		128.602		5.930e-03		6.624
7		0.00		2.80		3.519e-02		129.751		6.270e-03		5.542
7		0.00		3.20		3.862e-02		129.301		8.031e-03		7.067
7		0.00		3.60		4.137e-02		129.864		9.323e-03		10.463
7		0.00		4.00		4.394e-02		129.565		9.864e-03		12.189
7		0.00		4.40		4.718e-02		131.232		1.026e-02		8.739
7		0.00		4.80		5.040e-02		131.970		9.868e-03		6.573
7		0.00		5.20		5.322e-02		132.005		9.764e-03		4.829
7		0.00		5.60		5.570e-02		132.541		1.012e-02		5.491
7		0.00		6.00		5.793e-02		133.227		1.044e-02		5.205
7		0.00		6.40		5.988e-02		131.853		1.291e-02		5.909
7		0.00		6.80		6.104e-02		132.524		1.619e-02		10.115
7		0.00		7.20		6.143e-02		132.454		1.649e-02		17.077
7		0.00		7.60		6.241e-02		133.512		1.726e-02		17.312
7		0.00		8.00		6.221e-02		133.735		1.738e-02		18.014
7		0.00		8.40		6.525e-02		132.478		1.830e-02		17.642
7		0.00		8.80		6.737e-02		131.767		1.701e-02		21.635
7		0.00		9.20		6.607e-02		128.116		1.598e-02		39.194
7		0.00		9.60		6.562e-02		135.414		1.576e-02		19.606
7		0.00		10.00		6.568e-02		135.052		1.789e-02		28.305
7		0.00		9.60		6.498e-02		132.104		1.820e-02		22.524
7		0.00		9.20		6.453e-02		134.063		1.759e-02		24.621
7		0.00		8.80		6.207e-02		129.818		1.841e-02		32.037
7		0.00		8.40		6.434e-02		135.267		1.558e-02		13.024
7		0.00		8.00		6.226e-02		132.060		1.547e-02		13.446
7		0.00		7.60		5.943e-02		134.642		1.116e-02		7.917
7		0.00		7.20		5.843e-02		133.436		1.093e-02		5.199
7		0.00		6.80		5.642e-02		132.251		1.126e-02		5.346
7		0.00		6.40		5.211e-02		131.478		1.314e-02		8.311
7		0.00		6.00		4.777e-02		129.486		1.263e-02		13.541
7		0.00		5.60		4.386e-02		129.799		1.141e-02		13.835
7		0.00		5.20		4.002e-02		131.805		1.036e-02		9.808
7		0.00		4.80		3.623e-02		131.525		8.556e-03		7.981
7		0.00		4.40		3.255e-02		133.321		6.844e-03		5.941
7		0.00		4.00		2.876e-02		132.521		5.349e-03		6.296
7		0.00		3.60		2.508e-02		132.883		4.312e-03		6.487
7		0.00		3.20		2.101e-02		132.325		4.104e-03		6.611
7		0.00		2.80		1.669e-02		132.464		3.150e-03		10.009
7		0.00		2.40		1.176e-02		129.644		2.686e-03		12.999
7		0.00		2.00		7.355e-03		124.231		1.832e-03		16.760
7		0.00		1.60		3.221e-03		113.916		1.196e-03		37.077
7		0.00		1.20		2.590e-03		-48.244		1.096e-03		42.180
7		0.00		0.80		6.866e-03		-53.796		1.712e-03		17.681
7		0.00		0.40		1.161e-02		-45.857		2.124e-03		12.272
7		0.00		0.00		1.649e-02		-47.628		2.638e-03		7.811
7		0.00		-0.40		2.175e-02		-47.699		2.856e-03		6.368
7		0.00		-0.80		2.566e-02		-51.008		3.697e-03		6.568
7		0.00		-1.20		2.963e-02		-51.424		4.680e-03		6.776
7		0.00		-1.60		3.394e-02		-52.057		6.748e-03		6.733
7		0.00		-2.00		3.741e-02		-52.579		8.770e-03		7.822
7		0.00		-2.40		4.130e-02		-52.887		1.005e-02		8.916
7		0.00		-2.80		4.569e-02		-52.712		1.080e-02		6.641
7		0.00		-3.20		4.979e-02		-51.176		1.102e-02		6.021
7		0.00		-3.60		5.358e-02		-53.198		1.053e-02		7.382
7		0.00		-4.00		5.725e-02		-52.308		9.778e-03		6.627
7		0.00		-4.40		5.857e-02		-51.572		1.018e-02		8.684
7		0.00		-4.80		6.188e-02		-49.106		1.007e-02		8.677
7		0.00		-5.20		6.455e-02		-48.037		1.110e-02		7.440
7		0.00		-5.60		6.616e-02		-47.232		1.343e-02		10.647
7		0.00		-6.00		6.450e-02		-41.019		1.362e-02		11.332
7		0.00		-6.40		6.521e-02		-43.035		1.579e-02		13.083
7		0.00		-6.80		6.522e-02		-38.060		1.560e-02		15.134
7		0.00		-7.20		6.737e-02		-36.006		1.795e-02		18.151
7		0.00		-7.60		6.816e-02		-37.010		1.932e-02		18.365
7		0.00		-8.00		6.455e-02		-36.580		1.855e-02		22.129
7		0.00		-8.40		6.471e-02		-34.914		1.988e-02		23.751
7		0.00		-8.80		6.549e-02		-37.841		1.735e-02		17.573
7		0.00		-9.20		6.266e-02		-36.686		1.730e-02		16.740
7		0.00		-9.60		5.852e-02		-38.194		1.516e-02		11.655
7		0.00		-10.00		5.512e-02		-41.225		1.384e-02		6.389
7		0.00		-9.60		5.927e-02		-40.513		1.554e-02		9.217
7		0.00		-9.20		6.186e-02		-37.568		1.584e-02		9.695
7		0.00		-8.80		6.439e-02		-42.336		1.767e-02		10.848
7		0.00		-8.40		6.399e-02		-41.698		1.728e-02		9.865
7		0.00		-8.00		6.469e-02		-42.882		1.676e-02		17.312
7		0.00		-7.60		6.376e-02		-43.586		1.630e-02		11.139
7		0.00		-7.20		6.303e-02		-46.474		1.521e-02		14.715
7		0.00		-6.80		6.275e-02		-47.883		1.404e-02		12.534
7		0.00		-6.40		5.945e-02		-47.900		1.200e-02		8.299
7		0.00		-6.00		5.688e-02		-46.903		1.023e-02		5.766
7		0.00		-5.60		5.376e-02		-47.148		8.518e-03		4.385
7		0.00		-5.20		5.027e-02		-47.397		8.021e-03		4.248
7		0.00		-4.80		4.567e-02		-49.349		7.555e-03		5.056
7		0.00		-4.40		4.113e-02		-50.183		7.360e-03		4.032
7		0.00		-4.00		3.608e-02		-51.073		7.571e-03		7.237
7		0.00		-3.60		3.193e-02		-50.100		7.315e-03		6.554
7		0.00		-3.20		2.775e-02		-50.290		6.534e-03		8.660
7		0.00		-2.80		2.348e-02		-49.093		5.468e-03		9.258
7		0.00		-2.40		1.906e-02		-46.974		4.372e-03		8.129
7		0.00		-2.00		1.523e-02		-46.660		3.264e-03		9.668
7		0.00		-1.60		1.092e-02		-43.444		2.192e-03		11.185
7		0.00		-1.20		6.524e-03		-39.170		1.474e-03		13.021
7		0.00		-0.80		2.762e-03		-29.913		9.721e-04		34.520
7		0.00		-0.40		3.167e-03		106.540		1.147e-03		27.021
8		0.00		0.00		7.324e-03		122.220		1.482e-03		13.666
8		0.00		0.40		1.154e-02		124.666		1.949e-03		9.432
8		0.00		0.80		1.595e-02		126.416		2.536e-03		7.534
8		0.00		1.20		2.029e-02		128.461		3.284e-03		6.563
8		0.00		1.60		2.402e-02		128.766		4.218e-03		7.004
8		0.00		2.00		2.797e-02		128.121		5.376e-03		6.591
8		0.00		2.40		3.140e-02		129.011		6.884e-03		7.652
8		0.00		2.80		3.472e-02		128.425		8.420e-03		10.141
8		0.00		3.20		3.843e-02		128.042		9.401e-03		9.907
8		0.00		3.60		4.083e-02		128.685		1.031e-02		10.692
8		0.00		4.00		4.361e-02		130.771		1.087e-02		9.377
8		0.00		4.40		4.607e-02		130.701		1.126e-02		8.556
8		0.00		4.80		4.887e-02		131.282		1.184e-02		7.012
8		0.00		5.20		5.167e-02		130.946		1.173e-02		7.782
8		0.00		5.60		5.371e-02		131.526		1.153e-02		7.137
8		0.00		6.00		5.639e-02		133.158		1.099e-02		5.965
8		0.00		6.40		5.802e-02		133.221		1.148e-02		6.935
8		0.00		6.80		6.178e-02		134.069		1.116e-02		6.245
8		0.00		7.20		6.246e-02		135.576		1.162e-02		6.846
8		0.00		7.60		6.419e-02		134.509		1.240e-02		26.787
8		0.00		8.00		6.465e-02		133.501		1.423e-02		34.172
8		0.00		8.40		6.616e-02		138.046		1.554e-02		18.335
8		0.00		8.80		6.739e-02		138.338		1.580e-02		14.030
8		0.00		9.20		6.723e-02		133.884		1.668e-02		21.269
8		0.00		9.60		6.486e-02		128.889		1.703e-02		35.827
8		0.00		10.00		6.180e-02		135.801		1.798e-02		32.338
8		0.00		9.60		6.422e-02		125.463		2.037e-02		39.108
8		0.00		9.20		6.319e-02		133.198		1.891e-02		21.498
8		0.00		8.80		6.197e-02		128.176		1.816e-02		44.549
8		0.00		8.40		6.215e-02		131.348		1.745e-02		33.785
8		0.00		8.00		6.153e-02		133.463		1.555e-02		11.386
8		0.00		7.60		6.136e-02		131.527		1.448e-02		9.654
8		0.00		7.20		5.741e-02		132.403		1.248e-02		7.719
8		0.00		6.80		5.531e-02		133.727		1.096e-02		6.181
8		0.00		6.40		5.295e-02		132.903		9.351e-03		4.341
8		0.00		6.00		5.042e-02		132.172		8.582e-03		4.198
8		0.00		5.60		4.673e-02		131.665		8.395e-03		4.667
8		0.00		5.20		4.269e-02		132.143		7.843e-03		4.567
8		0.00		4.80		3.853e-02		131.448		7.189e-03		6.541
8		0.00		4.40		3.420e-02		131.668		7.038e-03		6.944
8		0.00		4.00		3.028e-02		132.230		6.210e-03		6.902
8		0.00		3.60		2.563e-02		131.499		5.415e-03		8.594
8		0.00		3.20		2.176e-02		130.840		4.658e-03		7.747
8		0.00		2.80		1.713e-02		131.345		3.791e-03		9.630
8		0.00		2.40		1.236e-02		130.467		3.071e-03		15.582
8		0.00		2.00		7.713e-03		126.919		2.244e-03		19.073
8		0.00		1.60		3.368e-03		107.085		1.192e-03		46.549
8		0.00		1.20		2.212e-03		-33.502		8.853e-04		47.383
8		0.00		0.80		6.274e-03		-55.607		1.845e-03		21.107
8		0.00		0.40		1.022e-02		-47.408		2.486e-03		13.720
8		0.00		0.00		1.497e-02		-50.632		3.182e-03		10.354
8		0.00		-0.40		1.954e-02		-49.326		3.743e-03		8.524
8		0.00		-0.80		2.410e-02		-49.005		4.515e-03		6.901
8		0.00		-1.20		2.885e-02		-50.510		5.068e-03		8.365
8		0.00		-1.60		3.387e-02		-51.359		5.125e-03		5.003
8		0.00		-2.00		3.786e-02		-51.004		5.487e-03		5.268
8		0.00		-2.40		4.211e-02		-51.175		6.060e-03		4.601
8		0.00		-2.80		4.688e-02		-51.901		6.644e-03		4.745
8		0.00		-3.20		5.081e-02		-51.505		7.445e-03		4.356
8		0.00		-3.60		5.481e-02		-51.772		8.832e-03		5.017
8		0.00		-4.00		5.766e-02		-53.329		9.221e-03		5.415
8		0.00		-4.40		6.157e-02		-51.951		1.046e-02		3.950
8		0.00		-4.80		6.316e-02		-50.754		1.227e-02		5.829
8		0.00		-5.20		6.666e-02		-49.368		1.403e-02		6.484
8		0.00		-5.60		6.557e-02		-45.573		1.523e-02		9.031
8		0.00		-6.00		6.299e-02		-43.653		1.414e-02		9.852
8		0.00		-6.40		6.560e-02		-44.072		1.547e-02		10.529
8		0.00		-6.80		6.717e-02		-43.036		1.835e-02		11.396
8		0.00		-7.20		6.702e-02		-41.848		1.750e-02		15.445
8		0.00		-7.60		6.880e-02		-42.038		1.909e-02		15.984
8		0.00		-8.00		6.719e-02		-38.045		1.904e-02		19.682
8		0.00		-8.40		6.767e-02		-37.432		2.016e-02		22.454
8		0.00		-8.80		6.456e-02		-35.205		1.851e-02		25.703
8		0.00		-9.20		6.317e-02		-34.102		1.772e-02		21.615
8		0.00		-9.60		6.086e-02		-37.912		1.735e-02		21.679
8		0.00		-10.00		5.566e-02		-42.127		1.584e-02		17.649
8		0.00		-9.60		5.882e-02		-36.987		1.713e-02		14.302
8		0.00		-9.20		6.117e-02		-35.614		1.724e-02		15.464
8		0.00		-8.80		6.339e-02		-37.657		1.715e-02		15.048
8		0.00		-8.40		6.487e-02		-40.888		1.728e-02		15.283
8		0.00		-8.00		6.651e-02		-42.187		1.646e-02		10.790
8		0.00		-7.60		6.419e-02		-44.050		1.715e-02		14.702
8		0.00		-7.20		6.315e-02		-45.792		1.552e-02		10.533
8		0.00		-6.80		6.209e-02		-49.242		1.513e-02		11.512
8		0.00		-6.40		5.881e-02		-47.754		1.304e-02		8.832
8		0.00		-6.00		5.627e-02		-47.821		1.157e-02		6.896
8		0.00		-5.60		5.314e-02		-46.980		1.017e-02		5.190
8		0.00		-5.20		4.974e-02		-48.240		9.118e-03		4.388
8		0.00		-4.80		4.628e-02		-49.907		7.810e-03		4.046
8		0.00		-4.40		4.180e-02		-49.958		7.268e-03		4.954
8		0.00		-4.00		3.780e-02		-51.074		6.387e-03		5.380
8		0.00		-3.60		3.381e-02		-49.122		5.250e-03		4.753
8		0.00		-3.20		2.959e-02		-49.281		4.495e-03		5.857
8		0.00		-2.80		2.526e-02		-48.480		3.950e-03		6.598
8		0.00		-2.40		2.098e-02		-47.831		3.448e-03		6.594
8		0.00		-2.00		1.632e-02		-45.468		2.743e-03		8.091
8		0.00		-1.60		1.191e-02		-43.599		2.031e-03		8.787
8		0.00		-1.20		7.391e-03		-35.739		1.531e-03		15.737
8		0.00		-0.80		3.493e-03		-34.190		1.191e-03		28.230
8		0.00		-0.40		2.436e-03		74.447		1.031e-03		61.214
