# Date of analysis: 2023-11-20 16;19
# 
# Loop index	Read Volt (V)	Write Volt (V)	Amplitude (a.u)	Phase (deg)	Sigma Amp (a.u)	Sigma Pha (deg)	
1		0.00		0.00		8.844e-03		-43.926		1.879e-03		15.092
1		0.00		0.40		4.207e-03		-32.205		1.217e-03		23.656
1		0.00		0.80		1.919e-03		51.569		8.057e-04		62.562
1		0.00		1.20		5.548e-03		115.310		1.552e-03		21.487
1		0.00		1.60		1.014e-02		128.972		1.839e-03		14.553
1		0.00		2.00		1.444e-02		126.306		3.455e-03		12.914
1		0.00		2.40		1.855e-02		128.771		4.063e-03		9.306
1		0.00		2.80		2.299e-02		131.307		4.103e-03		8.636
1		0.00		3.20		2.678e-02		130.589		6.812e-03		12.806
1		0.00		3.60		3.103e-02		129.559		6.001e-03		9.001
1		0.00		4.00		3.379e-02		131.547		7.567e-03		10.402
1		0.00		4.40		3.723e-02		130.338		8.621e-03		8.073
1		0.00		4.80		4.050e-02		131.413		7.863e-03		8.194
1		0.00		5.20		4.415e-02		130.011		1.059e-02		10.286
1		0.00		5.60		4.683e-02		131.736		7.995e-03		6.422
1		0.00		6.00		4.944e-02		131.547		1.092e-02		11.871
1		0.00		6.40		5.244e-02		132.034		1.109e-02		8.092
1		0.00		6.80		5.325e-02		132.299		1.115e-02		13.331
1		0.00		7.20		5.622e-02		131.868		1.402e-02		11.201
1		0.00		7.60		5.728e-02		135.137		1.075e-02		8.005
1		0.00		8.00		5.935e-02		135.655		1.432e-02		9.994
1		0.00		8.40		6.097e-02		134.944		1.277e-02		9.553
1		0.00		8.80		5.978e-02		128.651		1.473e-02		28.765
1		0.00		9.20		6.451e-02		133.729		1.646e-02		16.432
1		0.00		9.60		6.132e-02		134.388		1.425e-02		15.301
1		0.00		10.00		6.048e-02		133.553		1.629e-02		14.993
1		0.00		9.60		6.164e-02		132.682		1.401e-02		13.507
1		0.00		9.20		5.919e-02		132.677		1.564e-02		18.708
1		0.00		8.80		6.262e-02		132.287		1.685e-02		9.995
1		0.00		8.40		5.781e-02		135.127		1.171e-02		8.719
1		0.00		8.00		5.523e-02		131.712		1.467e-02		16.743
1		0.00		7.60		5.443e-02		132.359		1.139e-02		8.066
1		0.00		7.20		5.033e-02		132.513		1.144e-02		9.861
1		0.00		6.80		4.822e-02		132.183		1.164e-02		8.962
1		0.00		6.40		4.516e-02		133.426		8.158e-03		6.764
1		0.00		6.00		4.162e-02		131.198		1.075e-02		11.593
1		0.00		5.60		3.910e-02		131.160		7.112e-03		7.790
1		0.00		5.20		3.473e-02		133.677		7.770e-03		9.403
1		0.00		4.80		3.153e-02		131.877		6.687e-03		8.634
1		0.00		4.40		2.828e-02		133.760		4.768e-03		6.879
1		0.00		4.00		2.354e-02		133.165		5.248e-03		12.058
1		0.00		3.60		1.990e-02		132.959		3.110e-03		9.345
1		0.00		3.20		1.506e-02		132.933		3.021e-03		12.728
1		0.00		2.80		1.045e-02		131.467		2.201e-03		10.867
1		0.00		2.40		6.046e-03		128.893		1.413e-03		20.300
1		0.00		2.00		2.177e-03		67.116		8.927e-04		62.417
1		0.00		1.60		3.762e-03		-54.489		1.288e-03		27.013
1		0.00		1.20		8.060e-03		-46.781		1.980e-03		14.948
1		0.00		0.80		1.260e-02		-51.052		2.316e-03		11.574
1		0.00		0.40		1.789e-02		-50.898		2.961e-03		8.936
1		0.00		0.00		2.215e-02		-49.478		4.883e-03		8.962
1		0.00		-0.40		2.739e-02		-49.411		3.764e-03		6.852
1		0.00		-0.80		3.075e-02		-49.877		6.701e-03		8.602
1		0.00		-1.20		3.570e-02		-51.792		7.286e-03		8.334
1		0.00		-1.60		3.937e-02		-52.138		7.655e-03		7.707
1		0.00		-2.00		4.259e-02		-51.488		1.037e-02		9.519
1		0.00		-2.40		4.673e-02		-52.077		8.315e-03		7.358
1		0.00		-2.80		4.956e-02		-51.763		1.198e-02		8.794
1		0.00		-3.20		5.248e-02		-53.037		1.125e-02		8.703
1		0.00		-3.60		5.440e-02		-51.653		1.094e-02		7.325
1		0.00		-4.00		5.833e-02		-52.376		1.536e-02		9.441
1		0.00		-4.40		5.883e-02		-53.841		1.287e-02		13.505
1		0.00		-4.80		5.967e-02		-51.925		1.641e-02		14.692
1		0.00		-5.20		6.480e-02		-49.007		1.581e-02		12.466
1		0.00		-5.60		6.177e-02		-52.047		1.684e-02		20.679
1		0.00		-6.00		6.239e-02		-43.615		1.606e-02		16.761
1		0.00		-6.40		6.741e-02		-43.363		1.696e-02		19.217
1		0.00		-6.80		6.763e-02		-41.533		1.804e-02		18.908
1		0.00		-7.20		6.748e-02		-49.440		1.658e-02		23.684
1		0.00		-7.60		6.909e-02		-45.214		1.793e-02		22.811
1		0.00		-8.00		6.935e-02		-36.812		1.779e-02		19.569
1		0.00		-8.40		6.828e-02		-38.387		1.599e-02		22.253
1		0.00		-8.80		6.489e-02		-34.624		1.720e-02		20.201
1		0.00		-9.20		6.653e-02		-33.517		1.654e-02		16.561
1		0.00		-9.60		6.035e-02		-46.602		1.691e-02		19.326
1		0.00		-10.00		5.839e-02		-40.868		1.536e-02		11.633
1		0.00		-9.60		6.140e-02		-45.264		1.736e-02		17.389
1		0.00		-9.20		6.438e-02		-35.954		1.875e-02		20.218
1		0.00		-8.80		6.602e-02		-36.550		1.557e-02		16.381
1		0.00		-8.40		6.278e-02		-44.407		1.763e-02		20.114
1		0.00		-8.00		6.684e-02		-42.480		1.705e-02		16.047
1		0.00		-7.60		6.748e-02		-42.132		1.792e-02		13.921
1		0.00		-7.20		6.276e-02		-42.617		1.712e-02		13.672
1		0.00		-6.80		6.297e-02		-45.364		1.200e-02		11.199
1		0.00		-6.40		5.962e-02		-46.362		1.442e-02		10.970
1		0.00		-6.00		6.033e-02		-47.680		1.359e-02		9.638
1		0.00		-5.60		5.682e-02		-47.298		1.050e-02		7.288
1		0.00		-5.20		5.461e-02		-49.201		1.342e-02		10.859
1		0.00		-4.80		5.216e-02		-50.071		8.196e-03		5.570
1		0.00		-4.40		4.721e-02		-51.071		1.010e-02		7.369
1		0.00		-4.00		4.353e-02		-50.827		8.423e-03		7.919
1		0.00		-3.60		3.963e-02		-48.583		6.219e-03		5.834
1		0.00		-3.20		3.517e-02		-49.990		7.165e-03		8.700
1		0.00		-2.80		3.208e-02		-49.503		4.455e-03		6.727
1		0.00		-2.40		2.647e-02		-48.245		5.347e-03		8.143
1		0.00		-2.00		2.258e-02		-46.977		3.916e-03		7.721
1		0.00		-1.60		1.783e-02		-45.459		2.734e-03		8.130
1		0.00		-1.20		1.301e-02		-42.773		2.653e-03		11.106
1		0.00		-0.80		8.538e-03		-41.073		1.548e-03		13.633
1		0.00		-0.40		4.175e-03		-40.596		1.358e-03		25.042
2		0.00		0.00		2.178e-03		58.449		7.962e-04		52.483
2		0.00		0.40		6.255e-03		120.755		1.585e-03		15.542
2		0.00		0.80		9.912e-03		126.409		2.440e-03		11.462
2		0.00		1.20		1.507e-02		126.047		2.801e-03		11.224
2		0.00		1.60		1.919e-02		127.875		4.222e-03		12.365
2		0.00		2.00		2.253e-02		126.816		4.571e-03		8.297
2		0.00		2.40		2.752e-02		128.861		5.185e-03		7.514
2		0.00		2.80		3.035e-02		128.841		7.395e-03		10.599
2		0.00		3.20		3.453e-02		129.226		6.510e-03		8.068
2		0.00		3.60		3.711e-02		129.372		8.244e-03		12.629
2		0.00		4.00		3.982e-02		129.754		9.615e-03		9.377
2		0.00		4.40		4.349e-02		131.569		7.950e-03		6.972
2		0.00		4.80		4.465e-02		130.069		1.148e-02		13.551
2		0.00		5.20		4.835e-02		130.637		1.069e-02		7.094
2		0.00		5.60		4.966e-02		131.517		1.065e-02		9.714
2		0.00		6.00		5.302e-02		131.167		1.419e-02		13.600
2		0.00		6.40		5.519e-02		131.788		1.097e-02		9.170
2		0.00		6.80		5.636e-02		131.952		1.387e-02		14.847
2		0.00		7.20		5.971e-02		134.027		1.338e-02		8.262
2		0.00		7.60		5.887e-02		131.310		1.411e-02		16.009
2		0.00		8.00		6.288e-02		134.399		1.565e-02		15.612
2		0.00		8.40		6.433e-02		133.563		1.389e-02		11.279
2		0.00		8.80		6.224e-02		131.577		1.624e-02		19.494
2		0.00		9.20		6.372e-02		129.567		1.600e-02		32.806
2		0.00		9.60		6.625e-02		128.587		1.856e-02		26.387
2		0.00		10.00		6.315e-02		137.608		1.608e-02		13.098
2		0.00		9.60		6.723e-02		130.079		1.716e-02		16.422
2		0.00		9.20		6.393e-02		129.847		1.613e-02		17.595
2		0.00		8.80		6.243e-02		132.998		1.597e-02		18.010
2		0.00		8.40		6.067e-02		134.482		1.180e-02		10.396
2		0.00		8.00		5.609e-02		132.210		1.384e-02		14.663
2		0.00		7.60		5.698e-02		132.994		1.510e-02		7.740
2		0.00		7.20		5.212e-02		134.745		9.564e-03		7.790
2		0.00		6.80		4.969e-02		131.854		1.230e-02		13.078
2		0.00		6.40		4.810e-02		131.703		9.374e-03		6.059
2		0.00		6.00		4.504e-02		133.245		8.485e-03		7.266
2		0.00		5.60		4.062e-02		131.234		1.027e-02		10.630
2		0.00		5.20		3.812e-02		133.437		6.378e-03		6.820
2		0.00		4.80		3.419e-02		133.017		7.330e-03		10.801
2		0.00		4.40		3.055e-02		132.176		6.783e-03		7.778
2		0.00		4.00		2.657e-02		133.897		4.626e-03		8.181
2		0.00		3.60		2.282e-02		131.966		5.353e-03		11.892
2		0.00		3.20		1.869e-02		131.913		3.237e-03		8.403
2		0.00		2.80		1.370e-02		132.237		2.669e-03		10.740
2		0.00		2.40		9.693e-03		134.471		2.046e-03		13.338
2		0.00		2.00		5.469e-03		131.526		1.433e-03		23.872
2		0.00		1.60		1.853e-03		38.601		7.443e-04		74.435
2		0.00		1.20		3.950e-03		-60.466		1.259e-03		22.947
2		0.00		0.80		8.747e-03		-48.244		1.959e-03		16.574
2		0.00		0.40		1.338e-02		-51.681		2.866e-03		10.058
2		0.00		0.00		1.775e-02		-50.462		2.911e-03		9.944
2		0.00		-0.40		2.207e-02		-49.675		4.377e-03		9.985
2		0.00		-0.80		2.651e-02		-51.387		4.866e-03		7.545
2		0.00		-1.20		3.196e-02		-50.148		4.678e-03		6.131
2		0.00		-1.60		3.486e-02		-50.218		7.951e-03		8.532
2		0.00		-2.00		3.973e-02		-50.468		6.902e-03		7.477
2		0.00		-2.40		4.300e-02		-51.109		8.460e-03		6.989
2		0.00		-2.80		4.526e-02		-52.758		1.101e-02		8.402
2		0.00		-3.20		4.974e-02		-52.468		9.538e-03		8.470
2		0.00		-3.60		5.139e-02		-53.007		1.285e-02		10.354
2		0.00		-4.00		5.662e-02		-53.100		1.227e-02		6.987
2		0.00		-4.40		5.625e-02		-51.588		1.155e-02		10.073
2		0.00		-4.80		5.928e-02		-50.773		1.509e-02		12.610
2		0.00		-5.20		6.127e-02		-49.820		1.310e-02		12.607
2		0.00		-5.60		6.120e-02		-49.570		1.645e-02		18.739
2		0.00		-6.00		6.358e-02		-43.124		1.763e-02		14.579
2		0.00		-6.40		6.514e-02		-41.986		1.540e-02		13.721
2		0.00		-6.80		6.514e-02		-40.633		1.710e-02		17.167
2		0.00		-7.20		6.832e-02		-40.872		1.738e-02		18.191
2		0.00		-7.60		7.282e-02		-42.775		1.791e-02		16.607
2		0.00		-8.00		6.754e-02		-40.401		1.808e-02		20.219
2		0.00		-8.40		6.910e-02		-39.054		1.755e-02		20.415
2		0.00		-8.80		6.769e-02		-43.904		1.724e-02		19.455
2		0.00		-9.20		6.690e-02		-46.053		1.851e-02		20.480
2		0.00		-9.60		6.188e-02		-41.304		1.500e-02		14.625
2		0.00		-10.00		5.602e-02		-44.127		1.499e-02		15.485
2		0.00		-9.60		6.277e-02		-39.826		1.639e-02		13.528
2		0.00		-9.20		6.476e-02		-41.777		1.573e-02		17.605
2		0.00		-8.80		6.368e-02		-34.625		1.679e-02		16.711
2		0.00		-8.40		6.736e-02		-41.653		1.516e-02		13.588
2		0.00		-8.00		6.558e-02		-38.468		1.505e-02		14.485
2		0.00		-7.60		6.375e-02		-41.037		1.683e-02		19.029
2		0.00		-7.20		6.488e-02		-44.131		1.249e-02		12.720
2		0.00		-6.80		6.273e-02		-47.460		1.440e-02		14.249
2		0.00		-6.40		6.187e-02		-46.837		1.605e-02		8.534
2		0.00		-6.00		5.731e-02		-48.055		1.003e-02		8.404
2		0.00		-5.60		5.510e-02		-47.665		1.248e-02		10.603
2		0.00		-5.20		5.406e-02		-50.328		1.176e-02		7.298
2		0.00		-4.80		4.934e-02		-49.248		7.815e-03		5.579
2		0.00		-4.40		4.544e-02		-50.210		1.015e-02		7.427
2		0.00		-4.00		4.168e-02		-50.582		7.453e-03		7.313
2		0.00		-3.60		3.806e-02		-49.941		6.224e-03		6.166
2		0.00		-3.20		3.346e-02		-48.648		7.213e-03		8.388
2		0.00		-2.80		3.015e-02		-50.154		4.428e-03		8.054
2		0.00		-2.40		2.560e-02		-47.365		4.902e-03		9.005
2		0.00		-2.00		2.077e-02		-47.303		4.163e-03		8.783
2		0.00		-1.60		1.744e-02		-47.866		2.437e-03		7.840
2		0.00		-1.20		1.218e-02		-42.429		2.437e-03		11.736
2		0.00		-0.80		7.634e-03		-33.253		1.659e-03		14.344
2		0.00		-0.40		3.422e-03		-22.076		9.821e-04		28.044
3		0.00		0.00		2.493e-03		71.554		1.145e-03		59.710
3		0.00		0.40		6.650e-03		120.654		1.812e-03		19.617
3		0.00		0.80		1.113e-02		127.676		2.228e-03		12.934
3		0.00		1.20		1.483e-02		127.269		3.274e-03		11.111
3		0.00		1.60		1.997e-02		128.661		3.476e-03		8.562
3		0.00		2.00		2.378e-02		129.411		4.675e-03		8.442
3		0.00		2.40		2.677e-02		128.961		6.429e-03		9.654
3		0.00		2.80		3.095e-02		131.282		5.601e-03		7.465
3		0.00		3.20		3.350e-02		130.123		7.957e-03		9.840
3		0.00		3.60		3.680e-02		128.126		8.866e-03		7.946
3		0.00		4.00		4.033e-02		131.975		7.818e-03		6.506
3		0.00		4.40		4.203e-02		130.920		1.044e-02		12.212
3		0.00		4.80		4.591e-02		129.828		1.003e-02		7.268
3		0.00		5.20		4.758e-02		132.816		9.918e-03		7.665
3		0.00		5.60		4.981e-02		130.679		1.292e-02		11.270
3		0.00		6.00		5.266e-02		133.008		1.002e-02		5.892
3		0.00		6.40		5.384e-02		131.794		1.256e-02		11.318
3		0.00		6.80		5.714e-02		133.598		1.500e-02		9.517
3		0.00		7.20		5.742e-02		133.457		1.099e-02		9.536
3		0.00		7.60		6.060e-02		132.844		1.446e-02		11.522
3		0.00		8.00		6.500e-02		133.472		1.532e-02		10.126
3		0.00		8.40		6.287e-02		136.325		1.327e-02		13.826
3		0.00		8.80		6.300e-02		134.282		1.579e-02		17.626
3		0.00		9.20		6.737e-02		132.367		1.777e-02		19.126
3		0.00		9.60		6.554e-02		129.587		1.643e-02		30.297
3		0.00		10.00		6.394e-02		131.797		1.722e-02		20.879
3		0.00		9.60		6.592e-02		132.379		1.687e-02		22.958
3		0.00		9.20		6.158e-02		134.434		1.303e-02		19.673
3		0.00		8.80		6.276e-02		132.178		1.602e-02		18.030
3		0.00		8.40		6.190e-02		133.394		1.663e-02		13.156
3		0.00		8.00		5.824e-02		134.747		1.122e-02		9.298
3		0.00		7.60		5.587e-02		133.937		1.328e-02		10.302
3		0.00		7.20		5.455e-02		132.902		1.383e-02		8.505
3		0.00		6.80		5.134e-02		132.858		1.003e-02		9.005
3		0.00		6.40		4.791e-02		133.041		1.026e-02		8.346
3		0.00		6.00		4.506e-02		132.139		1.179e-02		9.464
3		0.00		5.60		4.352e-02		133.112		7.759e-03		6.443
3		0.00		5.20		3.992e-02		132.917		7.813e-03		7.745
3		0.00		4.80		3.517e-02		131.168		8.558e-03		11.287
3		0.00		4.40		3.222e-02		132.774		5.990e-03		8.311
3		0.00		4.00		2.857e-02		133.478		4.695e-03		8.686
3		0.00		3.60		2.403e-02		133.047		5.673e-03		11.895
3		0.00		3.20		2.083e-02		133.707		4.052e-03		8.408
3		0.00		2.80		1.627e-02		132.482		2.552e-03		8.706
3		0.00		2.40		1.190e-02		129.653		2.345e-03		12.667
3		0.00		2.00		7.367e-03		132.537		1.934e-03		14.502
3		0.00		1.60		3.060e-03		104.524		1.264e-03		61.597
3		0.00		1.20		2.547e-03		-47.388		9.600e-04		42.704
3		0.00		0.80		7.096e-03		-46.982		1.816e-03		20.555
3		0.00		0.40		1.176e-02		-49.282		2.207e-03		10.666
3		0.00		0.00		1.601e-02		-52.038		2.462e-03		8.147
3		0.00		-0.40		2.044e-02		-48.213		3.899e-03		9.293
3		0.00		-0.80		2.494e-02		-49.466		4.612e-03		8.179
3		0.00		-1.20		2.947e-02		-51.355		4.288e-03		7.801
3		0.00		-1.60		3.292e-02		-51.223		6.692e-03		7.652
3		0.00		-2.00		3.660e-02		-51.235		8.920e-03		9.190
3		0.00		-2.40		4.084e-02		-52.778		8.166e-03		7.257
3		0.00		-2.80		4.447e-02		-52.438		8.190e-03		6.786
3		0.00		-3.20		4.691e-02		-53.329		1.095e-02		10.969
3		0.00		-3.60		5.050e-02		-53.478		1.239e-02		8.420
3		0.00		-4.00		5.336e-02		-52.469		9.322e-03		7.969
3		0.00		-4.40		5.597e-02		-52.203		1.202e-02		9.255
3		0.00		-4.80		5.855e-02		-48.842		1.546e-02		9.679
3		0.00		-5.20		6.238e-02		-48.245		1.437e-02		8.042
3		0.00		-5.60		6.335e-02		-46.397		1.287e-02		11.631
3		0.00		-6.00		6.461e-02		-47.048		1.469e-02		14.608
3		0.00		-6.40		6.282e-02		-44.374		1.591e-02		13.062
3		0.00		-6.80		6.779e-02		-42.454		1.331e-02		11.693
3		0.00		-7.20		6.535e-02		-43.249		1.522e-02		21.693
3		0.00		-7.60		6.565e-02		-41.514		1.755e-02		18.781
3		0.00		-8.00		6.656e-02		-38.482		1.809e-02		18.958
3		0.00		-8.40		7.012e-02		-40.482		1.605e-02		18.724
3		0.00		-8.80		6.834e-02		-36.602		1.775e-02		19.588
3		0.00		-9.20		6.592e-02		-40.132		2.004e-02		19.846
3		0.00		-9.60		6.394e-02		-37.950		1.695e-02		12.909
3		0.00		-10.00		5.702e-02		-39.687		1.302e-02		8.745
3		0.00		-9.60		6.091e-02		-42.442		1.645e-02		15.501
3		0.00		-9.20		6.203e-02		-37.669		1.857e-02		22.723
3		0.00		-8.80		6.621e-02		-41.362		1.683e-02		12.672
3		0.00		-8.40		6.697e-02		-39.264		1.451e-02		15.831
3		0.00		-8.00		6.789e-02		-43.919		1.676e-02		16.464
3		0.00		-7.60		6.253e-02		-42.772		1.847e-02		20.128
3		0.00		-7.20		6.727e-02		-44.147		1.559e-02		9.480
3		0.00		-6.80		6.460e-02		-45.054		1.182e-02		8.341
3		0.00		-6.40		6.116e-02		-48.453		1.289e-02		12.802
3		0.00		-6.00		5.867e-02		-49.062		1.483e-02		9.667
3		0.00		-5.60		5.829e-02		-48.499		1.324e-02		6.508
3		0.00		-5.20		5.527e-02		-49.210		9.119e-03		7.166
3		0.00		-4.80		5.048e-02		-50.257		7.971e-03		5.872
3		0.00		-4.40		4.661e-02		-50.423		9.749e-03		9.090
3		0.00		-4.00		4.288e-02		-50.011		8.604e-03		8.358
3		0.00		-3.60		3.922e-02		-51.293		6.273e-03		7.085
3		0.00		-3.20		3.512e-02		-51.438		4.895e-03		6.807
3		0.00		-2.80		3.023e-02		-48.824		5.078e-03		6.731
3		0.00		-2.40		2.566e-02		-47.285		5.108e-03		9.615
3		0.00		-2.00		2.151e-02		-46.578		3.849e-03		8.337
3		0.00		-1.60		1.767e-02		-45.988		2.422e-03		8.409
3		0.00		-1.20		1.242e-02		-41.424		1.866e-03		10.299
3		0.00		-0.80		8.073e-03		-42.927		1.882e-03		13.306
3		0.00		-0.40		3.527e-03		-22.432		1.190e-03		26.398
4		0.00		0.00		2.316e-03		59.111		9.871e-04		60.188
4		0.00		0.40		6.063e-03		117.811		1.854e-03		16.319
4		0.00		0.80		1.037e-02		124.035		2.295e-03		12.386
4		0.00		1.20		1.434e-02		123.830		3.760e-03		13.978
4		0.00		1.60		1.850e-02		124.729		4.465e-03		9.909
4		0.00		2.00		2.256e-02		128.771		4.467e-03		7.273
4		0.00		2.40		2.582e-02		129.152		5.104e-03		8.104
4		0.00		2.80		2.927e-02		129.522		6.928e-03		10.679
4		0.00		3.20		3.281e-02		128.701		8.100e-03		11.723
4		0.00		3.60		3.590e-02		129.016		7.617e-03		6.962
4		0.00		4.00		4.002e-02		131.503		6.726e-03		6.122
4		0.00		4.40		4.330e-02		132.615		7.553e-03		6.500
4		0.00		4.80		4.547e-02		130.944		1.004e-02		9.952
4		0.00		5.20		4.792e-02		131.123		1.095e-02		10.195
4		0.00		5.60		5.171e-02		130.874		1.037e-02		7.013
4		0.00		6.00		5.306e-02		134.139		8.772e-03		5.754
4		0.00		6.40		5.489e-02		133.983		1.080e-02		7.659
4		0.00		6.80		5.698e-02		133.034		1.358e-02		11.154
4		0.00		7.20		5.983e-02		132.434		1.490e-02		8.439
4		0.00		7.60		6.192e-02		135.165		1.116e-02		6.388
4		0.00		8.00		6.033e-02		133.715		1.265e-02		13.454
4		0.00		8.40		6.179e-02		134.555		1.551e-02		16.630
4		0.00		8.80		6.494e-02		133.007		1.851e-02		19.406
4		0.00		9.20		6.619e-02		134.921		1.678e-02		12.016
4		0.00		9.60		6.427e-02		132.587		1.638e-02		13.999
4		0.00		10.00		6.144e-02		133.212		1.602e-02		16.836
4		0.00		9.60		5.954e-02		128.981		1.815e-02		25.358
4		0.00		9.20		6.167e-02		127.807		1.766e-02		24.389
4		0.00		8.80		6.436e-02		133.752		1.687e-02		11.114
4		0.00		8.40		5.902e-02		134.137		1.185e-02		10.665
4		0.00		8.00		5.620e-02		133.399		1.164e-02		13.402
4		0.00		7.60		5.695e-02		132.933		1.376e-02		11.204
4		0.00		7.20		5.396e-02		131.695		1.386e-02		16.114
4		0.00		6.80		5.325e-02		133.244		1.210e-02		6.899
4		0.00		6.40		4.930e-02		132.393		8.977e-03		6.441
4		0.00		6.00		4.643e-02		133.040		9.085e-03		7.285
4		0.00		5.60		4.265e-02		133.050		9.654e-03		9.711
4		0.00		5.20		3.923e-02		132.055		9.117e-03		11.299
4		0.00		4.80		3.596e-02		132.679		6.721e-03		6.165
4		0.00		4.40		3.299e-02		133.297		5.311e-03		7.550
4		0.00		4.00		2.823e-02		133.935		5.101e-03		8.808
4		0.00		3.60		2.446e-02		132.957		5.307e-03		12.432
4		0.00		3.20		2.058e-02		131.437		4.484e-03		9.657
4		0.00		2.80		1.602e-02		133.144		2.880e-03		9.171
4		0.00		2.40		1.191e-02		137.231		2.117e-03		9.606
4		0.00		2.00		6.980e-03		131.021		1.645e-03		19.115
4		0.00		1.60		3.183e-03		108.513		1.124e-03		52.331
4		0.00		1.20		2.532e-03		-51.856		1.141e-03		43.236
4		0.00		0.80		6.568e-03		-55.061		1.639e-03		14.061
4		0.00		0.40		1.144e-02		-47.598		2.241e-03		12.438
4		0.00		0.00		1.559e-02		-46.614		3.289e-03		9.953
4		0.00		-0.40		1.987e-02		-47.523		4.500e-03		9.084
4		0.00		-0.80		2.483e-02		-50.903		4.294e-03		7.351
4		0.00		-1.20		2.931e-02		-50.921		4.976e-03		8.666
4		0.00		-1.60		3.315e-02		-50.542		5.861e-03		7.438
4		0.00		-2.00		3.713e-02		-50.167		7.152e-03		8.268
4		0.00		-2.40		4.147e-02		-51.523		8.584e-03		8.561
4		0.00		-2.80		4.601e-02		-52.433		7.271e-03		6.259
4		0.00		-3.20		4.920e-02		-50.975		7.659e-03		6.225
4		0.00		-3.60		5.232e-02		-51.603		9.518e-03		8.090
4		0.00		-4.00		5.426e-02		-51.523		1.230e-02		9.528
4		0.00		-4.40		5.810e-02		-51.994		1.263e-02		8.930
4		0.00		-4.80		5.941e-02		-50.497		9.564e-03		7.496
4		0.00		-5.20		6.204e-02		-48.645		1.205e-02		11.007
4		0.00		-5.60		6.409e-02		-47.257		1.541e-02		9.737
4		0.00		-6.00		6.471e-02		-46.442		1.584e-02		9.936
4		0.00		-6.40		6.364e-02		-43.958		1.402e-02		11.925
4		0.00		-6.80		6.447e-02		-43.970		1.460e-02		18.448
4		0.00		-7.20		6.736e-02		-40.873		1.586e-02		12.751
4		0.00		-7.60		6.917e-02		-41.588		1.939e-02		17.550
4		0.00		-8.00		6.854e-02		-41.318		1.885e-02		18.611
4		0.00		-8.40		6.751e-02		-38.146		1.616e-02		18.611
4		0.00		-8.80		6.396e-02		-37.759		1.851e-02		23.837
4		0.00		-9.20		6.583e-02		-41.969		1.881e-02		19.739
4		0.00		-9.60		6.063e-02		-39.188		1.878e-02		20.742
4		0.00		-10.00		5.825e-02		-42.787		1.682e-02		12.221
4		0.00		-9.60		5.939e-02		-42.506		1.377e-02		12.687
4		0.00		-9.20		6.453e-02		-38.286		1.627e-02		13.417
4		0.00		-8.80		6.561e-02		-42.232		1.751e-02		16.326
4		0.00		-8.40		6.547e-02		-41.476		1.769e-02		16.610
4		0.00		-8.00		6.964e-02		-41.582		1.574e-02		11.749
4		0.00		-7.60		6.456e-02		-44.383		1.455e-02		18.614
4		0.00		-7.20		6.300e-02		-45.194		1.415e-02		14.556
4		0.00		-6.80		6.170e-02		-43.279		1.496e-02		12.716
4		0.00		-6.40		6.282e-02		-47.659		1.535e-02		10.757
4		0.00		-6.00		6.175e-02		-47.758		1.158e-02		5.445
4		0.00		-5.60		5.716e-02		-48.762		9.854e-03		8.332
4		0.00		-5.20		5.325e-02		-48.827		1.022e-02		6.248
4		0.00		-4.80		4.957e-02		-50.533		1.170e-02		8.267
4		0.00		-4.40		4.504e-02		-51.979		1.044e-02		8.601
4		0.00		-4.00		4.250e-02		-52.220		7.778e-03		6.915
4		0.00		-3.60		3.798e-02		-51.321		6.227e-03		6.713
4		0.00		-3.20		3.315e-02		-49.398		6.903e-03		7.573
4		0.00		-2.80		2.850e-02		-49.131		6.673e-03		7.725
4		0.00		-2.40		2.442e-02		-48.283		4.897e-03		8.138
4		0.00		-2.00		2.067e-02		-48.477		3.328e-03		8.008
4		0.00		-1.60		1.621e-02		-44.133		2.808e-03		9.324
4		0.00		-1.20		1.161e-02		-44.083		2.338e-03		12.604
4		0.00		-0.80		7.471e-03		-38.062		1.554e-03		14.617
4		0.00		-0.40		3.097e-03		-57.327		1.285e-03		29.653
5		0.00		0.00		2.342e-03		73.490		1.030e-03		65.144
5		0.00		0.40		6.124e-03		111.169		1.743e-03		23.552
5		0.00		0.80		1.032e-02		125.811		2.596e-03		13.562
5		0.00		1.20		1.440e-02		126.244		2.880e-03		9.507
5		0.00		1.60		1.892e-02		128.714		3.095e-03		8.560
5		0.00		2.00		2.249e-02		130.560		4.130e-03		7.700
5		0.00		2.40		2.571e-02		131.121		5.709e-03		9.139
5		0.00		2.80		2.933e-02		128.747		6.459e-03		9.757
5		0.00		3.20		3.338e-02		130.456		6.197e-03		6.462
5		0.00		3.60		3.665e-02		131.892		6.115e-03		5.978
5		0.00		4.00		3.852e-02		129.454		9.029e-03		11.334
5		0.00		4.40		4.010e-02		129.139		1.053e-02		12.962
5		0.00		4.80		4.400e-02		131.245		9.340e-03		5.893
5		0.00		5.20		4.591e-02		132.857		8.786e-03		6.310
5		0.00		5.60		4.734e-02		130.961		1.171e-02		9.843
5		0.00		6.00		4.919e-02		130.056		1.338e-02		14.633
5		0.00		6.40		5.263e-02		132.181		1.280e-02		6.998
5		0.00		6.80		5.503e-02		132.561		1.138e-02		7.733
5		0.00		7.20		5.592e-02		132.472		1.321e-02		10.231
5		0.00		7.60		5.643e-02		133.612		1.622e-02		13.175
5		0.00		8.00		6.145e-02		133.232		1.609e-02		8.657
5		0.00		8.40		6.191e-02		134.881		1.325e-02		10.223
5		0.00		8.80		6.073e-02		134.253		1.445e-02		15.755
5		0.00		9.20		6.401e-02		129.678		1.887e-02		24.971
5		0.00		9.60		6.588e-02		131.572		1.892e-02		14.090
5		0.00		10.00		6.111e-02		135.984		1.517e-02		12.950
5		0.00		9.60		6.120e-02		127.460		1.631e-02		27.265
5		0.00		9.20		6.085e-02		135.066		1.626e-02		14.750
5		0.00		8.80		6.186e-02		131.186		1.725e-02		20.224
5		0.00		8.40		6.071e-02		133.932		1.432e-02		8.864
5		0.00		8.00		5.816e-02		133.687		1.178e-02		7.316
5		0.00		7.60		5.397e-02		133.633		1.209e-02		11.255
5		0.00		7.20		5.129e-02		132.874		1.331e-02		10.677
5		0.00		6.80		4.963e-02		130.891		1.376e-02		9.013
5		0.00		6.40		4.753e-02		133.333		1.094e-02		7.103
5		0.00		6.00		4.345e-02		133.143		9.413e-03		7.103
5		0.00		5.60		3.997e-02		131.951		1.005e-02		8.903
5		0.00		5.20		3.614e-02		130.219		9.973e-03		17.079
5		0.00		4.80		3.352e-02		131.356		8.323e-03		8.053
5		0.00		4.40		3.010e-02		132.605		6.126e-03		8.257
5		0.00		4.00		2.675e-02		134.045		5.792e-03		8.539
5		0.00		3.60		2.265e-02		130.345		5.589e-03		11.601
5		0.00		3.20		1.891e-02		130.206		4.774e-03		11.313
5		0.00		2.80		1.564e-02		131.624		3.277e-03		8.940
5		0.00		2.40		1.139e-02		131.978		2.163e-03		11.229
5		0.00		2.00		6.991e-03		127.912		1.599e-03		17.269
5		0.00		1.60		3.224e-03		96.412		1.186e-03		49.871
5		0.00		1.20		2.269e-03		-41.031		9.402e-04		45.391
5		0.00		0.80		5.906e-03		-54.343		1.406e-03		19.316
5		0.00		0.40		1.046e-02		-48.053		1.695e-03		11.287
5		0.00		0.00		1.492e-02		-45.459		3.108e-03		10.256
5		0.00		-0.40		1.868e-02		-49.959		4.173e-03		10.625
5		0.00		-0.80		2.284e-02		-49.958		4.856e-03		8.373
5		0.00		-1.20		2.780e-02		-51.019		4.799e-03		8.178
5		0.00		-1.60		3.169e-02		-49.407		5.051e-03		7.525
5		0.00		-2.00		3.462e-02		-49.609		7.262e-03		7.611
5		0.00		-2.40		3.761e-02		-51.619		9.222e-03		10.673
5		0.00		-2.80		4.165e-02		-53.108		9.790e-03		8.182
5		0.00		-3.20		4.574e-02		-51.626		7.756e-03		6.032
5		0.00		-3.60		4.947e-02		-51.538		8.726e-03		5.237
5		0.00		-4.00		5.051e-02		-53.942		1.221e-02		10.320
5		0.00		-4.40		5.416e-02		-52.433		1.472e-02		10.034
5		0.00		-4.80		5.894e-02		-51.096		1.463e-02		7.284
5		0.00		-5.20		5.907e-02		-48.779		1.109e-02		8.456
5		0.00		-5.60		6.126e-02		-48.481		1.428e-02		11.686
5		0.00		-6.00		6.254e-02		-46.909		1.641e-02		10.640
5		0.00		-6.40		6.507e-02		-45.358		1.680e-02		11.432
5		0.00		-6.80		6.941e-02		-45.122		1.444e-02		8.972
5		0.00		-7.20		6.374e-02		-43.108		1.361e-02		16.826
5		0.00		-7.60		6.725e-02		-48.203		1.819e-02		19.654
5		0.00		-8.00		6.784e-02		-42.342		1.906e-02		21.121
5		0.00		-8.40		6.569e-02		-40.171		1.770e-02		18.878
5		0.00		-8.80		6.559e-02		-37.152		1.506e-02		15.758
5		0.00		-9.20		6.436e-02		-36.672		1.635e-02		14.106
5		0.00		-9.60		6.021e-02		-45.923		1.681e-02		19.330
5		0.00		-10.00		5.484e-02		-40.896		1.612e-02		17.343
5		0.00		-9.60		6.044e-02		-42.132		1.719e-02		16.330
5		0.00		-9.20		6.793e-02		-41.793		1.914e-02		11.689
5		0.00		-8.80		6.163e-02		-37.482		1.587e-02		14.443
5		0.00		-8.40		6.179e-02		-45.597		1.659e-02		20.141
5		0.00		-8.00		6.377e-02		-42.319		1.800e-02		16.375
5		0.00		-7.60		6.594e-02		-44.265		1.739e-02		12.227
5		0.00		-7.20		6.300e-02		-44.978		1.316e-02		8.633
5		0.00		-6.80		5.876e-02		-48.041		1.244e-02		13.314
5		0.00		-6.40		5.829e-02		-49.966		1.501e-02		13.827
5		0.00		-6.00		5.520e-02		-48.002		1.409e-02		10.481
5		0.00		-5.60		5.455e-02		-49.719		1.474e-02		10.116
5		0.00		-5.20		5.198e-02		-50.583		1.127e-02		7.365
5		0.00		-4.80		4.890e-02		-50.216		8.071e-03		6.290
5		0.00		-4.40		4.475e-02		-49.609		7.602e-03		6.425
5		0.00		-4.00		4.037e-02		-49.974		8.252e-03		7.633
5		0.00		-3.60		3.662e-02		-50.916		7.811e-03		8.139
5		0.00		-3.20		3.259e-02		-49.743		6.566e-03		8.016
5		0.00		-2.80		2.917e-02		-49.899		3.992e-03		6.763
5		0.00		-2.40		2.462e-02		-48.770		3.562e-03		7.942
5		0.00		-2.00		2.076e-02		-47.300		3.795e-03		7.424
5		0.00		-1.60		1.614e-02		-45.938		3.578e-03		10.383
5		0.00		-1.20		1.185e-02		-42.390		2.576e-03		10.829
5		0.00		-0.80		8.100e-03		-37.544		1.446e-03		11.553
5		0.00		-0.40		3.820e-03		-40.842		1.145e-03		25.560
6		0.00		0.00		2.000e-03		64.363		8.574e-04		58.507
6		0.00		0.40		5.049e-03		114.971		1.438e-03		19.983
6		0.00		0.80		9.632e-03		123.495		2.501e-03		14.502
6		0.00		1.20		1.366e-02		124.576		2.931e-03		10.488
6		0.00		1.60		1.788e-02		128.303		3.076e-03		8.023
6		0.00		2.00		2.171e-02		128.283		3.941e-03		8.620
6		0.00		2.40		2.532e-02		130.333		5.257e-03		7.530
6		0.00		2.80		2.859e-02		129.943		7.006e-03		11.092
6		0.00		3.20		3.203e-02		129.420		8.111e-03		8.797
6		0.00		3.60		3.598e-02		129.630		7.625e-03		7.602
6		0.00		4.00		3.915e-02		131.211		6.945e-03		5.524
6		0.00		4.40		4.188e-02		132.927		7.794e-03		5.684
6		0.00		4.80		4.504e-02		130.554		1.024e-02		8.226
6		0.00		5.20		4.637e-02		132.004		1.094e-02		11.000
6		0.00		5.60		5.057e-02		131.000		1.228e-02		8.308
6		0.00		6.00		5.301e-02		132.184		1.114e-02		7.039
6		0.00		6.40		5.401e-02		132.617		1.010e-02		6.939
6		0.00		6.80		5.508e-02		132.634		1.203e-02		10.148
6		0.00		7.20		5.707e-02		133.083		1.359e-02		10.889
6		0.00		7.60		5.855e-02		132.106		1.533e-02		17.860
6		0.00		8.00		6.002e-02		132.967		1.678e-02		15.364
6		0.00		8.40		6.198e-02		134.273		1.505e-02		8.667
6		0.00		8.80		6.234e-02		133.572		1.490e-02		12.140
6		0.00		9.20		6.277e-02		132.741		1.757e-02		18.082
6		0.00		9.60		6.010e-02		124.569		1.948e-02		29.251
6		0.00		10.00		5.946e-02		133.491		1.935e-02		18.850
6		0.00		9.60		6.148e-02		129.698		1.835e-02		18.272
6		0.00		9.20		6.309e-02		134.842		1.643e-02		8.681
6		0.00		8.80		6.115e-02		134.689		1.390e-02		9.378
6		0.00		8.40		5.697e-02		132.834		1.446e-02		14.707
6		0.00		8.00		5.553e-02		130.168		1.456e-02		24.442
6		0.00		7.60		5.469e-02		132.613		1.380e-02		12.302
6		0.00		7.20		5.359e-02		132.712		1.241e-02		12.174
6		0.00		6.80		5.161e-02		132.517		1.183e-02		8.332
6		0.00		6.40		4.879e-02		132.597		9.657e-03		8.039
6		0.00		6.00		4.568e-02		133.327		7.642e-03		6.797
6		0.00		5.60		4.245e-02		133.350		7.416e-03		6.559
6		0.00		5.20		3.811e-02		133.568		7.974e-03		9.562
6		0.00		4.80		3.494e-02		133.247		7.770e-03		9.551
6		0.00		4.40		3.105e-02		131.431		7.398e-03		11.973
6		0.00		4.00		2.762e-02		132.484		6.021e-03		7.433
6		0.00		3.60		2.434e-02		132.575		4.098e-03		7.907
6		0.00		3.20		2.007e-02		132.924		3.384e-03		7.726
6		0.00		2.80		1.588e-02		134.937		2.952e-03		8.639
6		0.00		2.40		1.133e-02		130.856		2.595e-03		12.950
6		0.00		2.00		7.301e-03		126.533		1.962e-03		20.818
6		0.00		1.60		3.339e-03		111.726		1.139e-03		42.475
6		0.00		1.20		2.005e-03		-31.176		8.589e-04		57.354
6		0.00		0.80		5.766e-03		-53.048		1.453e-03		16.863
6		0.00		0.40		1.007e-02		-51.152		1.969e-03		10.820
6		0.00		0.00		1.411e-02		-47.446		2.817e-03		10.084
6		0.00		-0.40		1.756e-02		-51.011		4.233e-03		9.522
6		0.00		-0.80		2.256e-02		-48.461		4.949e-03		9.195
6		0.00		-1.20		2.706e-02		-51.100		4.768e-03		7.800
6		0.00		-1.60		3.152e-02		-50.711		4.885e-03		7.119
6		0.00		-2.00		3.482e-02		-49.939		6.159e-03		7.470
6		0.00		-2.40		3.839e-02		-51.038		7.757e-03		8.046
6		0.00		-2.80		4.293e-02		-51.391		9.881e-03		10.022
6		0.00		-3.20		4.619e-02		-51.956		1.066e-02		7.940
6		0.00		-3.60		5.037e-02		-52.710		9.700e-03		7.227
6		0.00		-4.00		5.249e-02		-52.192		8.647e-03		6.631
6		0.00		-4.40		5.539e-02		-51.673		1.081e-02		8.413
6		0.00		-4.80		5.626e-02		-50.889		1.330e-02		13.383
6		0.00		-5.20		6.076e-02		-49.297		1.634e-02		13.431
6		0.00		-5.60		6.280e-02		-47.305		1.516e-02		8.138
6		0.00		-6.00		6.280e-02		-46.041		1.345e-02		13.122
6		0.00		-6.40		6.147e-02		-49.654		1.544e-02		16.985
6		0.00		-6.80		6.327e-02		-44.985		1.707e-02		17.541
6		0.00		-7.20		6.526e-02		-39.864		1.899e-02		14.416
6		0.00		-7.60		6.743e-02		-44.677		1.897e-02		20.340
6		0.00		-8.00		6.824e-02		-41.766		1.755e-02		17.371
6		0.00		-8.40		6.822e-02		-37.232		1.792e-02		18.251
6		0.00		-8.80		6.377e-02		-40.122		1.649e-02		19.534
6		0.00		-9.20		6.398e-02		-42.138		1.980e-02		15.906
6		0.00		-9.60		6.075e-02		-35.335		1.745e-02		18.367
6		0.00		-10.00		5.883e-02		-42.088		1.548e-02		12.920
6		0.00		-9.60		6.208e-02		-40.782		1.486e-02		10.359
6		0.00		-9.20		6.509e-02		-40.468		1.618e-02		14.294
6		0.00		-8.80		6.615e-02		-37.500		1.642e-02		17.489
6		0.00		-8.40		6.765e-02		-42.909		1.676e-02		16.692
6		0.00		-8.00		6.748e-02		-42.187		1.774e-02		18.346
6		0.00		-7.60		6.715e-02		-41.744		1.640e-02		12.062
6		0.00		-7.20		6.518e-02		-43.565		1.186e-02		9.951
6		0.00		-6.80		6.304e-02		-45.739		1.250e-02		11.812
6		0.00		-6.40		6.028e-02		-46.730		1.120e-02		9.560
6		0.00		-6.00		5.945e-02		-48.761		1.357e-02		10.109
6		0.00		-5.60		5.674e-02		-48.522		1.351e-02		8.439
6		0.00		-5.20		5.408e-02		-50.173		1.288e-02		8.101
6		0.00		-4.80		5.167e-02		-50.148		8.879e-03		5.977
6		0.00		-4.40		4.695e-02		-51.139		7.269e-03		5.921
6		0.00		-4.00		4.328e-02		-49.496		6.638e-03		5.237
6		0.00		-3.60		3.810e-02		-50.525		7.525e-03		7.336
6		0.00		-3.20		3.422e-02		-49.604		7.207e-03		8.497
6		0.00		-2.80		3.048e-02		-48.960		5.886e-03		7.969
6		0.00		-2.40		2.676e-02		-49.858		3.378e-03		6.766
6		0.00		-2.00		2.275e-02		-47.712		2.920e-03		9.013
6		0.00		-1.60		1.800e-02		-46.553		2.775e-03		8.649
6		0.00		-1.20		1.299e-02		-43.787		2.558e-03		11.957
6		0.00		-0.80		8.496e-03		-41.549		1.803e-03		13.085
6		0.00		-0.40		3.733e-03		-32.406		1.104e-03		22.092
7		0.00		0.00		2.125e-03		51.183		9.891e-04		64.661
7		0.00		0.40		6.062e-03		123.814		1.550e-03		13.218
7		0.00		0.80		1.032e-02		126.551		2.055e-03		10.863
7		0.00		1.20		1.453e-02		127.216		2.899e-03		10.737
7		0.00		1.60		1.865e-02		130.300		4.024e-03		10.245
7		0.00		2.00		2.298e-02		128.286		4.294e-03		7.448
7		0.00		2.40		2.748e-02		130.671		4.281e-03		7.019
7		0.00		2.80		3.164e-02		131.234		4.679e-03		7.262
7		0.00		3.20		3.437e-02		131.017		5.816e-03		6.412
7		0.00		3.60		3.738e-02		131.691		7.892e-03		9.136
7		0.00		4.00		3.935e-02		130.090		9.771e-03		13.643
7		0.00		4.40		4.230e-02		130.590		1.056e-02		8.382
7		0.00		4.80		4.545e-02		130.928		9.594e-03		7.135
7		0.00		5.20		4.757e-02		131.370		8.508e-03		5.445
7		0.00		5.60		5.026e-02		133.232		9.982e-03		7.035
7		0.00		6.00		5.090e-02		131.659		1.261e-02		10.023
7		0.00		6.40		5.424e-02		131.561		1.429e-02		12.359
7		0.00		6.80		5.800e-02		132.249		1.340e-02		6.865
7		0.00		7.20		6.039e-02		132.887		1.115e-02		5.918
7		0.00		7.60		5.884e-02		135.087		1.092e-02		9.736
7		0.00		8.00		6.181e-02		133.111		1.358e-02		14.277
7		0.00		8.40		6.274e-02		135.017		1.530e-02		11.904
7		0.00		8.80		6.585e-02		133.088		1.709e-02		24.467
7		0.00		9.20		6.887e-02		132.752		1.637e-02		10.745
7		0.00		9.60		6.674e-02		135.866		1.399e-02		11.014
7		0.00		10.00		6.469e-02		131.697		1.550e-02		23.560
7		0.00		9.60		6.375e-02		135.542		1.505e-02		16.011
7		0.00		9.20		6.460e-02		126.926		1.841e-02		21.975
7		0.00		8.80		6.342e-02		131.411		1.743e-02		16.527
7		0.00		8.40		6.184e-02		134.079		1.634e-02		7.650
7		0.00		8.00		5.955e-02		133.185		1.285e-02		8.927
7		0.00		7.60		5.710e-02		134.506		1.001e-02		6.908
7		0.00		7.20		5.383e-02		134.917		1.033e-02		8.349
7		0.00		6.80		5.164e-02		133.026		1.193e-02		11.231
7		0.00		6.40		4.827e-02		132.637		1.150e-02		10.342
7		0.00		6.00		4.622e-02		131.717		1.125e-02		9.177
7		0.00		5.60		4.383e-02		132.946		8.431e-03		6.729
7		0.00		5.20		4.092e-02		132.742		6.766e-03		6.114
7		0.00		4.80		3.686e-02		133.912		5.762e-03		6.747
7		0.00		4.40		3.263e-02		134.082		6.292e-03		7.511
7		0.00		4.00		2.870e-02		132.025		6.131e-03		11.014
7		0.00		3.60		2.465e-02		132.246		5.353e-03		8.380
7		0.00		3.20		2.085e-02		133.502		3.808e-03		7.789
7		0.00		2.80		1.675e-02		132.753		2.668e-03		9.490
7		0.00		2.40		1.280e-02		134.864		1.865e-03		8.733
7		0.00		2.00		8.202e-03		130.404		1.678e-03		12.604
7		0.00		1.60		3.643e-03		117.884		1.208e-03		29.637
7		0.00		1.20		2.206e-03		-20.790		8.157e-04		48.762
7		0.00		0.80		5.971e-03		-48.933		1.487e-03		19.761
7		0.00		0.40		1.072e-02		-49.806		1.850e-03		10.889
7		0.00		0.00		1.549e-02		-48.648		2.351e-03		9.092
7		0.00		-0.40		1.988e-02		-49.438		3.279e-03		7.921
7		0.00		-0.80		2.391e-02		-49.038		4.551e-03		8.557
7		0.00		-1.20		2.776e-02		-51.214		6.255e-03		10.064
7		0.00		-1.60		3.224e-02		-51.607		6.539e-03		7.208
7		0.00		-2.00		3.694e-02		-51.308		6.062e-03		6.882
7		0.00		-2.40		4.104e-02		-51.171		6.234e-03		5.568
7		0.00		-2.80		4.481e-02		-51.001		6.708e-03		5.023
7		0.00		-3.20		4.821e-02		-50.663		9.249e-03		5.813
7		0.00		-3.60		5.151e-02		-50.792		1.124e-02		7.316
7		0.00		-4.00		5.547e-02		-51.968		1.177e-02		7.226
7		0.00		-4.40		5.852e-02		-51.990		1.190e-02		6.689
7		0.00		-4.80		6.086e-02		-50.544		9.875e-03		7.768
7		0.00		-5.20		6.225e-02		-46.593		1.023e-02		6.627
7		0.00		-5.60		6.220e-02		-43.822		1.159e-02		10.506
7		0.00		-6.00		6.576e-02		-44.954		1.490e-02		11.441
7		0.00		-6.40		6.751e-02		-42.088		1.725e-02		13.029
7		0.00		-6.80		6.745e-02		-40.727		1.744e-02		14.974
7		0.00		-7.20		7.198e-02		-42.951		1.670e-02		15.086
7		0.00		-7.60		6.923e-02		-39.306		1.476e-02		15.668
7		0.00		-8.00		6.765e-02		-39.275		1.737e-02		23.356
7		0.00		-8.40		6.973e-02		-41.867		1.713e-02		19.020
7		0.00		-8.80		6.234e-02		-42.149		1.625e-02		23.858
7		0.00		-9.20		6.427e-02		-38.609		1.888e-02		21.228
7		0.00		-9.60		6.087e-02		-40.693		1.704e-02		19.355
7		0.00		-10.00		5.829e-02		-40.508		1.614e-02		9.227
7		0.00		-9.60		6.094e-02		-39.201		1.467e-02		11.341
7		0.00		-9.20		6.280e-02		-38.907		1.311e-02		13.713
7		0.00		-8.80		6.392e-02		-37.979		1.366e-02		14.783
7		0.00		-8.40		6.425e-02		-37.803		1.521e-02		16.571
7		0.00		-8.00		6.636e-02		-43.883		1.622e-02		18.932
7		0.00		-7.60		6.582e-02		-40.910		1.808e-02		21.838
7		0.00		-7.20		6.480e-02		-43.552		1.519e-02		11.349
7		0.00		-6.80		6.520e-02		-43.064		1.474e-02		10.423
7		0.00		-6.40		6.403e-02		-45.622		1.136e-02		7.805
7		0.00		-6.00		6.149e-02		-45.960		1.015e-02		7.194
7		0.00		-5.60		5.833e-02		-47.648		9.142e-03		6.388
7		0.00		-5.20		5.509e-02		-47.864		9.637e-03		6.990
7		0.00		-4.80		4.977e-02		-49.008		9.795e-03		7.338
7		0.00		-4.40		4.741e-02		-49.932		9.850e-03		9.257
7		0.00		-4.00		4.318e-02		-50.243		9.036e-03		8.373
7		0.00		-3.60		3.946e-02		-50.546		7.320e-03		6.592
7		0.00		-3.20		3.489e-02		-50.482		5.338e-03		6.390
7		0.00		-2.80		3.061e-02		-50.000		5.202e-03		6.928
7		0.00		-2.40		2.629e-02		-48.140		4.809e-03		6.303
7		0.00		-2.00		2.174e-02		-46.234		4.565e-03		8.841
7		0.00		-1.60		1.720e-02		-49.213		3.599e-03		10.784
7		0.00		-1.20		1.284e-02		-42.943		2.824e-03		9.777
7		0.00		-0.80		8.923e-03		-41.783		1.617e-03		12.335
7		0.00		-0.40		4.147e-03		-40.436		1.355e-03		25.965
8		0.00		0.00		1.974e-03		24.399		8.427e-04		70.178
8		0.00		0.40		5.058e-03		114.543		1.381e-03		16.926
8		0.00		0.80		9.518e-03		129.086		2.398e-03		13.788
8		0.00		1.20		1.364e-02		127.406		2.918e-03		12.468
8		0.00		1.60		1.840e-02		130.337		3.456e-03		8.326
8		0.00		2.00		2.241e-02		128.242		3.517e-03		7.100
8		0.00		2.40		2.695e-02		128.956		3.997e-03		7.072
8		0.00		2.80		3.026e-02		131.585		4.307e-03		6.384
8		0.00		3.20		3.379e-02		132.062		6.218e-03		6.934
8		0.00		3.60		3.682e-02		131.327		7.530e-03		10.263
8		0.00		4.00		3.971e-02		131.288		8.510e-03		8.483
8		0.00		4.40		4.265e-02		130.626		8.017e-03		7.133
8		0.00		4.80		4.572e-02		131.387		6.620e-03		6.050
8		0.00		5.20		4.804e-02		132.881		7.966e-03		5.492
8		0.00		5.60		4.873e-02		132.746		1.063e-02		7.473
8		0.00		6.00		5.123e-02		130.626		1.296e-02		10.839
8		0.00		6.40		5.340e-02		131.549		1.401e-02		8.802
8		0.00		6.80		5.734e-02		132.832		1.199e-02		5.738
8		0.00		7.20		5.623e-02		133.874		1.096e-02		8.464
8		0.00		7.60		5.938e-02		133.125		1.370e-02		12.164
8		0.00		8.00		6.087e-02		133.962		1.614e-02		12.965
8		0.00		8.40		6.275e-02		131.291		1.822e-02		19.842
8		0.00		8.80		6.560e-02		133.445		1.543e-02		16.558
8		0.00		9.20		6.359e-02		131.152		1.423e-02		25.393
8		0.00		9.60		6.420e-02		135.304		1.421e-02		15.326
8		0.00		10.00		6.150e-02		128.363		1.652e-02		33.856
8		0.00		9.60		6.387e-02		131.127		1.791e-02		22.313
8		0.00		9.20		6.362e-02		133.946		1.571e-02		24.185
8		0.00		8.80		6.228e-02		131.344		1.315e-02		23.526
8		0.00		8.40		5.963e-02		135.657		1.149e-02		12.347
8		0.00		8.00		5.890e-02		134.346		1.283e-02		10.572
8		0.00		7.60		5.661e-02		133.242		1.351e-02		10.075
8		0.00		7.20		5.430e-02		132.324		1.331e-02		14.204
8		0.00		6.80		5.199e-02		132.388		1.280e-02		8.488
8		0.00		6.40		4.946e-02		133.292		1.024e-02		7.259
8		0.00		6.00		4.626e-02		133.172		8.769e-03		6.076
8		0.00		5.60		4.278e-02		132.784		8.276e-03		6.763
8		0.00		5.20		3.853e-02		132.067		9.059e-03		10.008
8		0.00		4.80		3.490e-02		132.252		8.885e-03		11.883
8		0.00		4.40		3.171e-02		133.170		7.659e-03		10.129
8		0.00		4.00		2.837e-02		132.485		5.424e-03		7.478
8		0.00		3.60		2.469e-02		133.297		3.894e-03		6.735
8		0.00		3.20		2.058e-02		133.464		3.426e-03		7.327
8		0.00		2.80		1.620e-02		133.311		3.369e-03		10.178
8		0.00		2.40		1.194e-02		128.246		2.614e-03		12.716
8		0.00		2.00		8.139e-03		131.922		1.764e-03		11.175
8		0.00		1.60		3.835e-03		119.884		1.381e-03		47.910
8		0.00		1.20		1.867e-03		-22.190		8.841e-04		60.290
8		0.00		0.80		5.568e-03		-58.908		1.292e-03		19.734
8		0.00		0.40		1.034e-02		-44.395		1.980e-03		11.428
8		0.00		0.00		1.458e-02		-46.449		2.938e-03		8.544
8		0.00		-0.40		1.876e-02		-46.920		3.525e-03		8.381
8		0.00		-0.80		2.328e-02		-51.043		4.230e-03		8.618
8		0.00		-1.20		2.801e-02		-50.058		3.748e-03		7.131
8		0.00		-1.60		3.256e-02		-51.618		4.300e-03		6.421
8		0.00		-2.00		3.648e-02		-49.839		5.030e-03		5.306
8		0.00		-2.40		3.900e-02		-50.787		7.184e-03		6.793
8		0.00		-2.80		4.289e-02		-50.957		9.556e-03		7.268
8		0.00		-3.20		4.669e-02		-53.433		1.049e-02		8.478
8		0.00		-3.60		5.065e-02		-51.754		8.791e-03		6.512
8		0.00		-4.00		5.330e-02		-52.528		8.176e-03		6.602
8		0.00		-4.40		5.607e-02		-50.820		9.763e-03		6.428
8		0.00		-4.80		5.684e-02		-49.326		1.325e-02		10.432
8		0.00		-5.20		6.058e-02		-50.093		1.611e-02		10.423
8		0.00		-5.60		6.455e-02		-47.692		1.517e-02		9.350
8		0.00		-6.00		6.408e-02		-44.775		1.138e-02		8.640
8		0.00		-6.40		6.267e-02		-43.834		1.303e-02		12.079
8		0.00		-6.80		6.539e-02		-44.061		1.697e-02		17.002
8		0.00		-7.20		6.497e-02		-41.720		1.799e-02		20.003
8		0.00		-7.60		6.887e-02		-40.847		1.797e-02		15.789
8		0.00		-8.00		7.005e-02		-34.464		1.626e-02		18.800
8		0.00		-8.40		6.785e-02		-45.099		1.573e-02		21.848
8		0.00		-8.80		6.371e-02		-39.858		1.516e-02		20.981
8		0.00		-9.20		6.371e-02		-38.641		1.741e-02		16.959
8		0.00		-9.60		6.265e-02		-37.752		1.738e-02		21.983
8		0.00		-10.00		5.905e-02		-41.373		1.472e-02		7.442
8		0.00		-9.60		6.071e-02		-39.007		1.453e-02		10.673
8		0.00		-9.20		6.098e-02		-36.202		1.635e-02		15.569
8		0.00		-8.80		6.357e-02		-46.102		1.798e-02		18.836
8		0.00		-8.40		6.597e-02		-40.432		1.861e-02		18.886
8		0.00		-8.00		6.879e-02		-41.420		1.557e-02		11.324
8		0.00		-7.60		6.721e-02		-43.302		1.463e-02		14.575
8		0.00		-7.20		6.145e-02		-46.553		1.466e-02		17.536
8		0.00		-6.80		6.006e-02		-46.763		1.545e-02		10.476
8		0.00		-6.40		6.051e-02		-47.122		1.608e-02		12.973
8		0.00		-6.00		6.040e-02		-48.314		1.397e-02		6.663
8		0.00		-5.60		5.699e-02		-48.489		1.042e-02		5.639
8		0.00		-5.20		5.315e-02		-48.355		9.146e-03		6.332
8		0.00		-4.80		4.959e-02		-48.893		9.496e-03		8.706
8		0.00		-4.40		4.648e-02		-49.965		9.711e-03		7.931
8		0.00		-4.00		4.228e-02		-51.839		7.910e-03		6.848
8		0.00		-3.60		3.905e-02		-50.948		5.290e-03		6.369
8		0.00		-3.20		3.477e-02		-49.657		5.042e-03		6.617
8		0.00		-2.80		2.984e-02		-47.369		5.257e-03		6.872
8		0.00		-2.40		2.490e-02		-47.924		4.915e-03		7.171
8		0.00		-2.00		2.145e-02		-48.411		3.611e-03		7.972
8		0.00		-1.60		1.740e-02		-48.190		2.398e-03		9.339
8		0.00		-1.20		1.367e-02		-45.205		2.027e-03		9.308
8		0.00		-0.80		8.197e-03		-39.681		1.630e-03		13.713
8		0.00		-0.40		4.258e-03		-32.953		1.309e-03		21.194
