# Date of analysis: 2024-03-08 10;59
# Segment other properties: height: -47.2069590884052, diff height: 223.21191714229042, deflection: 36.00262459400703, deflection error: 3.208645090766663, adhesion: 42.932136036789394, phase offset: 0
# 
# Loop index	Read Volt (V)	Write Volt (V)	Amplitude (a.u)	Phase (deg)	Sigma Amp (a.u)	Sigma Pha (deg)	
1		0.00		0.00		1.145e-02		-56.561		3.491e-03		16.431
1		0.00		0.40		1.123e-02		-52.846		3.582e-03		18.737
1		0.00		0.80		1.083e-02		-54.831		3.823e-03		18.894
1		0.00		1.20		1.062e-02		-52.835		3.869e-03		16.727
1		0.00		1.60		1.115e-02		-52.498		3.653e-03		16.451
1		0.00		2.00		1.137e-02		-55.951		3.388e-03		17.207
1		0.00		2.40		1.081e-02		-59.039		3.573e-03		21.722
1		0.00		2.80		1.105e-02		-54.152		3.679e-03		19.409
1		0.00		3.20		1.152e-02		-46.886		3.983e-03		18.324
1		0.00		3.60		1.221e-02		-54.700		3.943e-03		13.505
1		0.00		4.00		1.231e-02		-54.085		3.487e-03		18.871
1		0.00		4.40		1.300e-02		-54.618		3.742e-03		15.805
1		0.00		4.80		1.228e-02		-52.111		3.894e-03		19.676
1		0.00		5.20		1.362e-02		-49.955		4.387e-03		18.224
1		0.00		5.60		1.437e-02		-53.483		4.487e-03		12.789
1		0.00		6.00		1.463e-02		-51.557		4.151e-03		17.458
1		0.00		6.40		1.537e-02		-56.679		4.479e-03		16.218
1		0.00		6.80		1.607e-02		-54.378		5.091e-03		19.740
1		0.00		7.20		1.669e-02		-52.331		5.632e-03		17.944
1		0.00		7.60		1.800e-02		-55.641		5.400e-03		14.225
1		0.00		8.00		1.929e-02		-55.497		5.683e-03		17.044
1		0.00		8.40		2.025e-02		-57.271		6.239e-03		15.751
1		0.00		8.80		2.183e-02		-55.055		7.469e-03		18.970
1		0.00		9.20		2.371e-02		-53.340		8.684e-03		13.893
1		0.00		9.60		2.722e-02		-55.973		8.756e-03		11.975
1		0.00		10.00		2.920e-02		-55.575		9.484e-03		13.723
1		0.00		9.60		3.049e-02		-55.564		9.837e-03		14.940
1		0.00		9.20		3.043e-02		-53.221		1.140e-02		27.595
1		0.00		8.80		3.214e-02		-53.419		1.120e-02		12.513
1		0.00		8.40		3.225e-02		-55.340		9.401e-03		11.920
1		0.00		8.00		3.094e-02		-56.087		9.598e-03		15.425
1		0.00		7.60		3.116e-02		-56.312		9.877e-03		15.314
1		0.00		7.20		3.085e-02		-50.403		1.042e-02		15.840
1		0.00		6.80		3.231e-02		-55.238		9.714e-03		10.229
1		0.00		6.40		3.081e-02		-54.931		8.517e-03		12.302
1		0.00		6.00		2.974e-02		-54.635		9.172e-03		13.482
1		0.00		5.60		2.936e-02		-53.065		9.229e-03		20.000
1		0.00		5.20		2.961e-02		-52.757		9.290e-03		11.648
1		0.00		4.80		3.008e-02		-54.577		7.992e-03		10.490
1		0.00		4.40		2.842e-02		-55.970		7.921e-03		12.673
1		0.00		4.00		2.851e-02		-54.106		8.817e-03		14.439
1		0.00		3.60		2.865e-02		-51.563		9.436e-03		14.678
1		0.00		3.20		2.916e-02		-54.790		9.109e-03		11.001
1		0.00		2.80		2.940e-02		-53.580		7.743e-03		10.879
1		0.00		2.40		2.723e-02		-55.292		9.193e-03		14.837
1		0.00		2.00		2.732e-02		-54.918		9.356e-03		18.179
1		0.00		1.60		2.753e-02		-53.458		9.784e-03		15.541
1		0.00		1.20		2.812e-02		-56.123		8.846e-03		11.833
1		0.00		0.80		2.731e-02		-56.115		8.315e-03		13.794
1		0.00		0.40		2.621e-02		-55.825		8.921e-03		16.420
1		0.00		0.00		2.610e-02		-51.881		9.471e-03		16.972
1		0.00		-0.40		2.658e-02		-53.073		9.196e-03		10.866
1		0.00		-0.80		2.636e-02		-55.872		7.692e-03		11.889
1		0.00		-1.20		2.547e-02		-56.636		8.029e-03		14.810
1		0.00		-1.60		2.468e-02		-53.661		8.166e-03		17.481
1		0.00		-2.00		2.530e-02		-52.267		8.212e-03		16.903
1		0.00		-2.40		2.453e-02		-53.564		7.212e-03		12.524
1		0.00		-2.80		2.379e-02		-56.772		6.651e-03		13.830
1		0.00		-3.20		2.280e-02		-56.691		6.887e-03		14.276
1		0.00		-3.60		2.106e-02		-52.839		6.300e-03		15.838
1		0.00		-4.00		2.033e-02		-53.785		6.447e-03		12.069
1		0.00		-4.40		1.840e-02		-52.727		5.176e-03		12.327
1		0.00		-4.80		1.623e-02		-52.242		4.592e-03		13.991
1		0.00		-5.20		1.342e-02		-50.721		4.209e-03		14.441
1		0.00		-5.60		9.844e-03		-48.909		3.050e-03		18.315
1		0.00		-6.00		6.752e-03		-51.786		2.431e-03		19.059
1		0.00		-6.40		3.491e-03		-43.407		1.640e-03		40.072
1		0.00		-6.80		2.386e-03		39.193		1.014e-03		66.064
1		0.00		-7.20		3.994e-03		87.681		2.007e-03		58.590
1		0.00		-7.60		6.113e-03		109.202		2.555e-03		36.188
1		0.00		-8.00		8.681e-03		118.795		3.535e-03		19.879
1		0.00		-8.40		1.004e-02		120.085		3.621e-03		17.904
1		0.00		-8.80		1.157e-02		122.411		4.022e-03		13.962
1		0.00		-9.20		1.323e-02		122.276		4.606e-03		15.233
1		0.00		-9.60		1.384e-02		117.936		5.039e-03		24.257
1		0.00		-10.00		1.549e-02		124.951		5.204e-03		11.756
1		0.00		-9.60		1.663e-02		123.434		5.003e-03		10.866
1		0.00		-9.20		1.640e-02		123.119		4.637e-03		12.738
1		0.00		-8.80		1.620e-02		124.203		5.301e-03		15.813
1		0.00		-8.40		1.534e-02		120.449		4.880e-03		28.542
1		0.00		-8.00		1.563e-02		125.449		5.132e-03		12.950
1		0.00		-7.60		1.564e-02		124.342		4.519e-03		12.906
1		0.00		-7.20		1.542e-02		120.449		4.166e-03		11.125
1		0.00		-6.80		1.470e-02		126.058		4.000e-03		11.984
1		0.00		-6.40		1.424e-02		122.516		4.285e-03		24.030
1		0.00		-6.00		1.413e-02		126.959		4.634e-03		15.549
1		0.00		-5.60		1.411e-02		125.211		4.135e-03		11.536
1		0.00		-5.20		1.362e-02		122.567		4.043e-03		10.216
1		0.00		-4.80		1.281e-02		125.545		3.923e-03		15.607
1		0.00		-4.40		1.191e-02		117.154		4.245e-03		29.362
1		0.00		-4.00		1.198e-02		123.881		4.280e-03		22.869
1		0.00		-3.60		1.172e-02		123.718		3.838e-03		13.122
1		0.00		-3.20		1.091e-02		120.627		3.604e-03		16.008
1		0.00		-2.80		1.011e-02		121.546		3.454e-03		19.523
1		0.00		-2.40		9.834e-03		118.721		3.572e-03		30.904
1		0.00		-2.00		9.949e-03		124.532		3.483e-03		21.161
1		0.00		-1.60		9.638e-03		122.984		3.064e-03		13.669
1		0.00		-1.20		9.148e-03		122.764		3.200e-03		17.056
1		0.00		-0.80		9.470e-03		120.096		3.018e-03		14.851
1		0.00		-0.40		8.610e-03		119.761		2.791e-03		24.238
2		0.00		0.00		9.243e-03		123.975		2.953e-03		15.643
2		0.00		0.40		8.791e-03		123.662		2.646e-03		16.002
2		0.00		0.80		8.424e-03		122.349		2.590e-03		16.247
2		0.00		1.20		7.945e-03		125.936		2.467e-03		13.688
2		0.00		1.60		7.342e-03		122.020		2.199e-03		21.826
2		0.00		2.00		6.686e-03		121.725		2.347e-03		25.934
2		0.00		2.40		6.191e-03		127.072		2.117e-03		17.962
2		0.00		2.80		5.304e-03		120.466		1.733e-03		21.414
2		0.00		3.20		4.506e-03		115.541		1.672e-03		31.457
2		0.00		3.60		3.847e-03		119.836		1.493e-03		33.139
2		0.00		4.00		2.726e-03		84.411		1.125e-03		62.200
2		0.00		4.40		2.447e-03		63.175		1.097e-03		79.750
2		0.00		4.80		1.757e-03		-7.127		6.886e-04		88.373
2		0.00		5.20		1.863e-03		-18.012		7.637e-04		79.174
2		0.00		5.60		2.240e-03		-42.325		1.031e-03		48.876
2		0.00		6.00		2.811e-03		-41.547		1.235e-03		37.931
2		0.00		6.40		4.096e-03		-47.287		1.593e-03		32.389
2		0.00		6.80		5.212e-03		-59.322		1.926e-03		26.094
2		0.00		7.20		6.893e-03		-63.297		2.000e-03		18.193
2		0.00		7.60		8.668e-03		-57.069		2.399e-03		20.443
2		0.00		8.00		9.992e-03		-56.494		2.994e-03		17.165
2		0.00		8.40		1.225e-02		-61.189		3.810e-03		17.010
2		0.00		8.80		1.522e-02		-50.959		4.760e-03		16.462
2		0.00		9.20		1.857e-02		-53.692		5.531e-03		10.716
2		0.00		9.60		2.246e-02		-56.426		6.152e-03		9.993
2		0.00		10.00		2.522e-02		-55.385		6.679e-03		12.726
2		0.00		9.60		2.806e-02		-53.959		7.376e-03		12.744
2		0.00		9.20		2.834e-02		-53.800		8.179e-03		14.912
2		0.00		8.80		2.794e-02		-50.791		8.328e-03		15.341
2		0.00		8.40		2.926e-02		-54.085		8.873e-03		10.459
2		0.00		8.00		2.999e-02		-54.173		7.708e-03		9.000
2		0.00		7.60		2.963e-02		-54.884		7.488e-03		9.967
2		0.00		7.20		2.852e-02		-54.978		8.293e-03		13.406
2		0.00		6.80		2.760e-02		-54.075		8.562e-03		14.569
2		0.00		6.40		2.697e-02		-55.861		9.183e-03		15.345
2		0.00		6.00		2.716e-02		-52.754		9.253e-03		14.929
2		0.00		5.60		2.734e-02		-51.920		8.935e-03		8.881
2		0.00		5.20		2.656e-02		-55.383		7.617e-03		9.910
2		0.00		4.80		2.642e-02		-55.656		7.228e-03		11.737
2		0.00		4.40		2.588e-02		-55.144		7.154e-03		12.868
2		0.00		4.00		2.573e-02		-54.781		7.483e-03		13.945
2		0.00		3.60		2.534e-02		-53.010		7.584e-03		16.293
2		0.00		3.20		2.512e-02		-51.982		7.600e-03		11.791
2		0.00		2.80		2.577e-02		-53.953		7.589e-03		11.209
2		0.00		2.40		2.573e-02		-54.391		6.950e-03		10.469
2		0.00		2.00		2.540e-02		-53.235		6.099e-03		10.743
2		0.00		1.60		2.529e-02		-52.673		6.317e-03		12.830
2		0.00		1.20		2.480e-02		-52.331		6.555e-03		12.637
2		0.00		0.80		2.523e-02		-53.840		6.628e-03		11.595
2		0.00		0.40		2.437e-02		-52.692		7.108e-03		16.474
2		0.00		0.00		2.497e-02		-52.889		7.522e-03		14.265
2		0.00		-0.40		2.516e-02		-53.695		7.188e-03		10.877
2		0.00		-0.80		2.536e-02		-53.795		6.272e-03		9.327
2		0.00		-1.20		2.511e-02		-56.215		6.162e-03		9.936
2		0.00		-1.60		2.480e-02		-53.297		6.347e-03		12.225
2		0.00		-2.00		2.401e-02		-52.000		6.267e-03		10.926
2		0.00		-2.40		2.305e-02		-53.244		6.753e-03		13.716
2		0.00		-2.80		2.170e-02		-52.936		6.642e-03		16.236
2		0.00		-3.20		2.115e-02		-55.189		6.654e-03		13.520
2		0.00		-3.60		1.959e-02		-51.482		5.927e-03		11.062
2		0.00		-4.00		1.856e-02		-52.744		4.924e-03		10.470
2		0.00		-4.40		1.662e-02		-53.539		4.139e-03		9.822
2		0.00		-4.80		1.469e-02		-52.433		3.547e-03		12.297
2		0.00		-5.20		1.227e-02		-50.507		2.950e-03		13.812
2		0.00		-5.60		1.021e-02		-49.133		2.913e-03		13.210
2		0.00		-6.00		7.420e-03		-43.970		2.078e-03		16.960
2		0.00		-6.40		4.141e-03		-52.165		1.545e-03		21.443
2		0.00		-6.80		1.965e-03		-16.816		7.709e-04		58.293
2		0.00		-7.20		3.813e-03		98.906		1.479e-03		38.165
2		0.00		-7.60		6.085e-03		112.250		2.095e-03		27.918
2		0.00		-8.00		8.381e-03		117.776		2.397e-03		23.218
2		0.00		-8.40		1.065e-02		124.100		3.002e-03		13.468
2		0.00		-8.80		1.248e-02		122.841		3.465e-03		11.812
2		0.00		-9.20		1.298e-02		125.206		3.644e-03		13.951
2		0.00		-9.60		1.459e-02		121.843		4.475e-03		18.159
2		0.00		-10.00		1.556e-02		120.181		5.027e-03		22.451
2		0.00		-9.60		1.638e-02		120.079		5.366e-03		24.478
2		0.00		-9.20		1.638e-02		124.989		5.685e-03		18.722
2		0.00		-8.80		1.693e-02		123.439		5.018e-03		10.803
2		0.00		-8.40		1.717e-02		124.437		5.095e-03		9.217
2		0.00		-8.00		1.693e-02		126.745		4.521e-03		10.105
2		0.00		-7.60		1.694e-02		122.501		4.571e-03		11.555
2		0.00		-7.20		1.617e-02		121.944		4.234e-03		11.477
2		0.00		-6.80		1.570e-02		124.311		4.269e-03		13.194
2		0.00		-6.40		1.494e-02		125.112		4.003e-03		14.382
2		0.00		-6.00		1.477e-02		122.833		3.979e-03		19.257
2		0.00		-5.60		1.417e-02		125.727		4.313e-03		23.711
2		0.00		-5.20		1.344e-02		124.413		3.913e-03		18.923
2		0.00		-4.80		1.356e-02		126.840		4.233e-03		11.268
2		0.00		-4.40		1.325e-02		126.305		3.820e-03		11.388
2		0.00		-4.00		1.247e-02		123.556		3.145e-03		11.281
2		0.00		-3.60		1.263e-02		125.025		3.395e-03		11.264
2		0.00		-3.20		1.195e-02		125.563		3.117e-03		12.139
2		0.00		-2.80		1.181e-02		123.568		3.100e-03		9.663
2		0.00		-2.40		1.165e-02		130.121		3.041e-03		14.811
2		0.00		-2.00		1.124e-02		124.594		2.988e-03		14.622
2		0.00		-1.60		1.056e-02		122.553		3.091e-03		14.672
2		0.00		-1.20		1.059e-02		123.466		3.157e-03		21.327
2		0.00		-0.80		1.038e-02		120.659		3.139e-03		21.740
2		0.00		-0.40		1.039e-02		121.622		3.199e-03		23.481
3		0.00		0.00		9.872e-03		124.996		3.097e-03		22.682
3		0.00		0.40		9.997e-03		124.870		3.121e-03		12.947
3		0.00		0.80		1.014e-02		128.755		2.863e-03		11.514
3		0.00		1.20		9.238e-03		127.308		2.622e-03		10.740
3		0.00		1.60		8.912e-03		130.051		2.186e-03		10.728
3		0.00		2.00		8.460e-03		124.574		2.311e-03		13.243
3		0.00		2.40		7.055e-03		126.467		1.989e-03		14.296
3		0.00		2.80		6.584e-03		122.501		1.870e-03		16.877
3		0.00		3.20		5.788e-03		124.744		1.698e-03		17.281
3		0.00		3.60		4.671e-03		122.248		1.324e-03		29.126
3		0.00		4.00		3.943e-03		107.178		1.425e-03		42.494
3		0.00		4.40		3.384e-03		111.954		1.087e-03		44.303
3		0.00		4.80		2.523e-03		84.617		1.114e-03		71.774
3		0.00		5.20		1.788e-03		26.482		7.614e-04		84.100
3		0.00		5.60		1.986e-03		-38.667		8.416e-04		67.428
3		0.00		6.00		2.303e-03		-25.018		9.513e-04		57.372
3		0.00		6.40		3.234e-03		-52.750		1.517e-03		41.269
3		0.00		6.80		4.485e-03		-58.288		1.831e-03		23.898
3		0.00		7.20		6.074e-03		-50.199		2.074e-03		18.801
3		0.00		7.60		7.823e-03		-61.160		2.551e-03		16.367
3		0.00		8.00		9.252e-03		-55.161		2.712e-03		15.380
3		0.00		8.40		1.137e-02		-49.702		3.077e-03		12.965
3		0.00		8.80		1.387e-02		-57.475		3.528e-03		14.664
3		0.00		9.20		1.721e-02		-57.368		4.623e-03		13.872
3		0.00		9.60		2.071e-02		-54.745		5.294e-03		13.133
3		0.00		10.00		2.373e-02		-53.274		6.014e-03		10.943
3		0.00		9.60		2.545e-02		-54.218		6.819e-03		12.397
3		0.00		9.20		2.633e-02		-52.968		7.347e-03		11.905
3		0.00		8.80		2.728e-02		-52.950		7.297e-03		12.653
3		0.00		8.40		2.629e-02		-53.524		7.530e-03		14.641
3		0.00		8.00		2.672e-02		-52.463		7.602e-03		13.725
3		0.00		7.60		2.716e-02		-51.179		7.669e-03		11.860
3		0.00		7.20		2.678e-02		-51.910		7.582e-03		16.697
3		0.00		6.80		2.585e-02		-52.989		8.040e-03		13.284
3		0.00		6.40		2.604e-02		-51.054		8.121e-03		10.915
3		0.00		6.00		2.574e-02		-53.407		7.654e-03		10.985
3		0.00		5.60		2.567e-02		-51.512		7.243e-03		10.134
3		0.00		5.20		2.555e-02		-52.535		7.054e-03		10.203
3		0.00		4.80		2.569e-02		-54.044		6.679e-03		9.596
3		0.00		4.40		2.521e-02		-53.387		6.277e-03		9.565
3		0.00		4.00		2.514e-02		-53.667		5.857e-03		10.429
3		0.00		3.60		2.560e-02		-54.470		5.905e-03		9.123
3		0.00		3.20		2.543e-02		-54.277		5.706e-03		10.210
3		0.00		2.80		2.494e-02		-53.618		5.740e-03		10.989
3		0.00		2.40		2.467e-02		-55.299		5.845e-03		10.913
3		0.00		2.00		2.428e-02		-54.723		5.588e-03		10.637
3		0.00		1.60		2.442e-02		-52.096		5.846e-03		11.314
3		0.00		1.20		2.437e-02		-54.474		5.733e-03		11.382
3		0.00		0.80		2.300e-02		-52.224		5.593e-03		12.200
3		0.00		0.40		2.368e-02		-51.382		5.964e-03		12.465
3		0.00		0.00		2.365e-02		-51.546		5.981e-03		13.011
3		0.00		-0.40		2.362e-02		-53.457		6.564e-03		15.641
3		0.00		-0.80		2.304e-02		-53.139		6.500e-03		14.482
3		0.00		-1.20		2.255e-02		-54.319		6.758e-03		18.238
3		0.00		-1.60		2.199e-02		-53.851		7.105e-03		18.765
3		0.00		-2.00		2.164e-02		-53.218		6.885e-03		19.902
3		0.00		-2.40		2.159e-02		-53.138		6.938e-03		20.852
3		0.00		-2.80		2.105e-02		-49.827		6.652e-03		14.623
3		0.00		-3.20		2.041e-02		-54.035		6.700e-03		17.128
3		0.00		-3.60		1.917e-02		-52.847		6.363e-03		11.372
3		0.00		-4.00		1.757e-02		-51.454		5.604e-03		11.469
3		0.00		-4.40		1.633e-02		-52.351		5.038e-03		12.340
3		0.00		-4.80		1.494e-02		-50.129		4.389e-03		12.504
3		0.00		-5.20		1.328e-02		-51.729		3.566e-03		13.561
3		0.00		-5.60		1.067e-02		-51.083		2.819e-03		12.745
3		0.00		-6.00		8.778e-03		-52.590		2.397e-03		14.655
3		0.00		-6.40		6.242e-03		-45.163		1.890e-03		16.818
3		0.00		-6.80		3.228e-03		-49.630		1.307e-03		32.408
3		0.00		-7.20		1.856e-03		30.279		7.037e-04		57.361
3		0.00		-7.60		4.273e-03		112.854		1.634e-03		31.397
3		0.00		-8.00		7.504e-03		120.351		2.472e-03		13.921
3		0.00		-8.40		1.013e-02		121.452		3.135e-03		17.006
3		0.00		-8.80		1.224e-02		121.755		3.308e-03		12.437
3		0.00		-9.20		1.347e-02		123.605		3.483e-03		10.977
3		0.00		-9.60		1.466e-02		125.031		4.024e-03		10.071
3		0.00		-10.00		1.632e-02		123.643		4.418e-03		9.545
3		0.00		-9.60		1.688e-02		125.767		4.147e-03		8.503
3		0.00		-9.20		1.715e-02		125.047		4.304e-03		10.555
3		0.00		-8.80		1.726e-02		123.704		4.156e-03		10.514
3		0.00		-8.40		1.701e-02		123.621		4.160e-03		10.119
3		0.00		-8.00		1.662e-02		124.723		4.316e-03		10.867
3		0.00		-7.60		1.673e-02		125.832		4.056e-03		9.598
3		0.00		-7.20		1.670e-02		125.014		4.046e-03		9.501
3		0.00		-6.80		1.602e-02		124.254		3.663e-03		10.519
3		0.00		-6.40		1.563e-02		124.115		3.273e-03		10.250
3		0.00		-6.00		1.504e-02		126.106		3.168e-03		10.208
3		0.00		-5.60		1.484e-02		126.384		3.145e-03		10.568
3		0.00		-5.20		1.496e-02		125.028		3.134e-03		8.773
3		0.00		-4.80		1.438e-02		125.519		3.331e-03		9.851
3		0.00		-4.40		1.355e-02		123.354		3.123e-03		10.007
3		0.00		-4.00		1.324e-02		126.676		3.116e-03		10.936
3		0.00		-3.60		1.267e-02		125.933		3.161e-03		12.200
3		0.00		-3.20		1.246e-02		124.790		3.046e-03		10.831
3		0.00		-2.80		1.237e-02		126.417		2.913e-03		10.065
3		0.00		-2.40		1.196e-02		125.771		3.193e-03		14.126
3		0.00		-2.00		1.170e-02		125.458		3.283e-03		12.114
3		0.00		-1.60		1.149e-02		120.997		3.279e-03		12.431
3		0.00		-1.20		1.148e-02		124.151		3.162e-03		14.021
3		0.00		-0.80		1.117e-02		126.883		2.990e-03		14.956
3		0.00		-0.40		1.078e-02		124.377		2.983e-03		14.228
4		0.00		0.00		1.033e-02		126.313		2.967e-03		17.831
4		0.00		0.40		1.037e-02		126.150		2.714e-03		16.082
4		0.00		0.80		9.823e-03		123.053		2.630e-03		15.414
4		0.00		1.20		9.523e-03		121.919		2.589e-03		17.301
4		0.00		1.60		8.873e-03		125.945		2.488e-03		19.051
4		0.00		2.00		8.141e-03		124.898		2.414e-03		22.059
4		0.00		2.40		7.421e-03		123.800		2.354e-03		19.354
4		0.00		2.80		6.566e-03		121.434		2.011e-03		29.497
4		0.00		3.20		6.098e-03		123.380		1.748e-03		20.708
4		0.00		3.60		5.207e-03		125.379		1.835e-03		23.892
4		0.00		4.00		4.383e-03		123.257		1.430e-03		29.056
4		0.00		4.40		3.600e-03		117.875		1.193e-03		44.326
4		0.00		4.80		2.384e-03		82.728		9.394e-04		72.064
4		0.00		5.20		1.844e-03		30.292		8.509e-04		90.228
4		0.00		5.60		1.808e-03		-7.427		8.864e-04		79.630
4		0.00		6.00		2.413e-03		-56.164		9.741e-04		49.528
4		0.00		6.40		2.849e-03		-53.439		1.123e-03		36.121
4		0.00		6.80		4.093e-03		-55.869		1.418e-03		24.588
4		0.00		7.20		5.687e-03		-52.085		1.693e-03		21.826
4		0.00		7.60		7.182e-03		-51.367		2.019e-03		20.753
4		0.00		8.00		8.408e-03		-53.243		2.400e-03		16.312
4		0.00		8.40		1.032e-02		-52.158		2.829e-03		14.941
4		0.00		8.80		1.269e-02		-51.695		3.602e-03		15.063
4		0.00		9.20		1.567e-02		-50.490		4.576e-03		15.296
4		0.00		9.60		1.915e-02		-53.617		5.360e-03		16.177
4		0.00		10.00		2.229e-02		-53.231		6.722e-03		10.974
4		0.00		9.60		2.434e-02		-53.983		6.664e-03		10.006
4		0.00		9.20		2.570e-02		-54.601		6.756e-03		9.060
4		0.00		8.80		2.615e-02		-53.724		6.020e-03		9.280
4		0.00		8.40		2.670e-02		-52.826		6.156e-03		10.089
4		0.00		8.00		2.680e-02		-53.048		6.192e-03		9.274
4		0.00		7.60		2.577e-02		-52.184		6.429e-03		10.872
4		0.00		7.20		2.608e-02		-53.767		6.872e-03		11.086
4		0.00		6.80		2.557e-02		-53.675		7.436e-03		13.576
4		0.00		6.40		2.525e-02		-53.341		7.561e-03		15.448
4		0.00		6.00		2.441e-02		-54.579		7.644e-03		15.087
4		0.00		5.60		2.450e-02		-50.918		7.974e-03		12.683
4		0.00		5.20		2.471e-02		-52.661		7.776e-03		9.141
4		0.00		4.80		2.453e-02		-54.129		6.930e-03		9.596
4		0.00		4.40		2.428e-02		-52.959		6.167e-03		9.247
4		0.00		4.00		2.470e-02		-53.985		5.896e-03		9.237
4		0.00		3.60		2.426e-02		-53.351		5.225e-03		9.699
4		0.00		3.20		2.409e-02		-54.440		5.577e-03		10.598
4		0.00		2.80		2.360e-02		-53.125		5.635e-03		11.870
4		0.00		2.40		2.362e-02		-50.324		5.727e-03		12.155
4		0.00		2.00		2.286e-02		-51.076		6.166e-03		15.870
4		0.00		1.60		2.292e-02		-51.992		6.265e-03		11.503
4		0.00		1.20		2.380e-02		-52.670		6.419e-03		9.255
4		0.00		0.80		2.363e-02		-54.699		5.550e-03		8.541
4		0.00		0.40		2.434e-02		-51.952		5.047e-03		9.622
4		0.00		0.00		2.353e-02		-53.933		5.347e-03		10.711
4		0.00		-0.40		2.435e-02		-52.561		5.404e-03		10.667
4		0.00		-0.80		2.271e-02		-51.377		6.292e-03		13.011
4		0.00		-1.20		2.247e-02		-50.666		6.414e-03		13.883
4		0.00		-1.60		2.233e-02		-51.385		6.627e-03		14.919
4		0.00		-2.00		2.167e-02		-52.101		6.088e-03		9.611
4		0.00		-2.40		2.194e-02		-51.825		5.382e-03		9.793
4		0.00		-2.80		2.098e-02		-54.244		4.868e-03		10.920
4		0.00		-3.20		2.041e-02		-52.562		5.020e-03		11.343
4		0.00		-3.60		1.861e-02		-53.068		5.235e-03		13.366
4		0.00		-4.00		1.714e-02		-50.411		4.997e-03		13.296
4		0.00		-4.40		1.648e-02		-51.924		4.770e-03		12.086
4		0.00		-4.80		1.490e-02		-49.983		3.659e-03		10.182
4		0.00		-5.20		1.319e-02		-53.402		3.208e-03		10.679
4		0.00		-5.60		1.100e-02		-48.551		2.620e-03		13.417
4		0.00		-6.00		8.417e-03		-51.735		2.327e-03		14.205
4		0.00		-6.40		5.624e-03		-43.481		1.953e-03		19.668
4		0.00		-6.80		3.870e-03		-40.617		1.393e-03		29.121
4		0.00		-7.20		1.865e-03		-9.355		6.988e-04		72.122
4		0.00		-7.60		3.266e-03		95.341		1.346e-03		43.480
4		0.00		-8.00		6.025e-03		121.112		1.841e-03		13.843
4		0.00		-8.40		8.716e-03		125.143		2.520e-03		18.715
4		0.00		-8.80		1.080e-02		120.980		3.322e-03		23.042
4		0.00		-9.20		1.236e-02		121.719		4.205e-03		19.840
4		0.00		-9.60		1.454e-02		123.026		4.465e-03		15.672
4		0.00		-10.00		1.583e-02		122.662		4.127e-03		10.024
4		0.00		-9.60		1.587e-02		124.649		4.257e-03		11.557
4		0.00		-9.20		1.599e-02		124.094		4.597e-03		13.367
4		0.00		-8.80		1.581e-02		121.832		4.944e-03		23.608
4		0.00		-8.40		1.621e-02		123.649		5.257e-03		13.141
4		0.00		-8.00		1.665e-02		123.761		4.656e-03		8.637
4		0.00		-7.60		1.623e-02		123.838		4.106e-03		9.651
4		0.00		-7.20		1.575e-02		126.867		3.929e-03		11.751
4		0.00		-6.80		1.486e-02		124.570		4.105e-03		16.095
4		0.00		-6.40		1.460e-02		125.619		4.269e-03		16.484
4		0.00		-6.00		1.522e-02		125.100		3.731e-03		10.034
4		0.00		-5.60		1.473e-02		128.219		3.243e-03		9.255
4		0.00		-5.20		1.503e-02		124.094		3.419e-03		10.455
4		0.00		-4.80		1.396e-02		125.393		3.214e-03		12.189
4		0.00		-4.40		1.320e-02		126.269		3.279e-03		14.972
4		0.00		-4.00		1.294e-02		122.903		3.338e-03		14.405
4		0.00		-3.60		1.293e-02		124.017		3.319e-03		9.561
4		0.00		-3.20		1.286e-02		123.781		3.072e-03		11.325
4		0.00		-2.80		1.224e-02		126.087		2.918e-03		10.940
4		0.00		-2.40		1.175e-02		123.596		3.063e-03		13.984
4		0.00		-2.00		1.160e-02		124.264		3.369e-03		20.294
4		0.00		-1.60		1.114e-02		124.714		3.036e-03		13.408
4		0.00		-1.20		1.133e-02		125.375		2.711e-03		10.033
4		0.00		-0.80		1.153e-02		124.757		2.684e-03		11.866
4		0.00		-0.40		1.093e-02		127.266		2.678e-03		14.340
5		0.00		0.00		1.029e-02		124.175		2.999e-03		21.377
5		0.00		0.40		1.020e-02		127.524		3.052e-03		14.976
5		0.00		0.80		1.006e-02		126.052		2.652e-03		9.461
5		0.00		1.20		9.480e-03		126.266		2.216e-03		11.024
5		0.00		1.60		9.414e-03		125.899		2.104e-03		11.488
5		0.00		2.00		8.022e-03		121.898		2.278e-03		15.610
5		0.00		2.40		7.756e-03		124.672		2.203e-03		27.977
5		0.00		2.80		6.931e-03		126.526		1.966e-03		26.307
5		0.00		3.20		6.126e-03		125.203		1.711e-03		15.641
5		0.00		3.60		5.354e-03		122.094		1.488e-03		17.592
5		0.00		4.00		4.488e-03		120.383		1.574e-03		28.081
5		0.00		4.40		3.572e-03		106.196		1.133e-03		41.788
5		0.00		4.80		2.748e-03		90.137		1.005e-03		53.579
5		0.00		5.20		2.431e-03		72.023		1.092e-03		68.100
5		0.00		5.60		1.702e-03		-1.373		6.269e-04		80.923
5		0.00		6.00		1.760e-03		-18.022		7.101e-04		69.810
5		0.00		6.40		2.496e-03		-39.045		1.078e-03		38.744
5		0.00		6.80		4.059e-03		-44.530		1.303e-03		26.800
5		0.00		7.20		4.900e-03		-47.697		1.676e-03		18.872
5		0.00		7.60		6.223e-03		-52.391		2.170e-03		18.701
5		0.00		8.00		8.315e-03		-50.810		2.245e-03		16.117
5		0.00		8.40		1.021e-02		-53.657		2.579e-03		14.884
5		0.00		8.80		1.206e-02		-55.088		3.200e-03		15.099
5		0.00		9.20		1.438e-02		-53.240		4.385e-03		14.979
5		0.00		9.60		1.701e-02		-55.872		5.312e-03		18.636
5		0.00		10.00		2.041e-02		-53.318		6.268e-03		12.543
5		0.00		9.60		2.310e-02		-53.147		5.825e-03		8.683
5		0.00		9.20		2.375e-02		-53.435		5.573e-03		10.285
5		0.00		8.80		2.412e-02		-53.048		5.841e-03		11.942
5		0.00		8.40		2.430e-02		-52.190		6.358e-03		12.776
5		0.00		8.00		2.374e-02		-53.433		7.130e-03		15.625
5		0.00		7.60		2.406e-02		-53.335		6.990e-03		9.623
5		0.00		7.20		2.473e-02		-52.005		5.950e-03		9.463
5		0.00		6.80		2.437e-02		-53.957		5.512e-03		10.138
5		0.00		6.40		2.371e-02		-52.096		5.812e-03		11.362
5		0.00		6.00		2.315e-02		-50.407		6.169e-03		12.173
5		0.00		5.60		2.332e-02		-50.928		6.692e-03		13.809
5		0.00		5.20		2.368e-02		-51.658		6.413e-03		9.713
5		0.00		4.80		2.362e-02		-50.347		5.499e-03		8.872
5		0.00		4.40		2.313e-02		-53.658		5.031e-03		11.069
5		0.00		4.00		2.300e-02		-51.329		5.493e-03		11.893
5		0.00		3.60		2.216e-02		-51.972		6.176e-03		14.453
5		0.00		3.20		2.225e-02		-53.488		6.606e-03		14.680
5		0.00		2.80		2.207e-02		-51.967		6.150e-03		10.155
5		0.00		2.40		2.316e-02		-52.722		5.507e-03		9.243
5		0.00		2.00		2.280e-02		-51.768		5.313e-03		8.813
5		0.00		1.60		2.256e-02		-50.124		5.245e-03		10.804
5		0.00		1.20		2.217e-02		-52.048		5.737e-03		13.468
5		0.00		0.80		2.238e-02		-50.419		5.975e-03		11.794
5		0.00		0.40		2.247e-02		-51.797		5.629e-03		8.533
5		0.00		0.00		2.347e-02		-50.797		4.855e-03		9.520
5		0.00		-0.40		2.283e-02		-52.641		4.818e-03		11.180
5		0.00		-0.80		2.201e-02		-51.021		4.892e-03		10.478
5		0.00		-1.20		2.156e-02		-51.330		5.835e-03		15.762
5		0.00		-1.60		2.170e-02		-50.973		5.572e-03		10.893
5		0.00		-2.00		2.192e-02		-53.965		4.969e-03		9.135
5		0.00		-2.40		2.174e-02		-52.122		4.146e-03		9.586
5		0.00		-2.80		2.064e-02		-53.392		4.343e-03		10.943
5		0.00		-3.20		1.973e-02		-50.549		4.517e-03		10.198
5		0.00		-3.60		1.912e-02		-51.817		5.235e-03		14.799
5		0.00		-4.00		1.784e-02		-51.769		5.394e-03		8.578
5		0.00		-4.40		1.739e-02		-52.903		4.088e-03		9.706
5		0.00		-4.80		1.586e-02		-51.274		3.521e-03		12.092
5		0.00		-5.20		1.378e-02		-51.437		3.354e-03		12.566
5		0.00		-5.60		1.143e-02		-51.040		2.986e-03		13.865
5		0.00		-6.00		7.838e-03		-45.027		2.475e-03		16.586
5		0.00		-6.40		5.770e-03		-47.724		1.806e-03		19.507
5		0.00		-6.80		3.447e-03		-48.359		1.321e-03		34.566
5		0.00		-7.20		1.958e-03		-7.019		7.931e-04		66.463
5		0.00		-7.60		3.777e-03		92.078		1.433e-03		48.397
5		0.00		-8.00		6.566e-03		125.438		2.132e-03		19.910
5		0.00		-8.40		8.930e-03		122.713		2.439e-03		24.697
5		0.00		-8.80		1.092e-02		124.002		3.062e-03		15.824
5		0.00		-9.20		1.344e-02		121.516		3.510e-03		9.924
5		0.00		-9.60		1.486e-02		125.779		3.393e-03		9.131
5		0.00		-10.00		1.616e-02		124.822		3.569e-03		9.730
5		0.00		-9.60		1.650e-02		124.454		3.782e-03		10.499
5		0.00		-9.20		1.658e-02		126.869		4.024e-03		13.474
5		0.00		-8.80		1.661e-02		125.402		4.594e-03		16.200
5		0.00		-8.40		1.689e-02		127.122		4.280e-03		11.436
5		0.00		-8.00		1.694e-02		126.113		3.990e-03		8.402
5		0.00		-7.60		1.643e-02		125.165		3.388e-03		9.212
5		0.00		-7.20		1.638e-02		123.972		3.295e-03		9.216
5		0.00		-6.80		1.525e-02		126.493		3.551e-03		11.578
5		0.00		-6.40		1.488e-02		125.263		3.953e-03		18.078
5		0.00		-6.00		1.441e-02		126.978		3.893e-03		13.170
5		0.00		-5.60		1.435e-02		125.208		3.618e-03		9.405
5		0.00		-5.20		1.478e-02		126.720		3.185e-03		8.918
5		0.00		-4.80		1.414e-02		126.852		2.939e-03		10.020
5		0.00		-4.40		1.394e-02		126.292		2.881e-03		9.615
5		0.00		-4.00		1.317e-02		125.052		3.207e-03		11.204
5		0.00		-3.60		1.284e-02		128.751		3.360e-03		14.922
5		0.00		-3.20		1.220e-02		122.753		2.979e-03		12.069
5		0.00		-2.80		1.212e-02		124.392		2.906e-03		10.518
5		0.00		-2.40		1.224e-02		126.588		2.485e-03		9.373
5		0.00		-2.00		1.213e-02		123.752		2.500e-03		9.603
5		0.00		-1.60		1.158e-02		126.659		2.542e-03		12.103
5		0.00		-1.20		1.122e-02		125.833		2.746e-03		17.750
5		0.00		-0.80		1.105e-02		124.532		2.805e-03		13.539
5		0.00		-0.40		1.109e-02		125.917		2.593e-03		11.899
6		0.00		0.00		1.089e-02		124.252		2.306e-03		11.771
6		0.00		0.40		1.052e-02		123.133		2.066e-03		10.116
6		0.00		0.80		1.021e-02		127.274		2.324e-03		11.946
6		0.00		1.20		9.882e-03		120.182		2.603e-03		20.372
6		0.00		1.60		9.266e-03		123.339		2.675e-03		14.889
6		0.00		2.00		8.418e-03		125.956		2.119e-03		13.131
6		0.00		2.40		8.080e-03		130.054		1.948e-03		11.874
6		0.00		2.80		7.240e-03		130.094		1.616e-03		15.116
6		0.00		3.20		6.170e-03		123.797		1.611e-03		13.432
6		0.00		3.60		5.346e-03		123.408		1.576e-03		28.314
6		0.00		4.00		4.494e-03		121.621		1.532e-03		20.295
6		0.00		4.40		3.723e-03		112.715		1.264e-03		54.019
6		0.00		4.80		2.705e-03		91.382		1.107e-03		69.797
6		0.00		5.20		2.149e-03		78.357		8.771e-04		74.903
6		0.00		5.60		1.921e-03		24.283		8.467e-04		86.613
6		0.00		6.00		1.794e-03		-14.882		7.007e-04		71.995
6		0.00		6.40		2.720e-03		-47.367		1.144e-03		39.683
6		0.00		6.80		3.471e-03		-48.195		1.196e-03		27.470
6		0.00		7.20		5.030e-03		-53.502		1.467e-03		19.993
6		0.00		7.60		6.500e-03		-47.248		1.670e-03		15.977
6		0.00		8.00		8.406e-03		-46.543		1.984e-03		12.530
6		0.00		8.40		1.004e-02		-48.373		2.615e-03		12.402
6		0.00		8.80		1.258e-02		-53.007		3.470e-03		14.572
6		0.00		9.20		1.507e-02		-53.103		3.936e-03		11.616
6		0.00		9.60		1.878e-02		-52.246		4.323e-03		9.875
6		0.00		10.00		2.190e-02		-55.174		4.375e-03		8.651
6		0.00		9.60		2.331e-02		-51.540		5.259e-03		10.547
6		0.00		9.20		2.406e-02		-51.421		6.178e-03		12.869
6		0.00		8.80		2.407e-02		-52.794		6.622e-03		11.848
6		0.00		8.40		2.480e-02		-51.566		6.289e-03		9.642
6		0.00		8.00		2.539e-02		-54.215		5.259e-03		7.486
6		0.00		7.60		2.578e-02		-52.098		5.126e-03		8.511
6		0.00		7.20		2.562e-02		-52.264		4.883e-03		9.390
6		0.00		6.80		2.457e-02		-51.860		5.848e-03		11.687
6		0.00		6.40		2.459e-02		-52.620		6.106e-03		13.148
6		0.00		6.00		2.384e-02		-49.446		6.294e-03		7.950
6		0.00		5.60		2.424e-02		-53.617		5.587e-03		8.904
6		0.00		5.20		2.466e-02		-53.401		4.605e-03		7.726
6		0.00		4.80		2.429e-02		-52.683		4.401e-03		8.731
6		0.00		4.40		2.364e-02		-51.258		5.010e-03		9.670
6		0.00		4.00		2.304e-02		-50.915		5.279e-03		11.796
6		0.00		3.60		2.336e-02		-50.688		5.642e-03		13.373
6		0.00		3.20		2.297e-02		-50.147		5.699e-03		8.809
6		0.00		2.80		2.325e-02		-51.578		5.274e-03		8.392
6		0.00		2.40		2.369e-02		-49.714		4.434e-03		7.601
6		0.00		2.00		2.303e-02		-51.168		4.970e-03		10.864
6		0.00		1.60		2.276e-02		-50.151		5.527e-03		12.643
6		0.00		1.20		2.185e-02		-54.854		6.133e-03		16.351
6		0.00		0.80		2.213e-02		-51.591		6.496e-03		10.623
6		0.00		0.40		2.207e-02		-50.194		5.469e-03		8.470
6		0.00		0.00		2.266e-02		-51.980		4.836e-03		10.039
6		0.00		-0.40		2.223e-02		-50.963		5.133e-03		10.504
6		0.00		-0.80		2.175e-02		-52.319		5.469e-03		11.218
6		0.00		-1.20		2.150e-02		-50.130		5.643e-03		14.798
6		0.00		-1.60		2.113e-02		-52.264		5.689e-03		12.587
6		0.00		-2.00		2.173e-02		-49.592		5.060e-03		8.739
6		0.00		-2.40		2.232e-02		-51.733		4.261e-03		8.326
6		0.00		-2.80		2.164e-02		-51.897		4.256e-03		9.800
6		0.00		-3.20		2.054e-02		-48.780		4.076e-03		9.605
6		0.00		-3.60		1.890e-02		-50.468		4.341e-03		14.979
6		0.00		-4.00		1.797e-02		-51.262		4.668e-03		9.828
6		0.00		-4.40		1.714e-02		-50.712		3.824e-03		9.407
6		0.00		-4.80		1.522e-02		-49.160		3.297e-03		10.812
6		0.00		-5.20		1.427e-02		-50.095		2.782e-03		10.457
6		0.00		-5.60		1.168e-02		-48.102		2.692e-03		13.002
6		0.00		-6.00		8.931e-03		-46.723		2.413e-03		15.275
6		0.00		-6.40		6.579e-03		-49.418		2.023e-03		14.878
6		0.00		-6.80		4.203e-03		-43.110		1.469e-03		24.195
6		0.00		-7.20		1.936e-03		-16.336		7.599e-04		57.744
6		0.00		-7.60		3.126e-03		95.846		1.398e-03		52.908
6		0.00		-8.00		6.413e-03		124.372		1.840e-03		16.488
6		0.00		-8.40		9.115e-03		121.169		2.496e-03		21.558
6		0.00		-8.80		1.115e-02		122.916		2.988e-03		13.816
6		0.00		-9.20		1.307e-02		123.568		3.324e-03		10.649
6		0.00		-9.60		1.399e-02		125.595		3.164e-03		11.122
6		0.00		-10.00		1.573e-02		126.160		3.581e-03		10.732
6		0.00		-9.60		1.630e-02		126.229		3.914e-03		14.378
6		0.00		-9.20		1.623e-02		122.394		4.088e-03		19.052
6		0.00		-8.80		1.670e-02		127.176		3.939e-03		9.943
6		0.00		-8.40		1.642e-02		126.221		3.059e-03		8.619
6		0.00		-8.00		1.620e-02		124.955		3.162e-03		9.977
6		0.00		-7.60		1.571e-02		127.910		3.362e-03		10.100
6		0.00		-7.20		1.506e-02		126.568		3.882e-03		15.180
6		0.00		-6.80		1.466e-02		126.957		3.781e-03		11.662
6		0.00		-6.40		1.494e-02		125.009		3.430e-03		7.889
6		0.00		-6.00		1.450e-02		125.286		2.825e-03		8.645
6		0.00		-5.60		1.409e-02		127.553		2.798e-03		9.064
6		0.00		-5.20		1.393e-02		126.496		3.201e-03		13.293
6		0.00		-4.80		1.279e-02		119.739		3.405e-03		20.750
6		0.00		-4.40		1.295e-02		124.205		3.568e-03		16.764
6		0.00		-4.00		1.278e-02		126.466		2.968e-03		10.677
6		0.00		-3.60		1.262e-02		125.700		2.794e-03		10.595
6		0.00		-3.20		1.252e-02		125.063		3.099e-03		11.360
6		0.00		-2.80		1.128e-02		120.379		3.327e-03		17.724
6		0.00		-2.40		1.118e-02		121.870		3.484e-03		15.449
6		0.00		-2.00		1.111e-02		124.149		2.985e-03		9.687
6		0.00		-1.60		1.115e-02		124.943		2.524e-03		10.380
6		0.00		-1.20		1.106e-02		125.293		2.549e-03		10.013
6		0.00		-0.80		1.066e-02		123.836		2.624e-03		14.349
6		0.00		-0.40		1.038e-02		124.457		2.628e-03		18.617
7		0.00		0.00		1.028e-02		123.220		2.566e-03		11.005
7		0.00		0.40		1.002e-02		126.688		2.169e-03		10.935
7		0.00		0.80		1.009e-02		127.556		2.302e-03		11.706
7		0.00		1.20		9.706e-03		123.670		2.163e-03		13.085
7		0.00		1.60		8.594e-03		124.326		2.241e-03		19.087
7		0.00		2.00		7.963e-03		121.939		2.364e-03		17.413
7		0.00		2.40		7.384e-03		127.684		1.918e-03		12.854
7		0.00		2.80		6.866e-03		127.049		1.465e-03		14.241
7		0.00		3.20		5.693e-03		129.725		1.488e-03		15.129
7		0.00		3.60		5.127e-03		122.508		1.567e-03		20.480
7		0.00		4.00		4.471e-03		112.675		1.453e-03		44.338
7		0.00		4.40		3.506e-03		112.775		1.204e-03		34.593
7		0.00		4.80		2.665e-03		103.849		1.107e-03		49.862
7		0.00		5.20		2.135e-03		50.304		8.616e-04		74.404
7		0.00		5.60		1.950e-03		24.579		6.871e-04		79.918
7		0.00		6.00		1.856e-03		-34.457		7.589e-04		64.226
7		0.00		6.40		2.491e-03		-59.589		9.018e-04		56.220
7		0.00		6.80		3.493e-03		-47.795		1.275e-03		34.678
7		0.00		7.20		5.103e-03		-54.779		1.614e-03		18.158
7		0.00		7.60		6.492e-03		-57.415		1.627e-03		15.918
7		0.00		8.00		7.701e-03		-51.608		1.933e-03		14.457
7		0.00		8.40		9.612e-03		-49.774		2.445e-03		14.383
7		0.00		8.80		1.130e-02		-48.089		3.177e-03		15.610
7		0.00		9.20		1.411e-02		-51.261		3.750e-03		9.775
7		0.00		9.60		1.680e-02		-52.581		3.981e-03		10.522
7		0.00		10.00		1.989e-02		-51.106		4.410e-03		10.368
7		0.00		9.60		2.137e-02		-51.223		4.505e-03		10.120
7		0.00		9.20		2.146e-02		-49.861		5.533e-03		10.677
7		0.00		8.80		2.140e-02		-51.871		5.684e-03		15.121
7		0.00		8.40		2.227e-02		-53.906		6.199e-03		14.512
7		0.00		8.00		2.244e-02		-50.424		6.160e-03		8.893
7		0.00		7.60		2.249e-02		-53.168		5.562e-03		9.192
7		0.00		7.20		2.185e-02		-52.327		5.436e-03		10.727
7		0.00		6.80		2.122e-02		-50.655		5.651e-03		12.922
7		0.00		6.40		2.029e-02		-54.413		6.192e-03		17.110
7		0.00		6.00		2.058e-02		-55.251		6.451e-03		18.442
7		0.00		5.60		2.067e-02		-50.241		6.837e-03		9.784
7		0.00		5.20		2.054e-02		-52.765		5.853e-03		8.587
7		0.00		4.80		2.097e-02		-51.656		5.330e-03		8.738
7		0.00		4.40		2.035e-02		-53.103		5.348e-03		10.949
7		0.00		4.00		2.046e-02		-54.043		5.375e-03		12.312
7		0.00		3.60		2.013e-02		-52.921		5.350e-03		13.731
7		0.00		3.20		2.007e-02		-48.284		5.994e-03		13.593
7		0.00		2.80		2.037e-02		-50.658		5.562e-03		9.759
7		0.00		2.40		2.059e-02		-51.508		4.903e-03		7.590
7		0.00		2.00		2.062e-02		-55.156		4.555e-03		9.910
7		0.00		1.60		2.040e-02		-51.557		4.498e-03		10.549
7		0.00		1.20		2.067e-02		-51.217		4.879e-03		11.009
7		0.00		0.80		1.999e-02		-51.467		5.099e-03		15.228
7		0.00		0.40		2.002e-02		-51.249		5.457e-03		15.762
7		0.00		0.00		2.054e-02		-52.276		5.388e-03		10.122
7		0.00		-0.40		2.072e-02		-51.346		4.870e-03		9.762
7		0.00		-0.80		2.010e-02		-53.068		4.369e-03		9.616
7		0.00		-1.20		1.979e-02		-53.124		5.024e-03		10.431
7		0.00		-1.60		1.878e-02		-51.394		5.252e-03		12.638
7		0.00		-2.00		1.795e-02		-52.346		5.665e-03		15.873
7		0.00		-2.40		1.785e-02		-49.483		5.700e-03		12.720
7		0.00		-2.80		1.829e-02		-51.905		5.064e-03		9.784
7		0.00		-3.20		1.783e-02		-52.662		4.553e-03		8.069
7		0.00		-3.60		1.732e-02		-51.923		4.318e-03		10.679
7		0.00		-4.00		1.623e-02		-50.972		4.212e-03		12.496
7		0.00		-4.40		1.480e-02		-49.099		4.211e-03		14.101
7		0.00		-4.80		1.353e-02		-47.359		3.891e-03		15.020
7		0.00		-5.20		1.236e-02		-50.612		3.562e-03		11.199
7		0.00		-5.60		1.054e-02		-51.829		2.624e-03		11.954
7		0.00		-6.00		7.878e-03		-54.472		2.002e-03		13.275
7		0.00		-6.40		6.321e-03		-45.946		1.866e-03		17.001
7		0.00		-6.80		3.197e-03		-47.039		1.449e-03		29.289
7		0.00		-7.20		1.799e-03		-0.122		7.144e-04		76.708
7		0.00		-7.60		3.580e-03		100.731		1.409e-03		39.189
7		0.00		-8.00		6.517e-03		119.759		2.140e-03		20.584
7		0.00		-8.40		8.953e-03		125.772		2.282e-03		12.543
7		0.00		-8.80		1.116e-02		124.708		2.690e-03		11.596
7		0.00		-9.20		1.236e-02		122.404		3.438e-03		16.490
7		0.00		-9.60		1.421e-02		122.378		4.182e-03		19.060
7		0.00		-10.00		1.555e-02		121.323		5.032e-03		18.044
7		0.00		-9.60		1.634e-02		125.975		4.810e-03		7.762
7		0.00		-9.20		1.649e-02		123.954		4.545e-03		9.608
7		0.00		-8.80		1.682e-02		124.700		4.381e-03		9.651
7		0.00		-8.40		1.575e-02		124.714		3.960e-03		11.508
7		0.00		-8.00		1.602e-02		125.584		4.399e-03		13.266
7		0.00		-7.60		1.513e-02		123.450		4.353e-03		23.578
7		0.00		-7.20		1.496e-02		124.265		4.648e-03		18.492
7		0.00		-6.80		1.501e-02		126.056		4.122e-03		10.240
7		0.00		-6.40		1.488e-02		124.496		3.756e-03		9.789
7		0.00		-6.00		1.472e-02		126.150		3.214e-03		8.734
7		0.00		-5.60		1.434e-02		126.785		3.235e-03		10.650
7		0.00		-5.20		1.415e-02		123.643		3.438e-03		10.620
7		0.00		-4.80		1.358e-02		126.231		3.075e-03		9.698
7		0.00		-4.40		1.323e-02		125.252		3.408e-03		18.965
7		0.00		-4.00		1.278e-02		124.321		3.707e-03		20.349
7		0.00		-3.60		1.271e-02		127.481		3.321e-03		11.873
7		0.00		-3.20		1.274e-02		125.949		3.121e-03		9.600
7		0.00		-2.80		1.208e-02		126.587		2.879e-03		9.485
7		0.00		-2.40		1.225e-02		130.270		2.550e-03		10.337
7		0.00		-2.00		1.217e-02		126.152		2.534e-03		10.333
7		0.00		-1.60		1.137e-02		125.522		2.507e-03		10.926
7		0.00		-1.20		1.118e-02		126.268		2.924e-03		11.917
7		0.00		-0.80		1.092e-02		125.096		3.163e-03		18.811
7		0.00		-0.40		1.080e-02		121.403		3.064e-03		19.845
8		0.00		0.00		1.067e-02		129.175		2.972e-03		14.233
8		0.00		0.40		1.048e-02		128.733		2.658e-03		9.224
8		0.00		0.80		1.047e-02		125.443		2.547e-03		12.488
8		0.00		1.20		1.023e-02		125.623		2.063e-03		12.054
8		0.00		1.60		9.919e-03		128.592		2.281e-03		11.501
8		0.00		2.00		9.102e-03		126.999		2.158e-03		11.737
8		0.00		2.40		8.415e-03		125.728		1.838e-03		17.229
8		0.00		2.80		7.414e-03		123.061		2.057e-03		24.952
8		0.00		3.20		6.886e-03		125.236		1.977e-03		18.443
8		0.00		3.60		6.124e-03		125.226		1.697e-03		17.676
8		0.00		4.00		5.390e-03		125.183		1.540e-03		19.289
8		0.00		4.40		4.165e-03		117.342		1.395e-03		33.407
8		0.00		4.80		3.557e-03		121.058		1.192e-03		32.907
8		0.00		5.20		2.711e-03		92.454		1.056e-03		63.996
8		0.00		5.60		2.330e-03		65.964		9.769e-04		77.681
8		0.00		6.00		1.641e-03		8.176		6.942e-04		76.592
8		0.00		6.40		1.714e-03		-31.706		8.517e-04		61.364
8		0.00		6.80		3.131e-03		-56.928		1.228e-03		34.442
8		0.00		7.20		3.909e-03		-52.929		1.338e-03		23.907
8		0.00		7.60		6.252e-03		-54.046		1.544e-03		15.256
8		0.00		8.00		7.769e-03		-55.579		1.934e-03		14.341
8		0.00		8.40		9.009e-03		-53.124		2.444e-03		17.244
8		0.00		8.80		1.135e-02		-47.857		3.072e-03		13.839
8		0.00		9.20		1.258e-02		-52.176		3.827e-03		15.555
8		0.00		9.60		1.589e-02		-50.913		4.454e-03		11.299
8		0.00		10.00		1.937e-02		-51.081		4.566e-03		8.871
8		0.00		9.60		2.193e-02		-50.537		4.124e-03		8.101
8		0.00		9.20		2.260e-02		-53.596		4.326e-03		7.094
8		0.00		8.80		2.309e-02		-51.066		4.888e-03		9.710
8		0.00		8.40		2.276e-02		-51.046		4.616e-03		10.307
8		0.00		8.00		2.231e-02		-52.076		5.400e-03		14.207
8		0.00		7.60		2.270e-02		-51.804		5.678e-03		11.411
8		0.00		7.20		2.268e-02		-50.103		5.453e-03		8.843
8		0.00		6.80		2.241e-02		-53.122		4.957e-03		9.119
8		0.00		6.40		2.311e-02		-52.239		4.155e-03		8.274
8		0.00		6.00		2.273e-02		-51.976		4.284e-03		8.966
8		0.00		5.60		2.258e-02		-50.624		4.380e-03		9.239
8		0.00		5.20		2.204e-02		-51.085		4.984e-03		11.061
8		0.00		4.80		2.139e-02		-51.785		5.477e-03		12.883
8		0.00		4.40		2.105e-02		-49.915		5.417e-03		10.724
8		0.00		4.00		2.153e-02		-51.296		4.815e-03		9.165
8		0.00		3.60		2.186e-02		-51.188		4.262e-03		8.172
8		0.00		3.20		2.206e-02		-50.773		3.961e-03		8.743
8		0.00		2.80		2.201e-02		-49.720		4.105e-03		8.773
8		0.00		2.40		2.180e-02		-51.351		4.166e-03		8.517
8		0.00		2.00		2.133e-02		-50.925		5.019e-03		11.071
8		0.00		1.60		2.104e-02		-48.771		5.026e-03		8.647
8		0.00		1.20		2.144e-02		-50.758		4.932e-03		8.452
8		0.00		0.80		2.172e-02		-51.204		4.202e-03		8.461
8		0.00		0.40		2.189e-02		-50.162		3.754e-03		8.563
8		0.00		0.00		2.204e-02		-51.543		4.002e-03		8.448
8		0.00		-0.40		2.200e-02		-50.724		3.671e-03		8.821
8		0.00		-0.80		2.131e-02		-49.541		3.955e-03		8.924
8		0.00		-1.20		2.064e-02		-47.854		4.186e-03		11.887
8		0.00		-1.60		2.019e-02		-49.886		4.661e-03		8.965
8		0.00		-2.00		2.025e-02		-48.534		4.659e-03		10.884
8		0.00		-2.40		2.041e-02		-50.977		4.306e-03		8.289
8		0.00		-2.80		2.031e-02		-51.288		3.944e-03		7.884
8		0.00		-3.20		1.980e-02		-51.238		3.827e-03		8.099
8		0.00		-3.60		1.860e-02		-51.035		3.797e-03		11.303
8		0.00		-4.00		1.757e-02		-53.008		3.796e-03		11.922
8		0.00		-4.40		1.616e-02		-51.096		3.899e-03		12.346
8		0.00		-4.80		1.458e-02		-49.589		4.025e-03		12.476
8		0.00		-5.20		1.316e-02		-49.548		3.673e-03		11.585
8		0.00		-5.60		1.125e-02		-50.830		2.821e-03		12.290
8		0.00		-6.00		9.023e-03		-47.959		2.254e-03		14.358
8		0.00		-6.40		5.781e-03		-46.486		1.537e-03		19.345
8		0.00		-6.80		3.156e-03		-49.861		1.081e-03		32.839
8		0.00		-7.20		1.757e-03		17.959		7.103e-04		74.709
8		0.00		-7.60		4.568e-03		119.742		1.443e-03		36.423
8		0.00		-8.00		6.937e-03		123.305		2.145e-03		20.479
8		0.00		-8.40		8.739e-03		120.408		2.759e-03		23.991
8		0.00		-8.80		1.137e-02		125.414		3.043e-03		12.091
8		0.00		-9.20		1.281e-02		123.383		3.058e-03		9.674
8		0.00		-9.60		1.453e-02		124.821		3.333e-03		10.308
8		0.00		-10.00		1.566e-02		124.216		3.243e-03		7.705
8		0.00		-9.60		1.674e-02		127.066		3.384e-03		10.534
8		0.00		-9.20		1.675e-02		124.420		3.643e-03		9.091
8		0.00		-8.80		1.619e-02		126.662		3.862e-03		11.497
8		0.00		-8.40		1.551e-02		125.797		4.112e-03		16.804
8		0.00		-8.00		1.549e-02		123.675		4.413e-03		17.677
8		0.00		-7.60		1.502e-02		125.222		4.017e-03		12.885
8		0.00		-7.20		1.487e-02		124.252		3.706e-03		8.731
8		0.00		-6.80		1.459e-02		125.916		3.570e-03		8.660
8		0.00		-6.40		1.464e-02		124.730		3.262e-03		8.382
8		0.00		-6.00		1.413e-02		126.897		3.154e-03		10.874
8		0.00		-5.60		1.374e-02		128.497		3.255e-03		10.694
8		0.00		-5.20		1.360e-02		129.183		3.195e-03		13.470
8		0.00		-4.80		1.353e-02		126.334		3.400e-03		19.181
8		0.00		-4.40		1.263e-02		126.006		3.459e-03		17.679
8		0.00		-4.00		1.284e-02		125.359		3.400e-03		13.061
8		0.00		-3.60		1.260e-02		123.241		3.046e-03		10.638
8		0.00		-3.20		1.235e-02		124.840		2.855e-03		10.765
8		0.00		-2.80		1.220e-02		126.231		2.681e-03		9.627
8		0.00		-2.40		1.208e-02		127.119		2.412e-03		9.655
8		0.00		-2.00		1.177e-02		125.317		2.356e-03		9.668
8		0.00		-1.60		1.134e-02		127.025		2.673e-03		12.068
8		0.00		-1.20		1.143e-02		125.694		2.719e-03		17.017
8		0.00		-0.80		1.069e-02		124.939		2.950e-03		23.241
8		0.00		-0.40		1.033e-02		124.253		2.950e-03		16.229
