# Date of analysis: 2023-11-20 16;15
# 
# Loop index	Read Volt (V)	Write Volt (V)	Amplitude (a.u)	Phase (deg)	Sigma Amp (a.u)	Sigma Pha (deg)	
1		0.00		0.00		1.725e-02		-46.852		4.958e-03		18.602
1		0.00		0.40		1.720e-02		-46.942		4.767e-03		18.772
1		0.00		0.80		1.783e-02		-46.589		5.486e-03		19.098
1		0.00		1.20		1.756e-02		-47.065		5.387e-03		18.592
1		0.00		1.60		1.827e-02		-48.003		5.271e-03		18.180
1		0.00		2.00		1.801e-02		-44.057		5.600e-03		20.105
1		0.00		2.40		1.817e-02		-42.972		5.819e-03		20.376
1		0.00		2.80		1.905e-02		-47.483		6.492e-03		21.613
1		0.00		3.20		1.935e-02		-43.741		6.755e-03		24.491
1		0.00		3.60		2.067e-02		-49.669		6.709e-03		22.423
1		0.00		4.00		2.092e-02		-49.001		6.713e-03		21.655
1		0.00		4.40		2.217e-02		-46.066		6.830e-03		20.667
1		0.00		4.80		2.345e-02		-47.106		6.636e-03		18.796
1		0.00		5.20		2.478e-02		-46.420		7.447e-03		17.910
1		0.00		5.60		2.567e-02		-46.448		8.433e-03		17.703
1		0.00		6.00		2.710e-02		-48.123		8.669e-03		19.217
1		0.00		6.40		2.650e-02		-48.450		8.573e-03		22.585
1		0.00		6.80		2.718e-02		-45.158		8.914e-03		23.031
1		0.00		7.20		2.625e-02		-49.023		9.335e-03		22.584
1		0.00		7.60		2.592e-02		-47.806		9.191e-03		27.079
1		0.00		8.00		2.735e-02		-47.928		9.401e-03		28.710
1		0.00		8.40		2.882e-02		-48.847		1.014e-02		23.973
1		0.00		8.80		2.946e-02		-51.503		9.679e-03		21.235
1		0.00		9.20		2.977e-02		-48.494		8.880e-03		19.965
1		0.00		9.60		2.989e-02		-45.960		8.737e-03		19.347
1		0.00		10.00		3.071e-02		-46.558		9.051e-03		18.808
1		0.00		9.60		3.016e-02		-46.931		8.906e-03		17.909
1		0.00		9.20		2.886e-02		-48.464		7.945e-03		19.990
1		0.00		8.80		2.728e-02		-46.736		7.947e-03		21.865
1		0.00		8.40		2.635e-02		-48.045		8.480e-03		20.805
1		0.00		8.00		2.382e-02		-49.015		8.238e-03		20.728
1		0.00		7.60		2.237e-02		-46.167		7.560e-03		24.174
1		0.00		7.20		2.125e-02		-43.017		7.901e-03		26.416
1		0.00		6.80		2.007e-02		-47.151		7.274e-03		27.661
1		0.00		6.40		1.867e-02		-45.489		6.439e-03		26.707
1		0.00		6.00		1.827e-02		-44.117		5.855e-03		25.541
1		0.00		5.60		1.811e-02		-42.514		5.500e-03		25.005
1		0.00		5.20		1.802e-02		-42.636		5.975e-03		22.159
1		0.00		4.80		1.715e-02		-39.618		6.417e-03		24.382
1		0.00		4.40		1.734e-02		-39.236		6.738e-03		27.626
1		0.00		4.00		1.725e-02		-33.214		6.888e-03		30.072
1		0.00		3.60		1.688e-02		-35.011		6.721e-03		31.398
1		0.00		3.20		1.626e-02		-40.459		6.688e-03		27.323
1		0.00		2.80		1.553e-02		-38.376		6.272e-03		25.817
1		0.00		2.40		1.537e-02		-42.003		6.281e-03		28.099
1		0.00		2.00		1.420e-02		-37.578		5.736e-03		34.674
1		0.00		1.60		1.418e-02		-35.342		4.973e-03		32.031
1		0.00		1.20		1.421e-02		-37.024		4.757e-03		28.754
1		0.00		0.80		1.483e-02		-43.342		4.658e-03		24.390
1		0.00		0.40		1.528e-02		-43.317		5.141e-03		21.580
1		0.00		0.00		1.623e-02		-46.063		5.646e-03		24.329
1		0.00		-0.40		1.700e-02		-41.818		6.161e-03		27.558
1		0.00		-0.80		1.750e-02		-44.687		6.391e-03		19.447
1		0.00		-1.20		1.743e-02		-42.162		6.665e-03		20.650
1		0.00		-1.60		1.742e-02		-49.815		6.493e-03		22.377
1		0.00		-2.00		1.677e-02		-48.220		6.281e-03		25.075
1		0.00		-2.40		1.631e-02		-50.057		5.897e-03		26.365
1		0.00		-2.80		1.638e-02		-47.805		5.521e-03		25.744
1		0.00		-3.20		1.648e-02		-50.412		4.755e-03		20.290
1		0.00		-3.60		1.666e-02		-45.835		4.549e-03		18.785
1		0.00		-4.00		1.548e-02		-43.553		4.710e-03		18.009
1		0.00		-4.40		1.455e-02		-49.198		4.570e-03		16.538
1		0.00		-4.80		1.448e-02		-50.023		4.322e-03		17.120
1		0.00		-5.20		1.364e-02		-45.407		4.630e-03		14.876
1		0.00		-5.60		1.268e-02		-48.816		4.667e-03		15.648
1		0.00		-6.00		1.156e-02		-46.898		4.782e-03		15.514
1		0.00		-6.40		1.111e-02		-45.223		4.579e-03		19.085
1		0.00		-6.80		9.667e-03		-49.045		4.193e-03		30.635
1		0.00		-7.20		9.297e-03		-46.748		3.737e-03		21.289
1		0.00		-7.60		8.208e-03		-37.645		3.469e-03		19.800
1		0.00		-8.00		7.655e-03		-29.680		3.486e-03		22.376
1		0.00		-8.40		6.925e-03		-32.516		3.191e-03		20.655
1		0.00		-8.80		6.247e-03		-30.897		2.904e-03		23.777
1		0.00		-9.20		5.407e-03		-27.758		2.932e-03		33.133
1		0.00		-9.60		5.899e-03		-26.746		2.995e-03		31.750
1		0.00		-10.00		5.720e-03		-22.447		3.149e-03		30.058
1		0.00		-9.60		5.121e-03		-34.177		2.884e-03		33.313
1		0.00		-9.20		5.535e-03		-34.469		3.020e-03		27.745
1		0.00		-8.80		5.200e-03		-34.092		2.824e-03		26.691
1		0.00		-8.40		5.256e-03		-28.550		2.698e-03		35.188
1		0.00		-8.00		4.899e-03		-26.761		2.811e-03		42.120
1		0.00		-7.60		5.062e-03		-26.891		2.959e-03		39.666
1		0.00		-7.20		4.706e-03		-24.632		2.580e-03		50.231
1		0.00		-6.80		5.457e-03		-20.521		3.318e-03		35.814
1		0.00		-6.40		5.500e-03		-32.606		3.108e-03		31.774
1		0.00		-6.00		5.626e-03		-27.807		3.443e-03		36.436
1		0.00		-5.60		5.585e-03		-37.088		3.075e-03		31.556
1		0.00		-5.20		5.855e-03		-38.142		3.154e-03		29.946
1		0.00		-4.80		5.630e-03		-37.777		2.812e-03		28.712
1		0.00		-4.40		5.980e-03		-40.196		2.956e-03		30.107
1		0.00		-4.00		5.670e-03		-46.099		3.114e-03		30.652
1		0.00		-3.60		5.381e-03		-52.315		2.916e-03		27.275
1		0.00		-3.20		5.429e-03		-48.887		2.894e-03		29.062
1		0.00		-2.80		5.907e-03		-49.940		3.069e-03		30.479
1		0.00		-2.40		6.351e-03		-48.521		3.308e-03		31.128
1		0.00		-2.00		6.630e-03		-48.167		3.446e-03		30.636
1		0.00		-1.60		6.619e-03		-53.209		3.284e-03		35.694
1		0.00		-1.20		6.288e-03		-52.807		3.014e-03		26.313
1		0.00		-0.80		6.277e-03		-56.182		3.064e-03		29.295
1		0.00		-0.40		6.106e-03		-62.757		2.789e-03		27.481
2		0.00		0.00		4.538e-03		20.366		1.967e-03		67.515
2		0.00		0.40		6.316e-03		42.851		3.266e-03		71.301
2		0.00		0.80		5.712e-03		50.904		2.730e-03		69.383
2		0.00		1.20		7.980e-03		57.116		4.388e-03		60.065
2		0.00		1.60		6.611e-03		52.392		3.398e-03		69.732
2		0.00		2.00		6.514e-03		37.563		3.131e-03		71.968
2		0.00		2.40		5.411e-03		32.660		2.754e-03		72.768
2		0.00		2.80		4.726e-03		26.636		2.224e-03		73.718
2		0.00		3.20		4.441e-03		0.435		2.199e-03		76.600
2		0.00		3.60		4.878e-03		2.286		2.514e-03		75.627
2		0.00		4.00		5.367e-03		-5.608		3.259e-03		68.197
2		0.00		4.40		6.299e-03		-25.706		4.119e-03		54.721
2		0.00		4.80		7.774e-03		-22.789		5.160e-03		57.667
2		0.00		5.20		8.319e-03		-24.519		5.633e-03		48.993
2		0.00		5.60		9.939e-03		-21.779		6.583e-03		46.334
2		0.00		6.00		1.077e-02		-25.151		7.032e-03		39.130
2		0.00		6.40		1.131e-02		-32.446		7.534e-03		33.672
2		0.00		6.80		1.305e-02		-40.115		7.776e-03		25.075
2		0.00		7.20		1.264e-02		-40.943		8.160e-03		32.086
2		0.00		7.60		1.422e-02		-50.471		7.754e-03		29.199
2		0.00		8.00		1.453e-02		-44.379		7.143e-03		26.775
2		0.00		8.40		1.551e-02		-48.231		7.043e-03		25.685
2		0.00		8.80		1.687e-02		-40.617		6.689e-03		21.075
2		0.00		9.20		1.669e-02		-42.072		7.191e-03		23.255
2		0.00		9.60		1.749e-02		-37.930		7.713e-03		26.485
2		0.00		10.00		1.856e-02		-38.142		7.595e-03		30.822
2		0.00		9.60		1.878e-02		-40.043		8.107e-03		27.560
2		0.00		9.20		1.741e-02		-45.292		8.930e-03		29.023
2		0.00		8.80		1.750e-02		-50.715		8.549e-03		28.254
2		0.00		8.40		1.657e-02		-50.047		8.020e-03		27.818
2		0.00		8.00		1.629e-02		-55.382		7.975e-03		28.217
2		0.00		7.60		1.462e-02		-50.956		6.709e-03		27.763
2		0.00		7.20		1.462e-02		-48.579		6.054e-03		23.324
2		0.00		6.80		1.517e-02		-48.487		6.003e-03		22.539
2		0.00		6.40		1.581e-02		-44.658		6.262e-03		20.408
2		0.00		6.00		1.604e-02		-47.795		6.415e-03		20.186
2		0.00		5.60		1.684e-02		-44.976		6.680e-03		23.913
2		0.00		5.20		1.698e-02		-40.138		6.999e-03		27.029
2		0.00		4.80		1.743e-02		-43.495		6.532e-03		26.092
2		0.00		4.40		1.809e-02		-45.580		7.010e-03		20.420
2		0.00		4.00		1.726e-02		-50.778		6.824e-03		24.478
2		0.00		3.60		1.715e-02		-47.558		7.451e-03		27.863
2		0.00		3.20		1.769e-02		-56.676		6.704e-03		26.632
2		0.00		2.80		1.877e-02		-55.413		6.450e-03		24.424
2		0.00		2.40		1.778e-02		-52.628		5.939e-03		21.569
2		0.00		2.00		1.830e-02		-49.336		5.652e-03		21.676
2		0.00		1.60		1.901e-02		-48.415		5.062e-03		18.363
2		0.00		1.20		1.995e-02		-47.678		5.025e-03		12.921
2		0.00		0.80		2.062e-02		-45.329		5.595e-03		13.018
2		0.00		0.40		2.127e-02		-47.473		5.443e-03		12.772
2		0.00		0.00		2.171e-02		-47.541		5.618e-03		13.369
2		0.00		-0.40		2.159e-02		-47.896		6.154e-03		14.589
2		0.00		-0.80		2.246e-02		-48.375		6.519e-03		15.129
2		0.00		-1.20		2.187e-02		-47.918		6.919e-03		14.360
2		0.00		-1.60		2.164e-02		-46.700		6.657e-03		15.594
2		0.00		-2.00		2.017e-02		-47.447		6.463e-03		23.923
2		0.00		-2.40		1.916e-02		-44.202		6.625e-03		30.026
2		0.00		-2.80		1.713e-02		-51.410		5.880e-03		26.091
2		0.00		-3.20		1.647e-02		-54.305		5.665e-03		23.517
2		0.00		-3.60		1.568e-02		-51.283		4.859e-03		18.924
2		0.00		-4.00		1.551e-02		-49.551		4.888e-03		14.947
2		0.00		-4.40		1.472e-02		-46.425		4.506e-03		14.523
2		0.00		-4.80		1.476e-02		-45.416		4.422e-03		14.090
2		0.00		-5.20		1.312e-02		-44.254		4.333e-03		14.048
2		0.00		-5.60		1.238e-02		-45.523		4.043e-03		13.904
2		0.00		-6.00		1.185e-02		-45.977		4.199e-03		14.724
2		0.00		-6.40		1.052e-02		-40.135		3.869e-03		15.101
2		0.00		-6.80		9.287e-03		-37.701		3.581e-03		17.493
2		0.00		-7.20		8.600e-03		-36.130		3.331e-03		19.896
2		0.00		-7.60		8.054e-03		-33.957		3.129e-03		21.469
2		0.00		-8.00		6.597e-03		-43.300		2.888e-03		27.727
2		0.00		-8.40		6.034e-03		-45.516		2.475e-03		27.150
2		0.00		-8.80		4.906e-03		-45.509		2.078e-03		27.553
2		0.00		-9.20		3.566e-03		-45.157		1.684e-03		39.133
2		0.00		-9.60		3.379e-03		-51.406		1.590e-03		32.472
2		0.00		-10.00		3.810e-03		-47.878		1.808e-03		27.002
2		0.00		-9.60		3.653e-03		-34.217		1.536e-03		25.509
2		0.00		-9.20		3.101e-03		-28.583		1.353e-03		43.779
2		0.00		-8.80		2.967e-03		-29.415		1.507e-03		39.392
2		0.00		-8.40		3.417e-03		-20.470		1.655e-03		46.827
2		0.00		-8.00		3.166e-03		-45.690		1.324e-03		36.749
2		0.00		-7.60		3.547e-03		-46.990		1.661e-03		40.616
2		0.00		-7.20		3.419e-03		-35.386		1.510e-03		43.154
2		0.00		-6.80		3.768e-03		-41.647		1.602e-03		34.272
2		0.00		-6.40		3.823e-03		-35.175		1.794e-03		33.772
2		0.00		-6.00		5.018e-03		-40.201		1.980e-03		22.145
2		0.00		-5.60		4.730e-03		-53.166		1.810e-03		21.035
2		0.00		-5.20		5.797e-03		-44.090		1.948e-03		20.358
2		0.00		-4.80		6.225e-03		-34.673		2.285e-03		18.715
2		0.00		-4.40		6.251e-03		-49.825		2.467e-03		22.056
2		0.00		-4.00		6.646e-03		-43.213		2.422e-03		18.399
2		0.00		-3.60		8.121e-03		-43.906		2.575e-03		13.746
2		0.00		-3.20		7.463e-03		-39.876		2.333e-03		14.342
2		0.00		-2.80		8.061e-03		-47.156		2.681e-03		16.189
2		0.00		-2.40		8.752e-03		-41.483		2.611e-03		16.092
2		0.00		-2.00		9.351e-03		-41.709		3.063e-03		16.121
2		0.00		-1.60		9.395e-03		-40.824		3.280e-03		20.470
2		0.00		-1.20		9.316e-03		-40.237		3.415e-03		25.781
2		0.00		-0.80		9.356e-03		-39.657		3.525e-03		24.206
2		0.00		-0.40		9.575e-03		-41.292		4.049e-03		23.638
3		0.00		0.00		9.383e-03		-38.677		4.016e-03		27.553
3		0.00		0.40		9.261e-03		-42.242		4.107e-03		31.455
3		0.00		0.80		9.547e-03		-44.740		4.231e-03		32.324
3		0.00		1.20		9.982e-03		-42.637		4.177e-03		34.018
3		0.00		1.60		9.889e-03		-44.242		4.024e-03		33.278
3		0.00		2.00		1.045e-02		-41.177		3.942e-03		37.368
3		0.00		2.40		9.796e-03		-48.725		3.741e-03		35.358
3		0.00		2.80		1.058e-02		-51.857		4.076e-03		30.016
3		0.00		3.20		1.064e-02		-46.171		4.139e-03		34.069
3		0.00		3.60		1.126e-02		-55.192		4.201e-03		26.314
3		0.00		4.00		1.208e-02		-50.831		4.497e-03		24.402
3		0.00		4.40		1.263e-02		-51.067		4.820e-03		24.666
3		0.00		4.80		1.283e-02		-47.631		4.740e-03		23.402
3		0.00		5.20		1.381e-02		-49.784		5.168e-03		25.682
3		0.00		5.60		1.453e-02		-47.355		5.916e-03		25.093
3		0.00		6.00		1.593e-02		-45.419		6.175e-03		22.814
3		0.00		6.40		1.682e-02		-49.162		6.687e-03		24.516
3		0.00		6.80		1.736e-02		-45.894		6.846e-03		22.396
3		0.00		7.20		1.812e-02		-47.227		7.253e-03		23.858
3		0.00		7.60		1.825e-02		-46.583		7.674e-03		25.858
3		0.00		8.00		1.952e-02		-46.045		8.009e-03		24.278
3		0.00		8.40		2.109e-02		-45.578		8.756e-03		24.571
3		0.00		8.80		2.069e-02		-43.402		8.829e-03		24.558
3		0.00		9.20		2.079e-02		-45.493		8.489e-03		24.242
3		0.00		9.60		2.029e-02		-47.120		8.686e-03		25.414
3		0.00		10.00		2.133e-02		-50.266		8.821e-03		25.440
3		0.00		9.60		2.081e-02		-47.199		8.648e-03		24.752
3		0.00		9.20		2.103e-02		-47.114		8.818e-03		24.268
3		0.00		8.80		1.977e-02		-45.321		8.124e-03		23.885
3		0.00		8.40		1.919e-02		-45.715		7.701e-03		23.521
3		0.00		8.00		1.861e-02		-43.127		7.133e-03		24.546
3		0.00		7.60		1.811e-02		-39.890		6.650e-03		24.277
3		0.00		7.20		1.909e-02		-43.397		6.834e-03		22.094
3		0.00		6.80		1.935e-02		-46.141		6.839e-03		23.151
3		0.00		6.40		1.924e-02		-44.584		6.425e-03		20.524
3		0.00		6.00		1.910e-02		-43.258		5.626e-03		20.474
3		0.00		5.60		1.830e-02		-42.557		5.678e-03		22.262
3		0.00		5.20		1.913e-02		-43.930		5.875e-03		20.457
3		0.00		4.80		1.944e-02		-45.038		5.810e-03		21.418
3		0.00		4.40		1.930e-02		-45.747		5.746e-03		20.840
3		0.00		4.00		1.946e-02		-49.387		5.529e-03		23.793
3		0.00		3.60		1.913e-02		-52.430		6.023e-03		22.733
3		0.00		3.20		1.946e-02		-53.438		6.049e-03		23.008
3		0.00		2.80		1.944e-02		-51.909		6.293e-03		23.187
3		0.00		2.40		2.018e-02		-53.134		6.468e-03		22.450
3		0.00		2.00		2.073e-02		-50.971		6.011e-03		21.217
3		0.00		1.60		2.155e-02		-50.513		6.635e-03		20.746
3		0.00		1.20		2.110e-02		-53.525		6.221e-03		20.121
3		0.00		0.80		2.087e-02		-54.331		6.381e-03		21.145
3		0.00		0.40		2.059e-02		-52.243		6.688e-03		21.706
3		0.00		0.00		2.018e-02		-52.104		6.399e-03		20.711
3		0.00		-0.40		1.985e-02		-52.823		6.450e-03		21.194
3		0.00		-0.80		1.898e-02		-52.460		6.455e-03		21.127
3		0.00		-1.20		1.872e-02		-53.385		6.089e-03		19.699
3		0.00		-1.60		1.725e-02		-54.718		5.800e-03		22.402
3		0.00		-2.00		1.648e-02		-53.263		6.005e-03		23.336
3		0.00		-2.40		1.572e-02		-52.379		5.920e-03		23.111
3		0.00		-2.80		1.483e-02		-54.353		5.527e-03		23.956
3		0.00		-3.20		1.428e-02		-57.788		5.537e-03		24.837
3		0.00		-3.60		1.309e-02		-57.951		4.922e-03		22.223
3		0.00		-4.00		1.253e-02		-57.485		4.748e-03		21.988
3		0.00		-4.40		1.242e-02		-54.391		4.487e-03		19.441
3		0.00		-4.80		1.086e-02		-58.548		4.049e-03		19.099
3		0.00		-5.20		9.892e-03		-57.839		3.667e-03		18.730
3		0.00		-5.60		8.681e-03		-56.077		3.366e-03		24.833
3		0.00		-6.00		7.748e-03		-49.404		2.875e-03		18.922
3		0.00		-6.40		7.983e-03		-53.388		2.542e-03		21.410
3		0.00		-6.80		7.113e-03		-52.027		2.155e-03		20.875
3		0.00		-7.20		6.291e-03		-48.905		2.237e-03		25.102
3		0.00		-7.60		5.406e-03		-43.477		1.983e-03		30.932
3		0.00		-8.00		4.871e-03		-42.452		1.653e-03		28.887
3		0.00		-8.40		4.302e-03		-35.962		1.760e-03		36.295
3		0.00		-8.80		3.830e-03		-28.366		1.491e-03		39.645
3		0.00		-9.20		3.560e-03		-35.867		1.463e-03		32.300
3		0.00		-9.60		3.363e-03		-28.270		1.424e-03		53.124
3		0.00		-10.00		3.270e-03		-38.784		1.555e-03		39.435
3		0.00		-9.60		3.230e-03		-36.756		1.417e-03		43.605
3		0.00		-9.20		2.986e-03		-14.161		1.378e-03		58.355
3		0.00		-8.80		2.789e-03		-23.725		1.171e-03		55.707
3		0.00		-8.40		3.169e-03		-30.719		1.511e-03		54.033
3		0.00		-8.00		3.093e-03		-36.528		1.320e-03		46.815
3		0.00		-7.60		3.171e-03		-27.734		1.424e-03		43.167
3		0.00		-7.20		3.301e-03		-48.292		1.352e-03		43.343
3		0.00		-6.80		3.049e-03		-44.899		1.236e-03		47.426
3		0.00		-6.40		3.336e-03		-23.051		1.473e-03		35.654
3		0.00		-6.00		3.962e-03		-47.272		1.648e-03		31.557
3		0.00		-5.60		4.071e-03		-44.971		1.752e-03		31.185
3		0.00		-5.20		4.256e-03		-52.068		1.767e-03		40.499
3		0.00		-4.80		4.060e-03		-47.437		1.596e-03		33.696
3		0.00		-4.40		4.573e-03		-61.071		1.886e-03		29.242
3		0.00		-4.00		4.849e-03		-55.689		1.903e-03		27.887
3		0.00		-3.60		4.520e-03		-59.945		1.888e-03		30.687
3		0.00		-3.20		4.785e-03		-48.569		1.740e-03		29.552
3		0.00		-2.80		5.176e-03		-55.146		2.027e-03		30.559
3		0.00		-2.40		6.262e-03		-49.272		2.134e-03		25.068
3		0.00		-2.00		5.749e-03		-59.789		1.863e-03		21.349
3		0.00		-1.60		6.241e-03		-55.108		1.807e-03		19.569
3		0.00		-1.20		6.513e-03		-56.389		2.090e-03		21.215
3		0.00		-0.80		6.445e-03		-47.535		1.975e-03		20.188
3		0.00		-0.40		6.714e-03		-46.508		2.159e-03		20.358
4		0.00		0.00		6.909e-03		-47.309		2.087e-03		19.520
4		0.00		0.40		7.521e-03		-51.363		2.028e-03		16.967
4		0.00		0.80		7.294e-03		-52.305		2.242e-03		19.983
4		0.00		1.20		7.793e-03		-49.481		2.306e-03		21.440
4		0.00		1.60		8.284e-03		-48.429		2.567e-03		18.644
4		0.00		2.00		7.867e-03		-46.822		2.632e-03		27.039
4		0.00		2.40		8.444e-03		-52.018		2.659e-03		25.277
4		0.00		2.80		8.683e-03		-51.709		3.052e-03		23.699
4		0.00		3.20		8.625e-03		-60.323		3.204e-03		22.590
4		0.00		3.60		9.749e-03		-58.362		3.506e-03		23.523
4		0.00		4.00		1.067e-02		-63.919		3.611e-03		23.084
4		0.00		4.40		1.146e-02		-60.944		3.457e-03		20.657
4		0.00		4.80		1.188e-02		-57.802		3.391e-03		19.802
4		0.00		5.20		1.298e-02		-52.688		3.559e-03		18.782
4		0.00		5.60		1.348e-02		-52.058		3.529e-03		17.453
4		0.00		6.00		1.496e-02		-50.665		4.125e-03		14.785
4		0.00		6.40		1.583e-02		-50.880		4.091e-03		14.533
4		0.00		6.80		1.761e-02		-47.220		4.874e-03		16.712
4		0.00		7.20		1.900e-02		-50.030		5.451e-03		18.801
4		0.00		7.60		2.005e-02		-51.362		6.528e-03		24.789
4		0.00		8.00		2.030e-02		-54.638		7.096e-03		20.317
4		0.00		8.40		2.036e-02		-57.183		7.420e-03		26.525
4		0.00		8.80		2.091e-02		-59.580		7.486e-03		27.665
4		0.00		9.20		2.159e-02		-63.718		7.098e-03		24.982
4		0.00		9.60		2.256e-02		-60.498		6.967e-03		23.155
4		0.00		10.00		2.242e-02		-64.750		7.138e-03		22.375
4		0.00		9.60		2.227e-02		-61.877		6.542e-03		20.784
4		0.00		9.20		2.242e-02		-56.850		7.021e-03		19.205
4		0.00		8.80		2.148e-02		-49.844		6.589e-03		16.108
4		0.00		8.40		1.987e-02		-47.003		5.798e-03		20.742
4		0.00		8.00		2.013e-02		-49.749		6.151e-03		21.539
4		0.00		7.60		2.079e-02		-52.080		7.244e-03		24.834
4		0.00		7.20		2.061e-02		-55.344		6.733e-03		22.099
4		0.00		6.80		1.971e-02		-57.506		6.559e-03		24.728
4		0.00		6.40		1.847e-02		-60.566		6.155e-03		23.361
4		0.00		6.00		1.798e-02		-61.917		6.108e-03		24.051
4		0.00		5.60		1.768e-02		-60.969		5.742e-03		24.148
4		0.00		5.20		1.806e-02		-59.968		5.462e-03		22.002
4		0.00		4.80		1.803e-02		-57.507		4.674e-03		17.867
4		0.00		4.40		1.770e-02		-53.514		5.192e-03		15.950
4		0.00		4.00		1.724e-02		-49.339		5.188e-03		15.909
4		0.00		3.60		1.725e-02		-49.843		5.662e-03		21.352
4		0.00		3.20		1.729e-02		-50.570		5.884e-03		20.330
4		0.00		2.80		1.799e-02		-48.120		6.241e-03		27.345
4		0.00		2.40		1.800e-02		-55.826		6.253e-03		19.092
4		0.00		2.00		1.773e-02		-55.236		6.287e-03		19.424
4		0.00		1.60		1.712e-02		-55.082		5.826e-03		20.725
4		0.00		1.20		1.647e-02		-55.368		5.606e-03		23.068
4		0.00		0.80		1.641e-02		-59.478		5.325e-03		22.162
4		0.00		0.40		1.610e-02		-57.713		5.214e-03		24.625
4		0.00		0.00		1.607e-02		-56.783		4.899e-03		22.035
4		0.00		-0.40		1.632e-02		-55.379		4.560e-03		20.787
4		0.00		-0.80		1.581e-02		-54.980		4.417e-03		17.339
4		0.00		-1.20		1.538e-02		-51.284		4.078e-03		16.437
4		0.00		-1.60		1.547e-02		-50.713		4.202e-03		14.953
4		0.00		-2.00		1.551e-02		-51.723		4.647e-03		16.024
4		0.00		-2.40		1.482e-02		-48.192		4.630e-03		19.721
4		0.00		-2.80		1.427e-02		-50.545		4.770e-03		20.573
4		0.00		-3.20		1.396e-02		-52.496		4.937e-03		20.547
4		0.00		-3.60		1.296e-02		-52.043		4.696e-03		23.057
4		0.00		-4.00		1.208e-02		-54.647		4.735e-03		22.075
4		0.00		-4.40		1.048e-02		-55.849		4.111e-03		21.324
4		0.00		-4.80		9.793e-03		-59.908		4.031e-03		23.043
4		0.00		-5.20		9.618e-03		-64.164		3.562e-03		22.608
4		0.00		-5.60		9.494e-03		-65.071		3.125e-03		24.591
4		0.00		-6.00		8.800e-03		-57.653		2.591e-03		23.046
4		0.00		-6.40		7.848e-03		-56.725		2.866e-03		22.201
4		0.00		-6.80		7.137e-03		-62.899		2.330e-03		25.239
4		0.00		-7.20		6.275e-03		-48.474		2.399e-03		32.431
4		0.00		-7.60		5.832e-03		-60.796		2.082e-03		22.562
4		0.00		-8.00		5.168e-03		-50.408		1.759e-03		26.041
4		0.00		-8.40		4.333e-03		-45.282		1.864e-03		34.763
4		0.00		-8.80		4.513e-03		-44.482		1.873e-03		31.886
4		0.00		-9.20		4.366e-03		-46.568		1.887e-03		31.553
4		0.00		-9.60		3.771e-03		-49.492		1.730e-03		34.295
4		0.00		-10.00		3.671e-03		-29.246		1.696e-03		39.568
4		0.00		-9.60		3.440e-03		-31.791		1.819e-03		46.351
4		0.00		-9.20		3.115e-03		-56.677		1.643e-03		35.910
4		0.00		-8.80		3.235e-03		-51.087		1.565e-03		46.051
4		0.00		-8.40		3.126e-03		-41.456		1.332e-03		38.881
4		0.00		-8.00		3.330e-03		-49.556		1.488e-03		36.725
4		0.00		-7.60		2.999e-03		-24.695		1.375e-03		53.442
4		0.00		-7.20		3.215e-03		-21.924		1.285e-03		58.817
4		0.00		-6.80		3.431e-03		-42.555		1.504e-03		47.209
4		0.00		-6.40		3.682e-03		-54.418		1.466e-03		35.269
4		0.00		-6.00		4.099e-03		-47.397		1.600e-03		41.142
4		0.00		-5.60		4.222e-03		-48.177		1.606e-03		31.992
4		0.00		-5.20		4.499e-03		-33.578		1.875e-03		39.267
4		0.00		-4.80		5.111e-03		-45.645		1.825e-03		34.867
4		0.00		-4.40		5.260e-03		-47.314		1.998e-03		32.256
4		0.00		-4.00		5.588e-03		-37.382		1.956e-03		28.969
4		0.00		-3.60		5.486e-03		-43.520		2.109e-03		25.644
4		0.00		-3.20		4.921e-03		-50.696		2.166e-03		34.463
4		0.00		-2.80		5.627e-03		-49.525		2.216e-03		28.403
4		0.00		-2.40		6.229e-03		-52.604		2.146e-03		25.182
4		0.00		-2.00		6.001e-03		-54.826		2.174e-03		24.618
4		0.00		-1.60		6.412e-03		-58.107		2.006e-03		23.842
4		0.00		-1.20		6.816e-03		-57.566		2.023e-03		24.869
4		0.00		-0.80		6.785e-03		-54.363		2.103e-03		24.024
4		0.00		-0.40		7.120e-03		-57.427		2.258e-03		22.717
5		0.00		0.00		6.550e-03		-48.374		2.490e-03		28.679
5		0.00		0.40		6.619e-03		-56.478		2.406e-03		20.996
5		0.00		0.80		7.564e-03		-51.103		2.718e-03		21.247
5		0.00		1.20		7.724e-03		-51.602		2.712e-03		23.778
5		0.00		1.60		7.531e-03		-49.666		2.601e-03		26.041
5		0.00		2.00		8.020e-03		-52.814		2.938e-03		27.590
5		0.00		2.40		8.978e-03		-54.994		2.877e-03		23.143
5		0.00		2.80		8.106e-03		-53.427		3.060e-03		32.581
5		0.00		3.20		8.604e-03		-52.009		3.112e-03		23.605
5		0.00		3.60		9.256e-03		-49.571		3.190e-03		23.714
5		0.00		4.00		9.503e-03		-55.792		3.234e-03		24.799
5		0.00		4.40		1.082e-02		-56.467		3.529e-03		23.849
5		0.00		4.80		1.086e-02		-54.789		3.706e-03		26.224
5		0.00		5.20		1.170e-02		-55.728		3.649e-03		23.689
5		0.00		5.60		1.248e-02		-57.154		3.474e-03		22.360
5		0.00		6.00		1.323e-02		-59.163		4.059e-03		21.327
5		0.00		6.40		1.436e-02		-60.963		4.342e-03		23.394
5		0.00		6.80		1.544e-02		-60.902		4.444e-03		22.674
5		0.00		7.20		1.671e-02		-56.968		4.895e-03		19.997
5		0.00		7.60		1.834e-02		-56.402		5.093e-03		19.490
5		0.00		8.00		1.965e-02		-56.515		4.929e-03		18.345
5		0.00		8.40		2.033e-02		-56.985		5.212e-03		17.690
5		0.00		8.80		2.128e-02		-54.278		5.782e-03		16.585
5		0.00		9.20		2.314e-02		-53.559		6.217e-03		15.523
5		0.00		9.60		2.334e-02		-53.448		6.314e-03		13.719
5		0.00		10.00		2.405e-02		-51.021		6.564e-03		14.440
5		0.00		9.60		2.323e-02		-51.865		6.676e-03		15.630
5		0.00		9.20		2.205e-02		-52.097		6.001e-03		16.421
5		0.00		8.80		2.149e-02		-51.318		5.725e-03		16.368
5		0.00		8.40		2.098e-02		-50.743		5.723e-03		16.602
5		0.00		8.00		2.108e-02		-52.138		5.796e-03		16.393
5		0.00		7.60		2.049e-02		-51.143		6.046e-03		18.033
5		0.00		7.20		2.036e-02		-48.355		6.071e-03		19.773
5		0.00		6.80		2.049e-02		-48.046		6.718e-03		19.946
5		0.00		6.40		1.938e-02		-54.413		7.219e-03		17.704
5		0.00		6.00		1.899e-02		-53.850		7.165e-03		17.493
5		0.00		5.60		1.937e-02		-55.373		7.552e-03		16.177
5		0.00		5.20		1.940e-02		-55.306		7.556e-03		18.514
5		0.00		4.80		1.831e-02		-57.209		7.607e-03		19.856
5		0.00		4.40		1.877e-02		-59.893		7.488e-03		20.884
5		0.00		4.00		1.767e-02		-58.906		7.384e-03		21.123
5		0.00		3.60		1.743e-02		-61.373		7.209e-03		22.892
5		0.00		3.20		1.720e-02		-62.934		6.699e-03		23.497
5		0.00		2.80		1.707e-02		-64.943		6.522e-03		22.450
5		0.00		2.40		1.732e-02		-59.203		6.265e-03		22.880
5		0.00		2.00		1.772e-02		-57.419		5.697e-03		21.522
5		0.00		1.60		1.746e-02		-57.627		5.749e-03		20.871
5		0.00		1.20		1.714e-02		-55.311		5.149e-03		19.088
5		0.00		0.80		1.703e-02		-55.573		5.275e-03		17.697
5		0.00		0.40		1.698e-02		-52.423		5.175e-03		17.299
5		0.00		0.00		1.698e-02		-55.093		4.510e-03		16.357
5		0.00		-0.40		1.670e-02		-51.232		4.701e-03		15.186
5		0.00		-0.80		1.629e-02		-49.133		4.686e-03		14.779
5		0.00		-1.20		1.630e-02		-50.135		4.796e-03		15.536
5		0.00		-1.60		1.651e-02		-49.013		5.155e-03		16.185
5		0.00		-2.00		1.590e-02		-52.051		5.041e-03		18.607
5		0.00		-2.40		1.495e-02		-47.837		5.004e-03		26.282
5		0.00		-2.80		1.459e-02		-47.479		5.077e-03		28.622
5		0.00		-3.20		1.330e-02		-50.500		5.134e-03		26.086
5		0.00		-3.60		1.279e-02		-50.373		5.331e-03		25.369
5		0.00		-4.00		1.207e-02		-50.678		4.985e-03		22.822
5		0.00		-4.40		1.149e-02		-55.652		4.606e-03		22.405
5		0.00		-4.80		1.030e-02		-55.477		4.696e-03		20.934
5		0.00		-5.20		9.323e-03		-53.134		4.074e-03		26.083
5		0.00		-5.60		8.217e-03		-57.644		3.404e-03		27.331
5		0.00		-6.00		8.111e-03		-56.055		3.159e-03		25.270
5		0.00		-6.40		7.708e-03		-55.905		2.691e-03		23.906
5		0.00		-6.80		7.010e-03		-57.228		2.763e-03		24.790
5		0.00		-7.20		6.022e-03		-53.302		2.362e-03		26.563
5		0.00		-7.60		5.707e-03		-51.551		2.056e-03		27.400
5		0.00		-8.00		4.872e-03		-46.560		1.990e-03		29.674
5		0.00		-8.40		4.338e-03		-40.912		1.977e-03		32.101
5		0.00		-8.80		4.080e-03		-51.211		1.814e-03		35.610
5		0.00		-9.20		3.231e-03		-17.011		1.505e-03		55.895
5		0.00		-9.60		3.324e-03		-22.680		1.426e-03		62.955
5		0.00		-10.00		3.236e-03		-35.454		1.423e-03		48.423
5		0.00		-9.60		3.021e-03		-23.928		1.295e-03		59.510
5		0.00		-9.20		3.665e-03		-6.302		2.371e-03		69.697
5		0.00		-8.80		3.305e-03		-19.783		1.590e-03		66.657
5		0.00		-8.40		3.211e-03		-26.168		2.421e-03		64.850
5		0.00		-8.00		3.150e-03		-26.337		1.694e-03		65.609
5		0.00		-7.60		3.461e-03		-23.519		1.799e-03		74.689
5		0.00		-7.20		3.284e-03		-30.949		1.903e-03		75.389
5		0.00		-6.80		3.318e-03		-34.097		1.708e-03		67.722
5		0.00		-6.40		3.648e-03		-35.333		1.758e-03		66.583
5		0.00		-6.00		3.741e-03		-40.095		1.761e-03		59.396
5		0.00		-5.60		3.605e-03		-35.861		1.778e-03		53.598
5		0.00		-5.20		3.750e-03		-49.184		1.875e-03		57.971
5		0.00		-4.80		3.810e-03		-42.956		2.057e-03		49.265
5		0.00		-4.40		3.903e-03		-49.027		2.175e-03		45.187
5		0.00		-4.00		4.304e-03		-54.703		2.303e-03		47.384
5		0.00		-3.60		4.096e-03		-56.632		2.473e-03		44.549
5		0.00		-3.20		4.499e-03		-55.326		2.616e-03		36.363
5		0.00		-2.80		4.583e-03		-54.808		2.688e-03		39.072
5		0.00		-2.40		5.001e-03		-54.542		2.613e-03		30.555
5		0.00		-2.00		5.046e-03		-45.818		2.633e-03		27.947
5		0.00		-1.60		5.006e-03		-57.910		2.322e-03		25.936
5		0.00		-1.20		5.428e-03		-52.802		2.422e-03		25.163
5		0.00		-0.80		5.976e-03		-56.527		2.582e-03		23.799
5		0.00		-0.40		5.894e-03		-60.787		2.398e-03		27.030
6		0.00		0.00		6.569e-03		-57.036		2.447e-03		23.197
6		0.00		0.40		6.680e-03		-61.371		2.172e-03		23.121
6		0.00		0.80		7.034e-03		-56.052		2.374e-03		23.936
6		0.00		1.20		7.442e-03		-55.596		2.504e-03		19.291
6		0.00		1.60		7.352e-03		-55.722		2.631e-03		22.918
6		0.00		2.00		8.000e-03		-55.201		2.796e-03		19.441
6		0.00		2.40		7.864e-03		-49.336		2.859e-03		23.378
6		0.00		2.80		8.314e-03		-50.274		2.850e-03		18.799
6		0.00		3.20		9.124e-03		-53.443		2.917e-03		18.542
6		0.00		3.60		9.861e-03		-50.129		3.366e-03		17.655
6		0.00		4.00		1.010e-02		-49.647		3.531e-03		20.722
6		0.00		4.40		1.090e-02		-52.882		3.462e-03		19.146
6		0.00		4.80		1.232e-02		-54.623		4.068e-03		21.288
6		0.00		5.20		1.300e-02		-46.573		4.331e-03		25.200
6		0.00		5.60		1.330e-02		-54.050		4.887e-03		23.600
6		0.00		6.00		1.447e-02		-48.479		5.001e-03		27.245
6		0.00		6.40		1.583e-02		-52.036		5.731e-03		27.916
6		0.00		6.80		1.705e-02		-55.440		5.887e-03		25.253
6		0.00		7.20		1.781e-02		-52.414		6.080e-03		28.887
6		0.00		7.60		1.887e-02		-56.357		6.718e-03		23.403
6		0.00		8.00		1.940e-02		-58.314		6.893e-03		21.779
6		0.00		8.40		2.108e-02		-59.588		7.545e-03		21.529
6		0.00		8.80		2.165e-02		-61.493		8.174e-03		22.606
6		0.00		9.20		2.268e-02		-62.918		7.694e-03		24.181
6		0.00		9.60		2.320e-02		-61.392		7.629e-03		21.839
6		0.00		10.00		2.260e-02		-64.794		7.906e-03		23.312
6		0.00		9.60		2.240e-02		-63.405		7.755e-03		23.692
6		0.00		9.20		2.115e-02		-61.113		7.589e-03		23.100
6		0.00		8.80		2.149e-02		-61.824		7.545e-03		22.016
6		0.00		8.40		2.106e-02		-63.558		7.359e-03		22.151
6		0.00		8.00		2.045e-02		-62.368		6.662e-03		20.244
6		0.00		7.60		1.999e-02		-60.208		6.305e-03		19.554
6		0.00		7.20		1.954e-02		-56.853		6.062e-03		17.864
6		0.00		6.80		1.876e-02		-57.316		5.891e-03		19.108
6		0.00		6.40		1.848e-02		-54.104		5.788e-03		19.212
6		0.00		6.00		1.833e-02		-56.506		5.611e-03		20.380
6		0.00		5.60		1.911e-02		-53.758		5.536e-03		19.215
6		0.00		5.20		1.887e-02		-52.044		5.494e-03		24.310
6		0.00		4.80		1.892e-02		-55.376		5.711e-03		21.818
6		0.00		4.40		1.870e-02		-57.588		5.761e-03		19.909
6		0.00		4.00		1.832e-02		-56.859		6.054e-03		21.143
6		0.00		3.60		1.848e-02		-59.616		6.203e-03		21.089
6		0.00		3.20		1.795e-02		-61.348		6.224e-03		22.593
6		0.00		2.80		1.810e-02		-60.829		6.377e-03		22.938
6		0.00		2.40		1.787e-02		-60.671		6.458e-03		25.187
6		0.00		2.00		1.707e-02		-58.903		6.269e-03		23.138
6		0.00		1.60		1.749e-02		-60.071		5.981e-03		21.099
6		0.00		1.20		1.732e-02		-57.841		5.444e-03		24.025
6		0.00		0.80		1.741e-02		-58.359		5.093e-03		20.743
6		0.00		0.40		1.737e-02		-54.497		4.868e-03		18.306
6		0.00		0.00		1.710e-02		-54.348		4.244e-03		18.252
6		0.00		-0.40		1.719e-02		-51.609		4.386e-03		16.763
6		0.00		-0.80		1.752e-02		-52.862		4.499e-03		16.853
6		0.00		-1.20		1.674e-02		-54.481		4.302e-03		19.901
6		0.00		-1.60		1.594e-02		-50.899		4.536e-03		21.240
6		0.00		-2.00		1.506e-02		-52.047		4.809e-03		26.039
6		0.00		-2.40		1.368e-02		-50.597		4.858e-03		26.669
6		0.00		-2.80		1.377e-02		-53.880		5.486e-03		23.309
6		0.00		-3.20		1.277e-02		-52.072		5.317e-03		25.618
6		0.00		-3.60		1.215e-02		-52.660		5.402e-03		23.312
6		0.00		-4.00		1.117e-02		-55.763		5.420e-03		24.051
6		0.00		-4.40		1.082e-02		-60.177		5.436e-03		24.609
6		0.00		-4.80		1.030e-02		-58.820		4.832e-03		25.060
6		0.00		-5.20		9.537e-03		-53.728		4.582e-03		25.371
6		0.00		-5.60		8.334e-03		-59.330		4.231e-03		27.654
6		0.00		-6.00		7.651e-03		-53.537		3.737e-03		29.643
6		0.00		-6.40		6.007e-03		-40.492		3.348e-03		41.380
6		0.00		-6.80		5.949e-03		-39.631		2.994e-03		49.066
6		0.00		-7.20		5.838e-03		-47.592		2.596e-03		27.190
6		0.00		-7.60		5.598e-03		-41.342		2.476e-03		27.724
6		0.00		-8.00		4.314e-03		-44.199		2.339e-03		56.097
6		0.00		-8.40		3.871e-03		-32.754		2.184e-03		49.842
6		0.00		-8.80		4.106e-03		-22.918		2.315e-03		70.503
6		0.00		-9.20		3.511e-03		-34.157		1.723e-03		61.890
6		0.00		-9.60		3.574e-03		-20.106		1.901e-03		75.270
6		0.00		-10.00		3.117e-03		-28.160		1.545e-03		65.105
6		0.00		-9.60		2.880e-03		-16.378		1.509e-03		74.203
6		0.00		-9.20		3.424e-03		-22.724		2.192e-03		79.199
6		0.00		-8.80		3.130e-03		-19.801		1.812e-03		67.798
6		0.00		-8.40		3.052e-03		-15.547		1.895e-03		77.139
6		0.00		-8.00		3.050e-03		-7.577		2.353e-03		69.572
6		0.00		-7.60		3.160e-03		-39.884		2.032e-03		54.982
6		0.00		-7.20		3.164e-03		-20.198		2.057e-03		69.640
6		0.00		-6.80		3.287e-03		-13.124		2.338e-03		66.201
6		0.00		-6.40		3.104e-03		-35.800		2.226e-03		63.946
6		0.00		-6.00		3.480e-03		-45.398		2.169e-03		60.271
6		0.00		-5.60		3.342e-03		-44.072		2.118e-03		47.507
6		0.00		-5.20		3.709e-03		-38.806		1.999e-03		57.777
6		0.00		-4.80		3.666e-03		-34.179		1.994e-03		62.951
6		0.00		-4.40		3.773e-03		-29.695		2.165e-03		58.107
6		0.00		-4.00		4.414e-03		-41.621		2.496e-03		53.810
6		0.00		-3.60		3.764e-03		-36.036		2.084e-03		68.301
6		0.00		-3.20		3.888e-03		-38.293		2.232e-03		59.360
6		0.00		-2.80		4.318e-03		-29.674		2.424e-03		65.501
6		0.00		-2.40		4.385e-03		-33.155		2.441e-03		58.734
6		0.00		-2.00		4.876e-03		-38.455		2.807e-03		62.410
6		0.00		-1.60		4.598e-03		-39.212		3.104e-03		56.025
6		0.00		-1.20		5.088e-03		-46.010		3.190e-03		38.976
6		0.00		-0.80		5.106e-03		-43.731		3.164e-03		34.839
6		0.00		-0.40		4.555e-03		-53.406		3.119e-03		47.400
7		0.00		0.00		5.133e-03		-57.145		3.278e-03		41.922
7		0.00		0.40		5.328e-03		-60.063		3.164e-03		34.550
7		0.00		0.80		5.270e-03		-59.940		2.942e-03		35.927
7		0.00		1.20		5.429e-03		-62.639		2.847e-03		28.289
7		0.00		1.60		5.148e-03		-59.359		2.796e-03		39.274
7		0.00		2.00		5.964e-03		-60.365		2.801e-03		27.665
7		0.00		2.40		5.796e-03		-61.091		3.003e-03		25.628
7		0.00		2.80		6.100e-03		-54.082		3.127e-03		26.839
7		0.00		3.20		6.567e-03		-61.693		3.447e-03		25.430
7		0.00		3.60		8.132e-03		-46.622		3.971e-03		34.876
7		0.00		4.00		8.166e-03		-52.589		4.219e-03		26.677
7		0.00		4.40		9.234e-03		-42.040		4.702e-03		32.220
7		0.00		4.80		1.000e-02		-49.033		5.006e-03		22.852
7		0.00		5.20		9.994e-03		-50.033		5.172e-03		23.957
7		0.00		5.60		1.175e-02		-48.687		5.677e-03		22.449
7		0.00		6.00		1.230e-02		-53.957		5.915e-03		22.034
7		0.00		6.40		1.306e-02		-57.023		5.931e-03		23.541
7		0.00		6.80		1.397e-02		-53.333		6.230e-03		24.011
7		0.00		7.20		1.465e-02		-54.974		6.317e-03		23.844
7		0.00		7.60		1.627e-02		-54.558		6.286e-03		22.774
7		0.00		8.00		1.658e-02		-50.076		5.992e-03		20.935
7		0.00		8.40		1.837e-02		-49.167		6.165e-03		17.175
7		0.00		8.80		1.920e-02		-49.210		6.911e-03		17.393
7		0.00		9.20		2.109e-02		-50.226		7.827e-03		17.273
7		0.00		9.60		2.252e-02		-48.792		8.383e-03		22.826
7		0.00		10.00		2.325e-02		-50.691		9.062e-03		22.849
7		0.00		9.60		2.281e-02		-52.361		9.846e-03		25.412
7		0.00		9.20		2.155e-02		-55.961		1.055e-02		19.513
7		0.00		8.80		2.116e-02		-55.171		1.033e-02		20.342
7		0.00		8.40		2.042e-02		-53.772		1.031e-02		18.997
7		0.00		8.00		1.892e-02		-55.042		9.594e-03		21.159
7		0.00		7.60		1.881e-02		-56.774		9.090e-03		21.219
7		0.00		7.20		1.790e-02		-55.019		8.006e-03		22.994
7		0.00		6.80		1.738e-02		-55.847		7.460e-03		22.875
7		0.00		6.40		1.722e-02		-54.711		6.761e-03		21.421
7		0.00		6.00		1.766e-02		-51.906		6.189e-03		18.079
7		0.00		5.60		1.785e-02		-48.733		6.123e-03		17.675
7		0.00		5.20		1.779e-02		-52.374		6.526e-03		17.558
7		0.00		4.80		1.824e-02		-49.782		6.407e-03		22.544
7		0.00		4.40		1.706e-02		-46.091		6.707e-03		29.593
7		0.00		4.00		1.824e-02		-48.234		7.127e-03		28.985
7		0.00		3.60		1.837e-02		-52.683		7.215e-03		19.655
7		0.00		3.20		1.787e-02		-54.703		7.774e-03		22.544
7		0.00		2.80		1.837e-02		-55.307		7.354e-03		19.455
7		0.00		2.40		1.711e-02		-56.153		7.303e-03		20.840
7		0.00		2.00		1.737e-02		-57.544		7.164e-03		21.639
7		0.00		1.60		1.750e-02		-58.004		6.982e-03		23.994
7		0.00		1.20		1.753e-02		-54.492		6.693e-03		23.083
7		0.00		0.80		1.728e-02		-55.080		6.117e-03		22.997
7		0.00		0.40		1.743e-02		-51.073		5.493e-03		18.559
7		0.00		0.00		1.715e-02		-52.919		4.900e-03		18.227
7		0.00		-0.40		1.788e-02		-55.354		4.878e-03		15.077
7		0.00		-0.80		1.782e-02		-51.397		4.679e-03		14.037
7		0.00		-1.20		1.738e-02		-53.943		4.670e-03		16.229
7		0.00		-1.60		1.801e-02		-54.931		5.116e-03		15.571
7		0.00		-2.00		1.709e-02		-53.412		5.427e-03		19.993
7		0.00		-2.40		1.722e-02		-54.210		5.706e-03		20.543
7		0.00		-2.80		1.599e-02		-53.087		5.631e-03		21.773
7		0.00		-3.20		1.615e-02		-56.114		5.678e-03		20.128
7		0.00		-3.60		1.498e-02		-58.333		5.241e-03		19.408
7		0.00		-4.00		1.353e-02		-58.024		5.538e-03		20.828
7		0.00		-4.40		1.253e-02		-61.653		5.296e-03		23.358
7		0.00		-4.80		1.073e-02		-59.524		5.072e-03		24.536
7		0.00		-5.20		1.079e-02		-53.814		4.606e-03		25.001
7		0.00		-5.60		1.015e-02		-61.806		4.252e-03		23.744
7		0.00		-6.00		9.736e-03		-61.567		3.890e-03		23.522
7		0.00		-6.40		8.456e-03		-57.431		3.661e-03		24.390
7		0.00		-6.80		7.768e-03		-57.833		3.055e-03		23.357
7		0.00		-7.20		7.101e-03		-51.958		2.904e-03		20.520
7		0.00		-7.60		5.790e-03		-49.258		2.627e-03		25.771
7		0.00		-8.00		5.072e-03		-31.433		2.563e-03		42.963
7		0.00		-8.40		5.052e-03		-47.718		2.404e-03		26.103
7		0.00		-8.80		4.237e-03		-45.952		2.138e-03		35.074
7		0.00		-9.20		4.434e-03		-45.894		2.216e-03		39.586
7		0.00		-9.60		4.164e-03		-45.357		2.125e-03		34.436
7		0.00		-10.00		3.595e-03		-32.990		2.197e-03		57.404
7		0.00		-9.60		3.392e-03		-44.009		1.930e-03		47.016
7		0.00		-9.20		3.764e-03		-52.467		2.005e-03		41.850
7		0.00		-8.80		3.493e-03		-38.966		2.182e-03		45.876
7		0.00		-8.40		3.150e-03		-40.626		2.003e-03		41.849
7		0.00		-8.00		3.679e-03		-59.612		1.922e-03		34.137
7		0.00		-7.60		3.569e-03		-41.802		1.751e-03		61.351
7		0.00		-7.20		3.880e-03		-46.203		1.791e-03		45.874
7		0.00		-6.80		4.409e-03		-58.832		1.866e-03		27.284
7		0.00		-6.40		4.223e-03		-59.352		1.936e-03		40.095
7		0.00		-6.00		4.024e-03		-61.977		1.942e-03		36.411
7		0.00		-5.60		4.712e-03		-56.228		2.379e-03		32.160
7		0.00		-5.20		5.376e-03		-46.404		2.567e-03		34.242
7		0.00		-4.80		6.083e-03		-59.279		2.418e-03		19.329
7		0.00		-4.40		5.166e-03		-56.599		2.689e-03		25.402
7		0.00		-4.00		5.290e-03		-49.041		2.813e-03		31.286
7		0.00		-3.60		6.453e-03		-52.112		2.728e-03		27.049
7		0.00		-3.20		6.331e-03		-51.140		2.742e-03		31.696
7		0.00		-2.80		6.698e-03		-50.612		2.565e-03		23.686
7		0.00		-2.40		7.127e-03		-52.318		3.127e-03		22.712
7		0.00		-2.00		6.198e-03		-54.086		2.836e-03		27.851
7		0.00		-1.60		6.690e-03		-56.649		2.599e-03		26.384
7		0.00		-1.20		6.517e-03		-56.923		2.500e-03		28.330
7		0.00		-0.80		7.139e-03		-53.737		2.478e-03		24.659
7		0.00		-0.40		7.372e-03		-51.748		2.514e-03		24.654
8		0.00		0.00		7.930e-03		-53.262		2.544e-03		21.978
8		0.00		0.40		8.343e-03		-52.040		2.925e-03		18.046
8		0.00		0.80		8.897e-03		-55.976		2.865e-03		20.143
8		0.00		1.20		8.982e-03		-58.795		3.079e-03		21.028
8		0.00		1.60		9.006e-03		-49.891		3.461e-03		24.725
8		0.00		2.00		8.725e-03		-54.201		3.568e-03		21.253
8		0.00		2.40		9.154e-03		-57.273		3.708e-03		24.168
8		0.00		2.80		8.823e-03		-53.759		4.184e-03		24.122
8		0.00		3.20		9.122e-03		-57.645		3.813e-03		23.641
8		0.00		3.60		8.873e-03		-61.621		3.376e-03		23.890
8		0.00		4.00		1.012e-02		-55.606		3.247e-03		21.110
8		0.00		4.40		1.116e-02		-53.961		3.529e-03		17.066
8		0.00		4.80		1.183e-02		-54.804		3.507e-03		19.230
8		0.00		5.20		1.303e-02		-55.685		4.047e-03		18.947
8		0.00		5.60		1.399e-02		-56.179		4.605e-03		20.156
8		0.00		6.00		1.536e-02		-56.306		5.459e-03		20.551
8		0.00		6.40		1.492e-02		-59.256		5.930e-03		24.309
8		0.00		6.80		1.565e-02		-58.766		6.364e-03		24.772
8		0.00		7.20		1.708e-02		-60.383		6.686e-03		22.940
8		0.00		7.60		1.738e-02		-61.066		6.784e-03		23.691
8		0.00		8.00		1.807e-02		-60.131		7.097e-03		22.757
8		0.00		8.40		2.024e-02		-58.372		6.890e-03		19.004
8		0.00		8.80		2.144e-02		-56.948		6.898e-03		17.423
8		0.00		9.20		2.339e-02		-54.850		6.850e-03		17.263
8		0.00		9.60		2.395e-02		-54.856		6.898e-03		21.242
8		0.00		10.00		2.410e-02		-58.659		7.208e-03		20.278
8		0.00		9.60		2.460e-02		-57.073		7.579e-03		18.080
8		0.00		9.20		2.298e-02		-57.693		7.668e-03		19.802
8		0.00		8.80		2.279e-02		-58.198		7.778e-03		18.723
8		0.00		8.40		2.159e-02		-58.544		7.486e-03		20.519
8		0.00		8.00		2.055e-02		-60.090		7.474e-03		22.018
8		0.00		7.60		1.949e-02		-58.035		7.098e-03		22.002
8		0.00		7.20		1.913e-02		-57.168		6.425e-03		20.811
8		0.00		6.80		1.856e-02		-58.838		5.826e-03		20.049
8		0.00		6.40		1.924e-02		-54.041		5.311e-03		16.713
8		0.00		6.00		1.946e-02		-55.948		5.042e-03		16.567
8		0.00		5.60		1.948e-02		-55.645		5.107e-03		16.981
8		0.00		5.20		1.945e-02		-56.262		4.832e-03		19.291
8		0.00		4.80		1.990e-02		-55.123		5.208e-03		18.709
8		0.00		4.40		1.926e-02		-57.598		5.588e-03		18.315
8		0.00		4.00		1.924e-02		-57.963		5.505e-03		20.602
8		0.00		3.60		1.862e-02		-59.264		6.010e-03		20.871
8		0.00		3.20		1.812e-02		-59.855		6.021e-03		24.085
8		0.00		2.80		1.832e-02		-58.751		5.683e-03		22.963
8		0.00		2.40		1.792e-02		-57.292		5.647e-03		23.018
8		0.00		2.00		1.788e-02		-56.116		5.132e-03		22.082
8		0.00		1.60		1.854e-02		-54.402		5.095e-03		18.646
8		0.00		1.20		1.882e-02		-55.371		4.468e-03		16.313
8		0.00		0.80		1.878e-02		-53.109		4.440e-03		16.673
8		0.00		0.40		1.879e-02		-55.867		4.850e-03		19.573
8		0.00		0.00		1.911e-02		-57.458		4.855e-03		18.591
8		0.00		-0.40		1.874e-02		-57.514		4.879e-03		21.154
8		0.00		-0.80		1.872e-02		-56.397		5.295e-03		20.330
8		0.00		-1.20		1.739e-02		-56.571		5.001e-03		21.168
8		0.00		-1.60		1.708e-02		-61.850		5.336e-03		23.664
8		0.00		-2.00		1.530e-02		-61.473		5.078e-03		26.181
8		0.00		-2.40		1.570e-02		-59.118		4.846e-03		24.992
8		0.00		-2.80		1.449e-02		-61.904		4.528e-03		25.593
8		0.00		-3.20		1.395e-02		-59.888		4.492e-03		21.341
8		0.00		-3.60		1.332e-02		-56.233		4.083e-03		19.974
8		0.00		-4.00		1.315e-02		-58.508		4.148e-03		19.160
8		0.00		-4.40		1.321e-02		-60.168		4.392e-03		20.962
8		0.00		-4.80		1.265e-02		-59.407		4.418e-03		24.718
8		0.00		-5.20		1.210e-02		-57.063		4.511e-03		24.433
8		0.00		-5.60		1.077e-02		-59.139		4.195e-03		24.573
8		0.00		-6.00		9.859e-03		-58.611		4.196e-03		26.055
8		0.00		-6.40		8.911e-03		-60.535		3.898e-03		24.700
8		0.00		-6.80		7.805e-03		-60.019		3.363e-03		24.765
8		0.00		-7.20		7.251e-03		-57.894		3.173e-03		26.500
8		0.00		-7.60		6.399e-03		-52.224		2.974e-03		27.839
8		0.00		-8.00		5.678e-03		-51.441		2.739e-03		26.335
8		0.00		-8.40		5.230e-03		-50.487		2.494e-03		26.821
8		0.00		-8.80		4.824e-03		-45.880		2.331e-03		28.929
8		0.00		-9.20		3.879e-03		-31.193		2.523e-03		59.808
8		0.00		-9.60		3.899e-03		-41.445		2.284e-03		42.878
8		0.00		-10.00		3.732e-03		-28.528		2.254e-03		51.616
8		0.00		-9.60		3.318e-03		-42.136		2.270e-03		54.494
8		0.00		-9.20		2.721e-03		-33.451		1.714e-03		63.456
8		0.00		-8.80		2.897e-03		-40.250		1.839e-03		59.600
8		0.00		-8.40		2.946e-03		-57.895		2.029e-03		48.796
8		0.00		-8.00		3.130e-03		-57.973		1.872e-03		53.135
8		0.00		-7.60		3.000e-03		-41.380		1.785e-03		52.624
8		0.00		-7.20		3.100e-03		-29.280		1.801e-03		64.385
8		0.00		-6.80		3.283e-03		-57.557		1.852e-03		61.089
8		0.00		-6.40		3.649e-03		-39.206		2.273e-03		57.244
8		0.00		-6.00		3.927e-03		-44.677		2.299e-03		59.451
8		0.00		-5.60		3.910e-03		-49.750		2.426e-03		48.174
8		0.00		-5.20		4.197e-03		-49.946		2.791e-03		54.278
8		0.00		-4.80		4.204e-03		-38.269		2.850e-03		49.789
8		0.00		-4.40		4.203e-03		-40.422		2.822e-03		52.021
8		0.00		-4.00		4.388e-03		-35.854		2.915e-03		53.599
8		0.00		-3.60		4.221e-03		-38.144		2.806e-03		52.363
8		0.00		-3.20		4.133e-03		-44.197		2.627e-03		51.408
8		0.00		-2.80		4.526e-03		-45.989		2.318e-03		32.771
8		0.00		-2.40		5.015e-03		-49.449		2.643e-03		35.049
8		0.00		-2.00		5.275e-03		-52.884		2.560e-03		29.829
8		0.00		-1.60		4.912e-03		-52.997		2.754e-03		45.976
8		0.00		-1.20		4.772e-03		-57.053		2.648e-03		46.651
8		0.00		-0.80		5.540e-03		-55.893		2.648e-03		27.501
8		0.00		-0.40		5.597e-03		-59.428		2.480e-03		24.406
