# Date of analysis: 2024-03-08 10;58
# Segment other properties: height: -41.93567450242817, diff height: 519.6640969602707, deflection: 33.59113704850395, deflection error: 3.030506994640257, adhesion: 40.47891426261276, phase offset: 0
# 
# Loop index	Read Volt (V)	Write Volt (V)	Amplitude (a.u)	Phase (deg)	Sigma Amp (a.u)	Sigma Pha (deg)	
1		0.00		0.00		1.760e-02		-53.175		3.416e-03		12.471
1		0.00		0.40		1.702e-02		-55.214		3.273e-03		12.009
1		0.00		0.80		1.658e-02		-54.722		3.150e-03		12.509
1		0.00		1.20		1.615e-02		-56.032		3.259e-03		13.900
1		0.00		1.60		1.601e-02		-52.664		3.122e-03		12.413
1		0.00		2.00		1.589e-02		-54.871		3.371e-03		14.615
1		0.00		2.40		1.565e-02		-55.483		3.838e-03		14.612
1		0.00		2.80		1.553e-02		-56.748		3.999e-03		15.011
1		0.00		3.20		1.610e-02		-54.846		4.014e-03		15.081
1		0.00		3.60		1.591e-02		-54.345		3.938e-03		14.694
1		0.00		4.00		1.620e-02		-54.067		4.346e-03		15.968
1		0.00		4.40		1.626e-02		-53.363		4.266e-03		17.036
1		0.00		4.80		1.681e-02		-53.199		4.511e-03		19.740
1		0.00		5.20		1.735e-02		-50.851		4.596e-03		20.471
1		0.00		5.60		1.793e-02		-51.461		4.615e-03		16.906
1		0.00		6.00		1.797e-02		-51.246		4.707e-03		13.810
1		0.00		6.40		1.875e-02		-51.038		4.958e-03		16.499
1		0.00		6.80		1.982e-02		-52.420		5.394e-03		13.479
1		0.00		7.20		2.152e-02		-52.540		5.841e-03		12.145
1		0.00		7.60		2.374e-02		-53.134		6.298e-03		11.397
1		0.00		8.00		2.642e-02		-53.147		6.802e-03		11.584
1		0.00		8.40		3.027e-02		-53.435		7.740e-03		9.945
1		0.00		8.80		3.510e-02		-53.376		8.728e-03		9.194
1		0.00		9.20		4.101e-02		-52.789		1.026e-02		8.236
1		0.00		9.60		4.448e-02		-53.720		1.081e-02		7.688
1		0.00		10.00		4.694e-02		-51.568		1.062e-02		8.153
1		0.00		9.60		4.770e-02		-52.565		1.026e-02		7.667
1		0.00		9.20		4.823e-02		-52.862		1.078e-02		7.839
1		0.00		8.80		4.779e-02		-51.586		1.026e-02		7.570
1		0.00		8.40		4.670e-02		-51.973		1.085e-02		9.306
1		0.00		8.00		4.589e-02		-53.462		1.046e-02		9.799
1		0.00		7.60		4.552e-02		-52.276		1.047e-02		10.023
1		0.00		7.20		4.406e-02		-52.589		1.076e-02		9.829
1		0.00		6.80		4.363e-02		-51.641		1.078e-02		11.398
1		0.00		6.40		4.299e-02		-51.888		1.022e-02		11.445
1		0.00		6.00		4.130e-02		-51.807		1.033e-02		13.284
1		0.00		5.60		4.062e-02		-51.388		1.039e-02		12.431
1		0.00		5.20		3.972e-02		-51.004		1.074e-02		13.105
1		0.00		4.80		3.946e-02		-50.330		1.080e-02		13.577
1		0.00		4.40		3.919e-02		-51.179		1.016e-02		9.298
1		0.00		4.00		3.907e-02		-50.089		1.058e-02		8.370
1		0.00		3.60		3.910e-02		-53.209		9.854e-03		8.356
1		0.00		3.20		3.833e-02		-51.804		9.534e-03		8.229
1		0.00		2.80		3.792e-02		-52.037		9.029e-03		8.255
1		0.00		2.40		3.758e-02		-52.994		9.165e-03		8.150
1		0.00		2.00		3.672e-02		-52.758		8.533e-03		8.980
1		0.00		1.60		3.607e-02		-54.140		8.549e-03		9.531
1		0.00		1.20		3.521e-02		-52.774		8.729e-03		10.351
1		0.00		0.80		3.552e-02		-53.182		9.162e-03		10.153
1		0.00		0.40		3.444e-02		-50.746		8.860e-03		10.851
1		0.00		0.00		3.348e-02		-51.442		9.277e-03		12.113
1		0.00		-0.40		3.212e-02		-52.754		9.158e-03		16.076
1		0.00		-0.80		3.105e-02		-50.489		8.827e-03		13.838
1		0.00		-1.20		2.966e-02		-51.737		8.318e-03		14.180
1		0.00		-1.60		2.838e-02		-49.610		7.567e-03		9.752
1		0.00		-2.00		2.588e-02		-50.968		6.884e-03		8.788
1		0.00		-2.40		2.351e-02		-54.143		5.823e-03		10.201
1		0.00		-2.80		1.986e-02		-53.260		4.584e-03		9.523
1		0.00		-3.20		1.572e-02		-49.102		3.313e-03		10.800
1		0.00		-3.60		1.125e-02		-52.304		2.539e-03		11.895
1		0.00		-4.00		7.507e-03		-51.996		1.971e-03		15.536
1		0.00		-4.40		3.834e-03		-32.930		1.718e-03		37.809
1		0.00		-4.80		2.258e-03		19.798		1.113e-03		72.634
1		0.00		-5.20		4.035e-03		98.712		1.706e-03		45.543
1		0.00		-5.60		7.105e-03		115.236		2.562e-03		28.904
1		0.00		-6.00		8.952e-03		121.663		3.010e-03		31.256
1		0.00		-6.40		1.113e-02		122.587		3.534e-03		24.727
1		0.00		-6.80		1.404e-02		125.533		4.220e-03		13.717
1		0.00		-7.20		1.637e-02		127.196		4.399e-03		9.646
1		0.00		-7.60		1.762e-02		127.338		4.417e-03		8.966
1		0.00		-8.00		2.028e-02		124.695		4.712e-03		7.536
1		0.00		-8.40		2.179e-02		125.632		4.644e-03		8.818
1		0.00		-8.80		2.255e-02		124.977		5.136e-03		8.780
1		0.00		-9.20		2.408e-02		125.025		5.534e-03		10.311
1		0.00		-9.60		2.341e-02		124.595		5.815e-03		14.675
1		0.00		-10.00		2.470e-02		124.826		6.386e-03		18.703
1		0.00		-9.60		2.460e-02		125.929		6.508e-03		18.623
1		0.00		-9.20		2.366e-02		127.142		6.271e-03		14.400
1		0.00		-8.80		2.385e-02		127.263		6.031e-03		10.370
1		0.00		-8.40		2.399e-02		126.621		5.364e-03		7.883
1		0.00		-8.00		2.367e-02		126.535		4.946e-03		8.048
1		0.00		-7.60		2.428e-02		126.665		4.936e-03		7.155
1		0.00		-7.20		2.348e-02		128.376		4.849e-03		8.693
1		0.00		-6.80		2.180e-02		127.692		4.384e-03		9.537
1		0.00		-6.40		2.123e-02		127.520		4.486e-03		10.250
1		0.00		-6.00		1.996e-02		126.629		4.973e-03		10.821
1		0.00		-5.60		1.928e-02		125.138		5.155e-03		15.932
1		0.00		-5.20		1.860e-02		123.750		5.322e-03		21.405
1		0.00		-4.80		1.802e-02		125.107		5.444e-03		23.073
1		0.00		-4.40		1.683e-02		126.231		5.170e-03		15.692
1		0.00		-4.00		1.710e-02		127.968		4.773e-03		10.277
1		0.00		-3.60		1.619e-02		126.936		4.312e-03		9.407
1		0.00		-3.20		1.603e-02		126.547		3.851e-03		10.390
1		0.00		-2.80		1.583e-02		126.138		3.555e-03		11.745
1		0.00		-2.40		1.565e-02		124.705		3.410e-03		10.570
1		0.00		-2.00		1.510e-02		128.154		3.395e-03		10.671
1		0.00		-1.60		1.416e-02		129.251		3.332e-03		11.164
1		0.00		-1.20		1.391e-02		125.363		3.403e-03		15.670
1		0.00		-0.80		1.353e-02		126.536		3.214e-03		16.103
1		0.00		-0.40		1.309e-02		126.545		3.556e-03		15.747
2		0.00		0.00		1.276e-02		128.856		3.203e-03		12.840
2		0.00		0.40		1.248e-02		130.944		3.124e-03		8.572
2		0.00		0.80		1.232e-02		128.295		2.989e-03		12.865
2		0.00		1.20		1.177e-02		127.842		2.527e-03		12.398
2		0.00		1.60		1.111e-02		128.095		2.579e-03		10.255
2		0.00		2.00		1.045e-02		129.576		2.378e-03		11.900
2		0.00		2.40		9.527e-03		130.823		2.047e-03		12.809
2		0.00		2.80		8.958e-03		128.561		2.071e-03		10.932
2		0.00		3.20		7.361e-03		128.063		1.901e-03		12.591
2		0.00		3.60		6.144e-03		123.664		1.786e-03		26.787
2		0.00		4.00		5.256e-03		125.852		1.645e-03		49.117
2		0.00		4.40		3.839e-03		105.917		1.238e-03		69.545
2		0.00		4.80		2.747e-03		63.671		1.251e-03		86.231
2		0.00		5.20		1.843e-03		-26.152		7.478e-04		87.725
2		0.00		5.60		2.936e-03		-50.980		1.071e-03		34.770
2		0.00		6.00		5.523e-03		-58.909		1.860e-03		21.662
2		0.00		6.40		8.457e-03		-56.502		2.198e-03		12.858
2		0.00		6.80		1.163e-02		-57.810		2.631e-03		13.489
2		0.00		7.20		1.426e-02		-59.004		3.007e-03		11.984
2		0.00		7.60		1.804e-02		-54.970		3.377e-03		11.142
2		0.00		8.00		2.170e-02		-52.261		4.054e-03		11.029
2		0.00		8.40		2.598e-02		-52.726		5.100e-03		10.908
2		0.00		8.80		3.059e-02		-51.057		6.136e-03		9.224
2		0.00		9.20		3.666e-02		-50.580		7.181e-03		8.893
2		0.00		9.60		4.112e-02		-51.438		9.302e-03		9.643
2		0.00		10.00		4.290e-02		-52.424		1.110e-02		13.037
2		0.00		9.60		4.393e-02		-51.547		1.199e-02		10.327
2		0.00		9.20		4.409e-02		-51.823		1.283e-02		12.620
2		0.00		8.80		4.305e-02		-51.716		1.289e-02		11.781
2		0.00		8.40		4.310e-02		-52.357		1.299e-02		8.706
2		0.00		8.00		4.327e-02		-51.419		1.239e-02		9.318
2		0.00		7.60		4.170e-02		-51.914		1.158e-02		8.304
2		0.00		7.20		4.175e-02		-52.343		1.080e-02		7.373
2		0.00		6.80		4.176e-02		-52.169		9.990e-03		7.091
2		0.00		6.40		4.243e-02		-52.631		8.885e-03		7.278
2		0.00		6.00		4.185e-02		-51.526		8.105e-03		7.093
2		0.00		5.60		4.165e-02		-53.128		7.885e-03		7.380
2		0.00		5.20		4.069e-02		-52.392		7.866e-03		8.363
2		0.00		4.80		3.990e-02		-51.236		7.514e-03		8.504
2		0.00		4.40		3.937e-02		-52.257		7.808e-03		9.010
2		0.00		4.00		3.827e-02		-51.138		8.365e-03		10.192
2		0.00		3.60		3.814e-02		-50.425		8.021e-03		8.929
2		0.00		3.20		3.843e-02		-50.061		8.213e-03		9.716
2		0.00		2.80		3.859e-02		-49.931		7.936e-03		9.390
2		0.00		2.40		3.720e-02		-50.151		8.531e-03		10.109
2		0.00		2.00		3.653e-02		-51.180		9.537e-03		12.073
2		0.00		1.60		3.650e-02		-49.674		9.467e-03		11.015
2		0.00		1.20		3.657e-02		-51.075		9.629e-03		12.732
2		0.00		0.80		3.629e-02		-50.376		9.758e-03		10.950
2		0.00		0.40		3.598e-02		-49.068		9.928e-03		9.263
2		0.00		0.00		3.529e-02		-51.778		9.779e-03		10.887
2		0.00		-0.40		3.565e-02		-49.980		9.511e-03		10.507
2		0.00		-0.80		3.532e-02		-51.617		9.596e-03		9.317
2		0.00		-1.20		3.489e-02		-51.007		8.546e-03		8.364
2		0.00		-1.60		3.417e-02		-52.105		8.000e-03		8.899
2		0.00		-2.00		3.247e-02		-51.121		6.986e-03		9.205
2		0.00		-2.40		2.990e-02		-51.579		6.009e-03		8.821
2		0.00		-2.80		2.643e-02		-50.838		5.003e-03		8.230
2		0.00		-3.20		2.132e-02		-51.565		4.017e-03		9.461
2		0.00		-3.60		1.648e-02		-51.862		3.153e-03		10.383
2		0.00		-4.00		1.045e-02		-52.555		2.018e-03		11.586
2		0.00		-4.40		5.843e-03		-46.754		1.977e-03		20.019
2		0.00		-4.80		3.067e-03		-45.367		1.331e-03		51.007
2		0.00		-5.20		2.842e-03		61.739		1.316e-03		74.000
2		0.00		-5.60		5.183e-03		117.648		2.035e-03		22.811
2		0.00		-6.00		7.945e-03		126.504		2.372e-03		15.243
2		0.00		-6.40		1.074e-02		125.673		2.807e-03		13.112
2		0.00		-6.80		1.310e-02		129.609		3.247e-03		10.676
2		0.00		-7.20		1.564e-02		127.972		3.691e-03		11.928
2		0.00		-7.60		1.637e-02		126.364		4.300e-03		12.221
2		0.00		-8.00		1.845e-02		125.749		4.315e-03		13.464
2		0.00		-8.40		1.935e-02		125.982		4.749e-03		12.909
2		0.00		-8.80		2.145e-02		126.369		5.232e-03		12.946
2		0.00		-9.20		2.247e-02		127.571		5.498e-03		14.456
2		0.00		-9.60		2.251e-02		125.640		5.031e-03		16.231
2		0.00		-10.00		2.450e-02		127.006		5.573e-03		14.322
2		0.00		-9.60		2.446e-02		127.085		5.472e-03		15.040
2		0.00		-9.20		2.495e-02		128.052		6.170e-03		15.168
2		0.00		-8.80		2.424e-02		128.957		5.668e-03		13.739
2		0.00		-8.40		2.332e-02		127.769		5.888e-03		12.292
2		0.00		-8.00		2.303e-02		127.109		5.740e-03		11.714
2		0.00		-7.60		2.321e-02		126.927		6.036e-03		12.242
2		0.00		-7.20		2.240e-02		126.316		5.765e-03		10.682
2		0.00		-6.80		2.150e-02		126.644		5.462e-03		9.638
2		0.00		-6.40		2.045e-02		128.773		5.079e-03		10.959
2		0.00		-6.00		1.991e-02		128.280		4.877e-03		10.374
2		0.00		-5.60		1.953e-02		127.600		4.466e-03		9.008
2		0.00		-5.20		1.901e-02		127.940		4.327e-03		9.302
2		0.00		-4.80		1.835e-02		127.220		4.029e-03		9.648
2		0.00		-4.40		1.841e-02		127.222		3.825e-03		8.415
2		0.00		-4.00		1.774e-02		126.065		3.743e-03		9.111
2		0.00		-3.60		1.718e-02		128.229		3.127e-03		9.170
2		0.00		-3.20		1.701e-02		126.981		3.553e-03		10.350
2		0.00		-2.80		1.624e-02		126.651		3.130e-03		10.442
2		0.00		-2.40		1.577e-02		129.479		3.009e-03		10.135
2		0.00		-2.00		1.560e-02		127.667		3.140e-03		10.095
2		0.00		-1.60		1.499e-02		127.129		2.750e-03		10.077
2		0.00		-1.20		1.412e-02		126.495		2.770e-03		8.579
2		0.00		-0.80		1.373e-02		124.938		2.773e-03		11.213
2		0.00		-0.40		1.345e-02		130.443		2.437e-03		8.062
3		0.00		0.00		1.316e-02		128.695		2.587e-03		10.735
3		0.00		0.40		1.268e-02		127.106		2.573e-03		10.365
3		0.00		0.80		1.170e-02		125.987		2.577e-03		9.514
3		0.00		1.20		1.156e-02		127.552		2.783e-03		11.796
3		0.00		1.60		1.067e-02		129.360		2.714e-03		12.871
3		0.00		2.00		9.794e-03		129.129		2.409e-03		13.849
3		0.00		2.40		9.173e-03		125.240		2.375e-03		15.341
3		0.00		2.80		8.425e-03		131.672		2.317e-03		14.306
3		0.00		3.20		6.944e-03		125.861		1.978e-03		26.177
3		0.00		3.60		6.097e-03		124.165		1.972e-03		26.141
3		0.00		4.00		5.057e-03		121.551		1.614e-03		28.635
3		0.00		4.40		3.806e-03		112.292		1.196e-03		55.585
3		0.00		4.80		2.532e-03		69.322		9.020e-04		84.090
3		0.00		5.20		1.921e-03		-4.078		7.961e-04		88.170
3		0.00		5.60		2.222e-03		-52.168		9.188e-04		62.602
3		0.00		6.00		4.587e-03		-52.792		1.692e-03		27.021
3		0.00		6.40		6.696e-03		-52.275		2.336e-03		21.294
3		0.00		6.80		9.303e-03		-53.703		2.461e-03		15.558
3		0.00		7.20		1.221e-02		-51.644		3.151e-03		12.473
3		0.00		7.60		1.507e-02		-50.540		4.133e-03		10.335
3		0.00		8.00		1.776e-02		-54.281		4.627e-03		10.136
3		0.00		8.40		2.148e-02		-54.674		5.516e-03		9.721
3		0.00		8.80		2.529e-02		-52.685		6.085e-03		9.890
3		0.00		9.20		3.020e-02		-52.249		7.158e-03		8.367
3		0.00		9.60		3.551e-02		-52.438		8.064e-03		8.660
3		0.00		10.00		3.992e-02		-51.941		9.300e-03		7.855
3		0.00		9.60		4.193e-02		-51.611		9.541e-03		7.149
3		0.00		9.20		4.284e-02		-52.133		9.125e-03		7.410
3		0.00		8.80		4.325e-02		-52.067		9.102e-03		7.352
3		0.00		8.40		4.270e-02		-52.063		8.922e-03		7.829
3		0.00		8.00		4.202e-02		-51.850		8.752e-03		8.512
3		0.00		7.60		4.169e-02		-52.460		8.548e-03		8.129
3		0.00		7.20		4.203e-02		-51.881		8.056e-03		9.920
3		0.00		6.80		4.149e-02		-51.659		8.146e-03		9.094
3		0.00		6.40		4.010e-02		-51.597		7.910e-03		9.072
3		0.00		6.00		3.942e-02		-50.060		8.038e-03		9.023
3		0.00		5.60		3.789e-02		-51.441		8.160e-03		10.138
3		0.00		5.20		3.714e-02		-50.022		8.156e-03		10.092
3		0.00		4.80		3.667e-02		-50.015		8.362e-03		10.750
3		0.00		4.40		3.641e-02		-49.901		8.658e-03		10.514
3		0.00		4.00		3.629e-02		-50.329		8.502e-03		11.707
3		0.00		3.60		3.538e-02		-50.338		9.284e-03		12.848
3		0.00		3.20		3.489e-02		-51.517		9.593e-03		15.041
3		0.00		2.80		3.421e-02		-51.035		1.012e-02		17.222
3		0.00		2.40		3.451e-02		-50.847		1.013e-02		13.724
3		0.00		2.00		3.452e-02		-50.975		1.044e-02		13.525
3		0.00		1.60		3.536e-02		-50.669		9.914e-03		9.371
3		0.00		1.20		3.416e-02		-50.782		9.948e-03		10.328
3		0.00		0.80		3.424e-02		-50.275		9.563e-03		8.377
3		0.00		0.40		3.409e-02		-50.267		9.059e-03		7.909
3		0.00		0.00		3.483e-02		-51.963		8.861e-03		8.064
3		0.00		-0.40		3.475e-02		-51.373		7.785e-03		7.865
3		0.00		-0.80		3.455e-02		-51.937		7.338e-03		8.279
3		0.00		-1.20		3.361e-02		-51.342		6.697e-03		7.954
3		0.00		-1.60		3.311e-02		-51.534		6.527e-03		8.316
3		0.00		-2.00		3.143e-02		-51.276		5.993e-03		8.369
3		0.00		-2.40		2.957e-02		-50.733		5.234e-03		8.459
3		0.00		-2.80		2.649e-02		-52.567		4.519e-03		9.515
3		0.00		-3.20		2.171e-02		-51.126		4.319e-03		11.075
3		0.00		-3.60		1.804e-02		-50.998		3.348e-03		9.837
3		0.00		-4.00		1.275e-02		-49.449		2.686e-03		11.487
3		0.00		-4.40		8.643e-03		-48.390		2.208e-03		18.561
3		0.00		-4.80		4.443e-03		-42.655		1.806e-03		26.514
3		0.00		-5.20		2.274e-03		15.567		9.409e-04		69.820
3		0.00		-5.60		3.666e-03		90.576		1.636e-03		52.775
3		0.00		-6.00		7.182e-03		124.381		2.492e-03		27.133
3		0.00		-6.40		8.995e-03		125.502		3.112e-03		17.408
3		0.00		-6.80		1.156e-02		125.030		3.414e-03		13.466
3		0.00		-7.20		1.482e-02		127.867		4.267e-03		10.797
3		0.00		-7.60		1.734e-02		127.077		4.604e-03		8.440
3		0.00		-8.00		1.883e-02		128.476		4.739e-03		8.108
3		0.00		-8.40		2.076e-02		128.175		4.802e-03		7.712
3		0.00		-8.80		2.159e-02		126.468		4.878e-03		8.328
3		0.00		-9.20		2.369e-02		125.580		4.795e-03		8.397
3		0.00		-9.60		2.371e-02		126.579		4.777e-03		8.727
3		0.00		-10.00		2.476e-02		127.616		5.153e-03		8.805
3		0.00		-9.60		2.485e-02		128.844		5.131e-03		10.207
3		0.00		-9.20		2.338e-02		128.065		5.172e-03		10.243
3		0.00		-8.80		2.303e-02		128.061		5.257e-03		10.496
3		0.00		-8.40		2.315e-02		127.345		5.492e-03		13.242
3		0.00		-8.00		2.342e-02		125.472		5.957e-03		18.736
3		0.00		-7.60		2.191e-02		125.679		5.739e-03		18.936
3		0.00		-7.20		2.158e-02		125.352		5.901e-03		21.669
3		0.00		-6.80		2.062e-02		126.933		6.100e-03		16.363
3		0.00		-6.40		1.999e-02		127.043		5.783e-03		9.659
3		0.00		-6.00		1.979e-02		128.759		5.287e-03		9.218
3		0.00		-5.60		1.970e-02		126.315		4.669e-03		7.300
3		0.00		-5.20		1.863e-02		127.181		4.471e-03		8.259
3		0.00		-4.80		1.780e-02		127.584		4.011e-03		8.976
3		0.00		-4.40		1.756e-02		126.572		3.862e-03		9.123
3		0.00		-4.00		1.694e-02		127.954		3.635e-03		9.631
3		0.00		-3.60		1.672e-02		128.521		3.436e-03		10.462
3		0.00		-3.20		1.617e-02		128.697		3.386e-03		9.167
3		0.00		-2.80		1.558e-02		127.928		3.483e-03		11.948
3		0.00		-2.40		1.445e-02		126.890		3.504e-03		14.956
3		0.00		-2.00		1.443e-02		126.965		3.425e-03		19.769
3		0.00		-1.60		1.382e-02		124.880		3.378e-03		22.944
3		0.00		-1.20		1.367e-02		129.018		3.628e-03		13.490
3		0.00		-0.80		1.319e-02		124.521		3.333e-03		13.540
3		0.00		-0.40		1.297e-02		130.475		2.998e-03		9.080
4		0.00		0.00		1.238e-02		127.173		2.925e-03		11.125
4		0.00		0.40		1.197e-02		127.464		2.660e-03		10.783
4		0.00		0.80		1.218e-02		127.324		2.502e-03		8.821
4		0.00		1.20		1.109e-02		129.721		2.392e-03		11.487
4		0.00		1.60		1.071e-02		129.371		2.537e-03		10.329
4		0.00		2.00		9.871e-03		125.859		2.416e-03		14.238
4		0.00		2.40		8.777e-03		125.849		2.438e-03		21.336
4		0.00		2.80		8.286e-03		126.874		2.464e-03		24.493
4		0.00		3.20		7.288e-03		121.720		2.273e-03		22.576
4		0.00		3.60		6.155e-03		123.546		1.857e-03		28.115
4		0.00		4.00		5.170e-03		127.594		1.625e-03		16.562
4		0.00		4.40		4.077e-03		115.341		1.378e-03		47.185
4		0.00		4.80		3.109e-03		95.293		1.046e-03		67.520
4		0.00		5.20		1.929e-03		13.629		8.118e-04		88.132
4		0.00		5.60		2.354e-03		-64.046		9.355e-04		55.330
4		0.00		6.00		4.220e-03		-52.737		1.362e-03		29.152
4		0.00		6.40		5.840e-03		-58.020		1.628e-03		20.629
4		0.00		6.80		8.462e-03		-53.237		2.395e-03		18.965
4		0.00		7.20		1.082e-02		-52.829		3.264e-03		18.942
4		0.00		7.60		1.345e-02		-52.200		4.055e-03		15.216
4		0.00		8.00		1.692e-02		-52.011		4.248e-03		9.820
4		0.00		8.40		2.114e-02		-53.360		4.959e-03		10.591
4		0.00		8.80		2.366e-02		-53.519		5.357e-03		10.952
4		0.00		9.20		2.776e-02		-50.806		6.359e-03		11.380
4		0.00		9.60		3.106e-02		-51.875		7.868e-03		10.870
4		0.00		10.00		3.485e-02		-51.382		1.001e-02		10.756
4		0.00		9.60		3.683e-02		-51.778		1.043e-02		13.578
4		0.00		9.20		3.729e-02		-49.599		1.190e-02		14.439
4		0.00		8.80		3.792e-02		-50.177		1.182e-02		8.978
4		0.00		8.40		3.829e-02		-52.096		1.096e-02		7.464
4		0.00		8.00		3.849e-02		-52.133		9.435e-03		7.031
4		0.00		7.60		3.805e-02		-51.483		8.520e-03		7.606
4		0.00		7.20		3.732e-02		-52.215		8.400e-03		9.758
4		0.00		6.80		3.612e-02		-51.099		8.591e-03		10.945
4		0.00		6.40		3.549e-02		-49.577		8.956e-03		12.332
4		0.00		6.00		3.504e-02		-51.238		9.157e-03		15.530
4		0.00		5.60		3.405e-02		-50.630		9.452e-03		12.807
4		0.00		5.20		3.433e-02		-51.802		9.227e-03		8.611
4		0.00		4.80		3.464e-02		-50.374		8.212e-03		7.784
4		0.00		4.40		3.431e-02		-50.517		7.350e-03		8.691
4		0.00		4.00		3.436e-02		-50.119		6.985e-03		8.758
4		0.00		3.60		3.436e-02		-50.870		7.397e-03		8.933
4		0.00		3.20		3.397e-02		-49.061		7.950e-03		9.143
4		0.00		2.80		3.288e-02		-51.076		9.012e-03		14.965
4		0.00		2.40		3.296e-02		-49.866		9.369e-03		12.149
4		0.00		2.00		3.316e-02		-51.131		9.419e-03		9.291
4		0.00		1.60		3.380e-02		-50.659		8.225e-03		7.054
4		0.00		1.20		3.405e-02		-49.745		7.375e-03		7.508
4		0.00		0.80		3.406e-02		-50.826		6.931e-03		9.097
4		0.00		0.40		3.399e-02		-51.294		7.274e-03		9.533
4		0.00		0.00		3.362e-02		-48.709		7.553e-03		9.233
4		0.00		-0.40		3.363e-02		-49.214		7.617e-03		9.805
4		0.00		-0.80		3.230e-02		-49.042		8.624e-03		12.415
4		0.00		-1.20		3.192e-02		-49.253		8.593e-03		10.934
4		0.00		-1.60		3.137e-02		-50.334		8.461e-03		8.189
4		0.00		-2.00		3.042e-02		-50.932		6.973e-03		8.117
4		0.00		-2.40		2.869e-02		-50.145		6.157e-03		8.098
4		0.00		-2.80		2.704e-02		-51.260		4.821e-03		8.565
4		0.00		-3.20		2.350e-02		-51.918		4.245e-03		9.594
4		0.00		-3.60		1.939e-02		-51.179		3.569e-03		9.746
4		0.00		-4.00		1.435e-02		-50.002		2.960e-03		12.448
4		0.00		-4.40		1.010e-02		-51.278		2.328e-03		13.856
4		0.00		-4.80		6.302e-03		-47.463		1.792e-03		17.594
4		0.00		-5.20		2.789e-03		-31.673		1.318e-03		46.159
4		0.00		-5.60		2.957e-03		77.346		1.381e-03		60.287
4		0.00		-6.00		5.868e-03		116.458		2.292e-03		35.283
4		0.00		-6.40		7.967e-03		124.561		2.508e-03		12.887
4		0.00		-6.80		1.170e-02		124.875		3.088e-03		11.945
4		0.00		-7.20		1.369e-02		125.280		3.460e-03		9.013
4		0.00		-7.60		1.546e-02		126.455		3.309e-03		9.686
4		0.00		-8.00		1.771e-02		126.776		4.753e-03		10.642
4		0.00		-8.40		1.849e-02		126.096		4.805e-03		13.342
4		0.00		-8.80		1.931e-02		126.461		5.128e-03		20.139
4		0.00		-9.20		2.083e-02		127.886		5.491e-03		20.711
4		0.00		-9.60		2.168e-02		127.120		5.392e-03		14.854
4		0.00		-10.00		2.276e-02		129.411		5.745e-03		8.147
4		0.00		-9.60		2.282e-02		127.951		5.375e-03		8.770
4		0.00		-9.20		2.285e-02		126.955		4.799e-03		7.527
4		0.00		-8.80		2.314e-02		127.564		4.813e-03		8.030
4		0.00		-8.40		2.243e-02		126.083		4.232e-03		8.753
4		0.00		-8.00		2.231e-02		130.429		4.423e-03		9.068
4		0.00		-7.60		2.200e-02		128.782		4.309e-03		8.874
4		0.00		-7.20		2.131e-02		128.160		4.643e-03		10.458
4		0.00		-6.80		2.057e-02		130.553		4.712e-03		12.485
4		0.00		-6.40		1.951e-02		129.030		5.074e-03		14.992
4		0.00		-6.00		1.881e-02		123.970		5.145e-03		19.093
4		0.00		-5.60		1.851e-02		124.722		4.930e-03		18.529
4		0.00		-5.20		1.821e-02		127.113		4.877e-03		11.886
4		0.00		-4.80		1.758e-02		128.822		4.394e-03		9.593
4		0.00		-4.40		1.720e-02		127.528		4.052e-03		9.535
4		0.00		-4.00		1.660e-02		129.651		3.575e-03		8.274
4		0.00		-3.60		1.663e-02		127.430		3.285e-03		8.879
4		0.00		-3.20		1.629e-02		128.644		3.037e-03		7.735
4		0.00		-2.80		1.564e-02		127.796		3.302e-03		8.995
4		0.00		-2.40		1.496e-02		128.278		3.371e-03		9.251
4		0.00		-2.00		1.428e-02		127.895		2.691e-03		10.221
4		0.00		-1.60		1.441e-02		129.546		2.861e-03		9.030
4		0.00		-1.20		1.363e-02		129.628		3.259e-03		13.755
4		0.00		-0.80		1.341e-02		128.650		3.223e-03		14.371
4		0.00		-0.40		1.268e-02		125.865		3.060e-03		16.931
5		0.00		0.00		1.219e-02		126.051		3.014e-03		19.412
5		0.00		0.40		1.186e-02		125.549		3.020e-03		15.037
5		0.00		0.80		1.142e-02		126.424		2.867e-03		21.260
5		0.00		1.20		1.131e-02		130.040		2.758e-03		12.804
5		0.00		1.60		1.094e-02		127.636		2.653e-03		10.490
5		0.00		2.00		1.014e-02		126.166		2.290e-03		10.947
5		0.00		2.40		8.943e-03		133.667		2.040e-03		11.493
5		0.00		2.80		8.333e-03		128.715		2.125e-03		14.083
5		0.00		3.20		7.891e-03		128.269		2.086e-03		13.049
5		0.00		3.60		6.205e-03		124.254		1.470e-03		14.524
5		0.00		4.00		5.518e-03		128.041		1.385e-03		18.032
5		0.00		4.40		4.596e-03		126.801		1.413e-03		26.016
5		0.00		4.80		2.957e-03		100.381		1.241e-03		62.560
5		0.00		5.20		2.101e-03		47.810		8.309e-04		86.122
5		0.00		5.60		1.894e-03		-27.338		7.499e-04		78.486
5		0.00		6.00		2.504e-03		-58.601		9.922e-04		45.390
5		0.00		6.40		4.621e-03		-50.279		1.363e-03		24.317
5		0.00		6.80		6.279e-03		-51.992		1.783e-03		22.044
5		0.00		7.20		9.507e-03		-51.212		2.705e-03		16.938
5		0.00		7.60		1.201e-02		-50.738		3.290e-03		19.902
5		0.00		8.00		1.524e-02		-51.806		3.869e-03		14.788
5		0.00		8.40		1.849e-02		-50.526		4.901e-03		14.480
5		0.00		8.80		2.129e-02		-52.070		5.793e-03		12.103
5		0.00		9.20		2.521e-02		-53.656		6.895e-03		11.391
5		0.00		9.60		2.932e-02		-50.650		8.249e-03		9.670
5		0.00		10.00		3.408e-02		-50.764		9.713e-03		9.055
5		0.00		9.60		3.634e-02		-50.433		1.021e-02		8.669
5		0.00		9.20		3.695e-02		-51.276		9.740e-03		8.535
5		0.00		8.80		3.813e-02		-51.201		9.600e-03		7.107
5		0.00		8.40		3.820e-02		-51.132		9.063e-03		6.145
5		0.00		8.00		3.824e-02		-52.792		8.946e-03		6.637
5		0.00		7.60		3.792e-02		-51.637		8.600e-03		8.037
5		0.00		7.20		3.773e-02		-50.634		8.273e-03		7.464
5		0.00		6.80		3.708e-02		-52.019		7.916e-03		8.203
5		0.00		6.40		3.713e-02		-51.420		7.185e-03		7.775
5		0.00		6.00		3.597e-02		-51.780		7.457e-03		9.134
5		0.00		5.60		3.530e-02		-50.442		7.456e-03		9.667
5		0.00		5.20		3.551e-02		-49.676		7.139e-03		8.669
5		0.00		4.80		3.492e-02		-49.969		7.286e-03		9.370
5		0.00		4.40		3.457e-02		-49.365		7.255e-03		9.891
5		0.00		4.00		3.462e-02		-49.553		7.196e-03		8.391
5		0.00		3.60		3.474e-02		-50.075		7.235e-03		9.652
5		0.00		3.20		3.411e-02		-49.294		7.181e-03		9.317
5		0.00		2.80		3.402e-02		-49.197		7.802e-03		8.251
5		0.00		2.40		3.321e-02		-50.854		8.673e-03		11.905
5		0.00		2.00		3.296e-02		-49.337		8.988e-03		11.312
5		0.00		1.60		3.217e-02		-50.660		9.094e-03		11.414
5		0.00		1.20		3.241e-02		-51.459		9.516e-03		13.684
5		0.00		0.80		3.164e-02		-51.287		9.436e-03		15.550
5		0.00		0.40		3.149e-02		-49.546		9.571e-03		11.575
5		0.00		0.00		3.178e-02		-50.778		9.710e-03		10.146
5		0.00		-0.40		3.186e-02		-49.374		9.202e-03		9.607
5		0.00		-0.80		3.158e-02		-49.226		8.759e-03		8.350
5		0.00		-1.20		3.151e-02		-51.399		7.541e-03		9.045
5		0.00		-1.60		3.130e-02		-49.838		7.185e-03		8.822
5		0.00		-2.00		3.009e-02		-50.405		6.758e-03		8.723
5		0.00		-2.40		2.879e-02		-49.937		6.463e-03		9.030
5		0.00		-2.80		2.730e-02		-50.024		5.259e-03		7.928
5		0.00		-3.20		2.386e-02		-51.579		4.545e-03		8.924
5		0.00		-3.60		2.027e-02		-51.106		3.559e-03		9.645
5		0.00		-4.00		1.590e-02		-51.156		2.902e-03		11.238
5		0.00		-4.40		1.189e-02		-48.222		2.333e-03		10.999
5		0.00		-4.80		7.020e-03		-49.211		1.830e-03		13.675
5		0.00		-5.20		3.159e-03		-45.618		1.594e-03		43.342
5		0.00		-5.60		2.444e-03		47.551		1.021e-03		80.303
5		0.00		-6.00		4.793e-03		110.472		1.841e-03		29.567
5		0.00		-6.40		7.141e-03		123.918		2.315e-03		17.397
5		0.00		-6.80		9.758e-03		125.609		2.618e-03		11.205
5		0.00		-7.20		1.204e-02		127.790		2.924e-03		10.671
5		0.00		-7.60		1.477e-02		127.003		3.576e-03		11.403
5		0.00		-8.00		1.633e-02		125.872		4.408e-03		11.292
5		0.00		-8.40		1.740e-02		124.232		4.347e-03		12.623
5		0.00		-8.80		2.002e-02		129.330		4.880e-03		15.342
5		0.00		-9.20		2.095e-02		126.689		5.073e-03		17.576
5		0.00		-9.60		2.209e-02		126.558		5.817e-03		17.489
5		0.00		-10.00		2.263e-02		126.418		5.404e-03		17.692
5		0.00		-9.60		2.295e-02		125.402		5.818e-03		17.480
5		0.00		-9.20		2.299e-02		126.253		5.826e-03		15.896
5		0.00		-8.80		2.265e-02		127.314		5.587e-03		14.381
5		0.00		-8.40		2.238e-02		126.927		5.837e-03		13.063
5		0.00		-8.00		2.218e-02		127.142		5.883e-03		10.928
5		0.00		-7.60		2.288e-02		126.697		5.714e-03		8.849
5		0.00		-7.20		2.164e-02		128.462		5.276e-03		8.662
5		0.00		-6.80		2.130e-02		126.923		5.366e-03		7.718
5		0.00		-6.40		2.049e-02		125.866		5.303e-03		8.587
5		0.00		-6.00		2.001e-02		126.597		4.599e-03		6.940
5		0.00		-5.60		1.921e-02		126.998		4.426e-03		7.740
5		0.00		-5.20		1.859e-02		128.178		4.140e-03		8.652
5		0.00		-4.80		1.798e-02		127.854		4.057e-03		8.112
5		0.00		-4.40		1.754e-02		126.311		3.882e-03		8.563
5		0.00		-4.00		1.662e-02		128.585		3.680e-03		9.371
5		0.00		-3.60		1.633e-02		127.352		3.356e-03		9.622
5		0.00		-3.20		1.560e-02		130.389		3.157e-03		10.065
5		0.00		-2.80		1.528e-02		127.166		2.893e-03		9.802
5		0.00		-2.40		1.483e-02		127.042		2.997e-03		10.946
5		0.00		-2.00		1.468e-02		128.918		2.945e-03		8.691
5		0.00		-1.60		1.373e-02		130.029		2.986e-03		9.415
5		0.00		-1.20		1.365e-02		129.382		2.725e-03		9.566
5		0.00		-0.80		1.297e-02		129.099		2.866e-03		10.978
5		0.00		-0.40		1.244e-02		129.586		2.885e-03		10.980
6		0.00		0.00		1.224e-02		129.215		2.768e-03		11.623
6		0.00		0.40		1.188e-02		129.531		2.922e-03		16.162
6		0.00		0.80		1.135e-02		127.939		2.932e-03		17.596
6		0.00		1.20		1.061e-02		124.555		3.067e-03		18.769
6		0.00		1.60		1.074e-02		126.679		2.999e-03		21.940
6		0.00		2.00		9.705e-03		122.902		2.871e-03		22.200
6		0.00		2.40		8.976e-03		124.160		2.559e-03		20.408
6		0.00		2.80		8.344e-03		121.210		2.517e-03		22.539
6		0.00		3.20		7.495e-03		122.704		2.230e-03		17.514
6		0.00		3.60		6.565e-03		125.555		2.071e-03		30.327
6		0.00		4.00		5.882e-03		131.000		1.871e-03		24.399
6		0.00		4.40		4.484e-03		124.286		1.574e-03		26.475
6		0.00		4.80		3.524e-03		106.697		1.334e-03		53.381
6		0.00		5.20		2.414e-03		63.826		1.136e-03		78.315
6		0.00		5.60		1.873e-03		-22.033		7.933e-04		87.581
6		0.00		6.00		2.902e-03		-60.296		1.214e-03		38.417
6		0.00		6.40		4.909e-03		-64.556		1.253e-03		18.730
6		0.00		6.80		7.409e-03		-58.404		1.733e-03		15.738
6		0.00		7.20		9.604e-03		-53.112		2.072e-03		13.641
6		0.00		7.60		1.257e-02		-53.510		2.809e-03		14.805
6		0.00		8.00		1.544e-02		-53.169		3.432e-03		12.046
6		0.00		8.40		1.878e-02		-50.925		4.242e-03		10.297
6		0.00		8.80		2.073e-02		-50.312		4.979e-03		12.290
6		0.00		9.20		2.433e-02		-50.917		5.941e-03		9.912
6		0.00		9.60		2.723e-02		-52.305		6.994e-03		12.706
6		0.00		10.00		3.133e-02		-53.114		8.394e-03		15.038
6		0.00		9.60		3.330e-02		-52.490		9.502e-03		18.218
6		0.00		9.20		3.429e-02		-52.583		9.976e-03		18.843
6		0.00		8.80		3.471e-02		-53.409		1.027e-02		15.263
6		0.00		8.40		3.442e-02		-52.970		1.018e-02		13.544
6		0.00		8.00		3.475e-02		-50.886		1.001e-02		10.705
6		0.00		7.60		3.488e-02		-51.124		9.335e-03		8.108
6		0.00		7.20		3.522e-02		-51.229		9.089e-03		7.888
6		0.00		6.80		3.475e-02		-49.954		8.107e-03		7.106
6		0.00		6.40		3.441e-02		-51.080		7.667e-03		7.456
6		0.00		6.00		3.391e-02		-50.242		7.255e-03		7.504
6		0.00		5.60		3.445e-02		-52.107		6.891e-03		7.717
6		0.00		5.20		3.326e-02		-50.703		6.245e-03		8.360
6		0.00		4.80		3.337e-02		-50.515		6.035e-03		8.543
6		0.00		4.40		3.324e-02		-50.973		6.284e-03		9.588
6		0.00		4.00		3.277e-02		-49.441		6.332e-03		10.403
6		0.00		3.60		3.278e-02		-49.454		6.690e-03		10.927
6		0.00		3.20		3.253e-02		-50.477		6.953e-03		8.815
6		0.00		2.80		3.178e-02		-49.450		7.344e-03		11.502
6		0.00		2.40		3.121e-02		-48.117		7.641e-03		11.722
6		0.00		2.00		3.091e-02		-50.697		8.012e-03		13.564
6		0.00		1.60		3.077e-02		-51.300		8.354e-03		15.268
6		0.00		1.20		3.082e-02		-50.595		8.410e-03		11.088
6		0.00		0.80		3.054e-02		-50.048		8.817e-03		10.198
6		0.00		0.40		3.072e-02		-51.182		8.645e-03		8.614
6		0.00		0.00		3.095e-02		-50.204		8.263e-03		8.511
6		0.00		-0.40		3.178e-02		-49.235		7.132e-03		6.566
6		0.00		-0.80		3.107e-02		-51.686		6.558e-03		7.021
6		0.00		-1.20		3.009e-02		-51.046		5.762e-03		9.033
6		0.00		-1.60		2.907e-02		-51.382		5.371e-03		9.537
6		0.00		-2.00		2.830e-02		-50.799		5.124e-03		8.815
6		0.00		-2.40		2.542e-02		-49.402		4.781e-03		10.298
6		0.00		-2.80		2.298e-02		-49.856		4.260e-03		10.312
6		0.00		-3.20		1.916e-02		-49.792		4.109e-03		11.106
6		0.00		-3.60		1.655e-02		-51.756		3.703e-03		11.884
6		0.00		-4.00		1.326e-02		-49.653		3.209e-03		12.955
6		0.00		-4.40		9.084e-03		-49.943		2.485e-03		15.445
6		0.00		-4.80		5.529e-03		-52.101		1.905e-03		19.041
6		0.00		-5.20		2.229e-03		-29.961		1.050e-03		60.625
6		0.00		-5.60		3.061e-03		81.544		1.402e-03		58.332
6		0.00		-6.00		5.562e-03		113.464		1.956e-03		35.949
6		0.00		-6.40		8.421e-03		122.815		2.838e-03		17.104
6		0.00		-6.80		1.113e-02		123.589		3.212e-03		10.844
6		0.00		-7.20		1.382e-02		130.769		3.722e-03		9.995
6		0.00		-7.60		1.629e-02		126.611		4.108e-03		8.547
6		0.00		-8.00		1.767e-02		126.298		4.549e-03		9.312
6		0.00		-8.40		1.962e-02		125.765		4.373e-03		9.629
6		0.00		-8.80		2.092e-02		127.623		4.249e-03		8.589
6		0.00		-9.20		2.134e-02		128.261		4.752e-03		9.568
6		0.00		-9.60		2.178e-02		128.514		4.654e-03		10.687
6		0.00		-10.00		2.298e-02		127.347		5.503e-03		12.388
6		0.00		-9.60		2.268e-02		128.150		5.580e-03		16.468
6		0.00		-9.20		2.246e-02		127.252		5.681e-03		16.229
6		0.00		-8.80		2.276e-02		126.863		5.865e-03		15.729
6		0.00		-8.40		2.261e-02		125.503		6.041e-03		18.176
6		0.00		-8.00		2.246e-02		127.480		6.158e-03		11.046
6		0.00		-7.60		2.160e-02		125.503		5.656e-03		9.126
6		0.00		-7.20		2.104e-02		127.222		5.460e-03		8.684
6		0.00		-6.80		2.002e-02		127.531		5.008e-03		7.198
6		0.00		-6.40		1.975e-02		127.851		4.591e-03		8.046
6		0.00		-6.00		1.906e-02		127.131		4.237e-03		7.861
6		0.00		-5.60		1.833e-02		127.426		3.881e-03		9.651
6		0.00		-5.20		1.750e-02		127.578		3.970e-03		9.358
6		0.00		-4.80		1.732e-02		126.024		3.904e-03		10.064
6		0.00		-4.40		1.635e-02		128.559		3.709e-03		8.483
6		0.00		-4.00		1.592e-02		126.607		3.695e-03		11.314
6		0.00		-3.60		1.535e-02		127.964		3.267e-03		9.933
6		0.00		-3.20		1.480e-02		131.220		3.449e-03		12.067
6		0.00		-2.80		1.423e-02		125.981		3.791e-03		15.792
6		0.00		-2.40		1.365e-02		126.546		3.437e-03		18.028
6		0.00		-2.00		1.338e-02		127.899		3.572e-03		16.931
6		0.00		-1.60		1.303e-02		126.830		3.460e-03		17.548
6		0.00		-1.20		1.259e-02		125.941		3.305e-03		17.849
6		0.00		-0.80		1.234e-02		126.809		3.615e-03		17.166
6		0.00		-0.40		1.208e-02		125.706		3.273e-03		16.167
7		0.00		0.00		1.165e-02		127.995		3.072e-03		10.529
7		0.00		0.40		1.148e-02		126.587		3.094e-03		9.991
7		0.00		0.80		1.103e-02		128.128		2.995e-03		11.572
7		0.00		1.20		1.036e-02		127.565		2.606e-03		10.567
7		0.00		1.60		9.858e-03		126.670		2.608e-03		12.153
7		0.00		2.00		9.415e-03		129.812		2.553e-03		11.192
7		0.00		2.40		8.686e-03		130.877		2.119e-03		10.182
7		0.00		2.80		7.897e-03		131.578		2.071e-03		11.355
7		0.00		3.20		6.919e-03		125.264		1.833e-03		14.636
7		0.00		3.60		6.258e-03		124.993		1.691e-03		15.632
7		0.00		4.00		5.301e-03		126.585		1.443e-03		16.608
7		0.00		4.40		4.026e-03		123.931		1.352e-03		25.457
7		0.00		4.80		3.041e-03		98.667		1.171e-03		78.926
7		0.00		5.20		2.185e-03		42.540		1.013e-03		89.987
7		0.00		5.60		1.768e-03		-40.615		7.962e-04		69.344
7		0.00		6.00		2.653e-03		-47.507		1.115e-03		40.190
7		0.00		6.40		4.427e-03		-59.443		1.391e-03		24.744
7		0.00		6.80		6.628e-03		-58.698		2.085e-03		18.741
7		0.00		7.20		9.305e-03		-50.307		2.698e-03		14.480
7		0.00		7.60		1.185e-02		-54.249		3.051e-03		15.411
7		0.00		8.00		1.426e-02		-51.142		4.114e-03		14.789
7		0.00		8.40		1.690e-02		-52.658		4.980e-03		17.503
7		0.00		8.80		2.055e-02		-52.519		5.949e-03		14.887
7		0.00		9.20		2.386e-02		-52.066		7.089e-03		15.511
7		0.00		9.60		2.761e-02		-52.088		8.258e-03		12.517
7		0.00		10.00		3.164e-02		-51.838		9.556e-03		11.053
7		0.00		9.60		3.297e-02		-52.345		9.492e-03		10.011
7		0.00		9.20		3.428e-02		-51.560		9.734e-03		8.967
7		0.00		8.80		3.482e-02		-51.638		9.355e-03		8.651
7		0.00		8.40		3.481e-02		-52.121		8.877e-03		8.284
7		0.00		8.00		3.487e-02		-51.124		8.386e-03		7.349
7		0.00		7.60		3.486e-02		-51.021		7.763e-03		7.179
7		0.00		7.20		3.498e-02		-52.006		7.618e-03		7.325
7		0.00		6.80		3.488e-02		-51.827		7.234e-03		7.604
7		0.00		6.40		3.432e-02		-51.519		7.258e-03		7.037
7		0.00		6.00		3.409e-02		-50.930		7.003e-03		8.028
7		0.00		5.60		3.391e-02		-51.449		6.614e-03		8.202
7		0.00		5.20		3.353e-02		-51.175		6.481e-03		8.169
7		0.00		4.80		3.334e-02		-51.455		6.699e-03		8.339
7		0.00		4.40		3.322e-02		-51.331		6.675e-03		8.561
7		0.00		4.00		3.256e-02		-49.857		6.607e-03		9.672
7		0.00		3.60		3.272e-02		-51.683		6.908e-03		9.047
7		0.00		3.20		3.175e-02		-50.210		7.217e-03		9.605
7		0.00		2.80		3.145e-02		-50.205		7.421e-03		9.083
7		0.00		2.40		3.146e-02		-49.203		7.234e-03		9.164
7		0.00		2.00		3.134e-02		-49.589		6.829e-03		8.830
7		0.00		1.60		3.098e-02		-50.411		6.956e-03		10.670
7		0.00		1.20		3.125e-02		-50.253		6.946e-03		9.144
7		0.00		0.80		3.155e-02		-50.498		7.243e-03		10.128
7		0.00		0.40		3.119e-02		-51.341		6.989e-03		10.673
7		0.00		0.00		3.154e-02		-49.915		6.604e-03		10.031
7		0.00		-0.40		3.127e-02		-50.145		6.294e-03		10.475
7		0.00		-0.80		3.163e-02		-49.956		6.106e-03		9.817
7		0.00		-1.20		3.071e-02		-50.339		5.641e-03		9.102
7		0.00		-1.60		3.036e-02		-49.800		6.273e-03		9.789
7		0.00		-2.00		2.958e-02		-49.937		5.734e-03		9.304
7		0.00		-2.40		2.812e-02		-48.943		5.483e-03		9.740
7		0.00		-2.80		2.548e-02		-51.307		5.097e-03		9.705
7		0.00		-3.20		2.253e-02		-49.749		4.471e-03		10.199
7		0.00		-3.60		1.865e-02		-49.197		3.736e-03		10.774
7		0.00		-4.00		1.498e-02		-52.352		3.197e-03		11.577
7		0.00		-4.40		9.815e-03		-50.813		2.077e-03		13.255
7		0.00		-4.80		7.075e-03		-53.743		1.906e-03		16.628
7		0.00		-5.20		3.525e-03		-36.895		1.519e-03		31.745
7		0.00		-5.60		2.115e-03		41.554		1.016e-03		71.413
7		0.00		-6.00		4.120e-03		104.087		1.590e-03		54.077
7		0.00		-6.40		7.070e-03		128.920		2.337e-03		20.287
7		0.00		-6.80		1.059e-02		123.180		2.868e-03		13.284
7		0.00		-7.20		1.326e-02		129.426		3.250e-03		10.874
7		0.00		-7.60		1.605e-02		125.802		3.784e-03		9.585
7		0.00		-8.00		1.745e-02		126.413		3.850e-03		9.943
7		0.00		-8.40		1.952e-02		129.867		4.332e-03		9.379
7		0.00		-8.80		2.120e-02		128.404		4.556e-03		9.360
7		0.00		-9.20		2.256e-02		129.592		4.592e-03		8.233
7		0.00		-9.60		2.223e-02		129.222		4.739e-03		8.511
7		0.00		-10.00		2.291e-02		127.714		4.868e-03		9.443
7		0.00		-9.60		2.346e-02		129.366		5.064e-03		8.675
7		0.00		-9.20		2.410e-02		129.213		4.799e-03		8.613
7		0.00		-8.80		2.318e-02		128.974		4.954e-03		8.044
7		0.00		-8.40		2.238e-02		128.524		5.125e-03		9.165
7		0.00		-8.00		2.202e-02		129.807		5.236e-03		8.990
7		0.00		-7.60		2.140e-02		128.054		5.356e-03		8.591
7		0.00		-7.20		2.081e-02		128.237		4.789e-03		8.740
7		0.00		-6.80		1.976e-02		128.163		4.860e-03		9.285
7		0.00		-6.40		1.923e-02		126.217		4.582e-03		9.423
7		0.00		-6.00		1.880e-02		126.460		4.889e-03		11.252
7		0.00		-5.60		1.821e-02		125.745		4.645e-03		12.373
7		0.00		-5.20		1.767e-02		127.960		4.273e-03		10.794
7		0.00		-4.80		1.662e-02		130.892		3.851e-03		10.803
7		0.00		-4.40		1.648e-02		128.881		3.927e-03		10.811
7		0.00		-4.00		1.621e-02		129.116		3.810e-03		10.598
7		0.00		-3.60		1.557e-02		127.971		3.484e-03		10.621
7		0.00		-3.20		1.533e-02		127.169		3.533e-03		13.083
7		0.00		-2.80		1.514e-02		127.345		3.577e-03		10.782
7		0.00		-2.40		1.425e-02		128.025		3.449e-03		14.874
7		0.00		-2.00		1.423e-02		129.988		3.223e-03		12.683
7		0.00		-1.60		1.387e-02		128.509		3.256e-03		16.049
7		0.00		-1.20		1.336e-02		127.881		3.262e-03		13.472
7		0.00		-0.80		1.303e-02		128.129		3.537e-03		16.094
7		0.00		-0.40		1.245e-02		126.185		3.255e-03		16.923
8		0.00		0.00		1.194e-02		123.155		3.373e-03		16.817
8		0.00		0.40		1.186e-02		123.970		3.032e-03		17.613
8		0.00		0.80		1.153e-02		125.405		3.109e-03		17.544
8		0.00		1.20		1.110e-02		126.793		3.048e-03		18.281
8		0.00		1.60		1.064e-02		123.007		3.053e-03		19.895
8		0.00		2.00		9.934e-03		122.972		2.768e-03		18.076
8		0.00		2.40		9.626e-03		127.959		2.636e-03		19.512
8		0.00		2.80		8.884e-03		126.980		2.349e-03		18.419
8		0.00		3.20		8.029e-03		122.276		2.344e-03		20.972
8		0.00		3.60		7.207e-03		123.744		2.086e-03		22.733
8		0.00		4.00		6.062e-03		126.721		1.675e-03		24.548
8		0.00		4.40		5.019e-03		120.165		1.709e-03		26.810
8		0.00		4.80		3.832e-03		113.002		1.298e-03		42.639
8		0.00		5.20		2.861e-03		77.742		1.073e-03		73.384
8		0.00		5.60		2.014e-03		34.115		8.712e-04		81.694
8		0.00		6.00		2.426e-03		-53.820		9.765e-04		48.114
8		0.00		6.40		3.706e-03		-67.397		1.351e-03		27.641
8		0.00		6.80		6.811e-03		-53.846		2.073e-03		15.806
8		0.00		7.20		9.573e-03		-53.228		2.782e-03		13.858
8		0.00		7.60		1.141e-02		-50.225		3.635e-03		12.139
8		0.00		8.00		1.456e-02		-51.452		4.358e-03		11.549
8		0.00		8.40		1.693e-02		-52.394		4.775e-03		11.066
8		0.00		8.80		1.994e-02		-51.346		5.438e-03		9.452
8		0.00		9.20		2.303e-02		-50.887		6.124e-03		8.047
8		0.00		9.60		2.645e-02		-52.260		7.329e-03		8.229
8		0.00		10.00		2.954e-02		-52.149		7.824e-03		7.329
8		0.00		9.60		3.151e-02		-52.042		7.929e-03		6.815
8		0.00		9.20		3.254e-02		-51.337		7.590e-03		7.277
8		0.00		8.80		3.323e-02		-51.147		7.521e-03		7.336
8		0.00		8.40		3.268e-02		-51.755		7.010e-03		8.188
8		0.00		8.00		3.280e-02		-50.772		7.154e-03		8.379
8		0.00		7.60		3.248e-02		-50.899		6.443e-03		8.306
8		0.00		7.20		3.208e-02		-51.562		6.383e-03		8.247
8		0.00		6.80		3.165e-02		-50.810		6.268e-03		8.439
8		0.00		6.40		3.210e-02		-51.905		6.206e-03		8.820
8		0.00		6.00		3.205e-02		-51.498		5.818e-03		8.588
8		0.00		5.60		3.211e-02		-51.268		5.889e-03		8.231
8		0.00		5.20		3.138e-02		-49.899		5.562e-03		8.667
8		0.00		4.80		3.142e-02		-51.130		5.524e-03		7.637
8		0.00		4.40		3.146e-02		-50.615		5.585e-03		8.211
8		0.00		4.00		3.113e-02		-49.484		5.193e-03		7.908
8		0.00		3.60		3.101e-02		-50.455		5.494e-03		7.979
8		0.00		3.20		3.121e-02		-51.010		5.600e-03		9.371
8		0.00		2.80		3.092e-02		-51.962		5.979e-03		9.689
8		0.00		2.40		3.134e-02		-51.414		5.891e-03		8.224
8		0.00		2.00		3.057e-02		-50.236		6.032e-03		9.351
8		0.00		1.60		3.042e-02		-51.325		5.908e-03		9.267
8		0.00		1.20		3.074e-02		-49.506		5.702e-03		8.851
8		0.00		0.80		2.998e-02		-50.074		6.341e-03		9.692
8		0.00		0.40		2.950e-02		-50.032		5.942e-03		8.187
8		0.00		0.00		2.999e-02		-49.516		5.831e-03		8.394
8		0.00		-0.40		2.925e-02		-49.548		6.001e-03		10.683
8		0.00		-0.80		2.943e-02		-48.785		6.324e-03		9.428
8		0.00		-1.20		2.874e-02		-48.204		5.997e-03		9.634
8		0.00		-1.60		2.827e-02		-49.226		5.828e-03		9.931
8		0.00		-2.00		2.750e-02		-48.818		5.954e-03		10.015
8		0.00		-2.40		2.631e-02		-47.710		5.945e-03		9.905
8		0.00		-2.80		2.397e-02		-50.716		5.981e-03		12.597
8		0.00		-3.20		2.171e-02		-52.350		5.851e-03		12.284
8		0.00		-3.60		1.915e-02		-50.728		5.133e-03		15.525
8		0.00		-4.00		1.555e-02		-53.285		4.460e-03		14.523
8		0.00		-4.40		1.160e-02		-53.424		3.161e-03		14.012
8		0.00		-4.80		6.356e-03		-53.479		2.114e-03		20.349
8		0.00		-5.20		2.740e-03		-44.784		1.201e-03		42.703
8		0.00		-5.60		2.404e-03		30.411		1.095e-03		74.892
8		0.00		-6.00		4.755e-03		108.514		1.819e-03		48.620
8		0.00		-6.40		7.515e-03		123.529		2.357e-03		19.759
8		0.00		-6.80		1.074e-02		125.600		3.020e-03		11.408
8		0.00		-7.20		1.424e-02		128.366		3.941e-03		9.003
8		0.00		-7.60		1.539e-02		127.123		3.811e-03		8.976
8		0.00		-8.00		1.713e-02		128.953		4.085e-03		7.725
8		0.00		-8.40		1.839e-02		126.522		4.179e-03		7.769
8		0.00		-8.80		2.013e-02		128.658		4.340e-03		8.664
8		0.00		-9.20		2.241e-02		130.438		4.751e-03		7.709
8		0.00		-9.60		2.332e-02		129.091		4.719e-03		8.407
8		0.00		-10.00		2.477e-02		128.580		4.584e-03		7.174
8		0.00		-9.60		2.447e-02		129.499		4.569e-03		8.250
8		0.00		-9.20		2.458e-02		126.917		4.415e-03		7.962
8		0.00		-8.80		2.404e-02		128.026		4.755e-03		8.104
8		0.00		-8.40		2.390e-02		128.240		4.413e-03		7.645
8		0.00		-8.00		2.403e-02		127.372		4.539e-03		8.792
8		0.00		-7.60		2.282e-02		129.590		4.244e-03		7.650
8		0.00		-7.20		2.252e-02		128.768		4.307e-03		8.423
8		0.00		-6.80		2.174e-02		128.823		4.388e-03		8.573
8		0.00		-6.40		2.122e-02		127.375		4.330e-03		8.784
8		0.00		-6.00		2.062e-02		128.175		3.988e-03		8.994
8		0.00		-5.60		1.979e-02		128.175		4.099e-03		8.852
8		0.00		-5.20		1.873e-02		128.797		4.187e-03		10.461
8		0.00		-4.80		1.832e-02		129.650		4.250e-03		9.542
8		0.00		-4.40		1.721e-02		128.625		3.977e-03		11.581
8		0.00		-4.00		1.720e-02		130.501		3.844e-03		13.477
8		0.00		-3.60		1.602e-02		127.142		3.901e-03		15.691
8		0.00		-3.20		1.589e-02		126.313		3.728e-03		17.722
8		0.00		-2.80		1.557e-02		126.846		3.870e-03		16.841
8		0.00		-2.40		1.533e-02		126.518		3.674e-03		17.741
8		0.00		-2.00		1.472e-02		125.669		3.835e-03		17.322
8		0.00		-1.60		1.423e-02		125.645		3.923e-03		17.417
8		0.00		-1.20		1.367e-02		127.837		3.942e-03		12.730
8		0.00		-0.80		1.335e-02		129.397		3.663e-03		11.190
8		0.00		-0.40		1.355e-02		125.815		3.520e-03		9.913
