# Date of analysis: 2023-11-20 16;15
# 
# Loop index	Read Volt (V)	Write Volt (V)	Amplitude (a.u)	Phase (deg)	Sigma Amp (a.u)	Sigma Pha (deg)	
1		0.00		0.00		3.867e-02		-52.444		7.624e-03		6.944
1		0.00		0.40		3.767e-02		-52.259		7.503e-03		6.940
1		0.00		0.80		3.630e-02		-53.493		7.007e-03		7.296
1		0.00		1.20		3.639e-02		-51.465		7.409e-03		8.327
1		0.00		1.60		3.564e-02		-53.338		7.733e-03		8.212
1		0.00		2.00		3.507e-02		-51.719		8.008e-03		8.346
1		0.00		2.40		3.548e-02		-53.153		9.141e-03		7.983
1		0.00		2.80		3.475e-02		-52.673		9.587e-03		9.301
1		0.00		3.20		3.425e-02		-54.193		9.746e-03		9.885
1		0.00		3.60		3.424e-02		-54.303		1.019e-02		10.081
1		0.00		4.00		3.446e-02		-52.344		9.870e-03		10.344
1		0.00		4.40		3.482e-02		-55.092		1.020e-02		12.877
1		0.00		4.80		3.587e-02		-56.152		1.126e-02		15.592
1		0.00		5.20		3.713e-02		-55.298		1.188e-02		14.058
1		0.00		5.60		3.924e-02		-56.722		1.260e-02		14.747
1		0.00		6.00		4.168e-02		-55.663		1.261e-02		14.210
1		0.00		6.40		4.408e-02		-54.606		1.324e-02		13.748
1		0.00		6.80		4.738e-02		-53.928		1.349e-02		9.922
1		0.00		7.20		5.040e-02		-52.413		1.338e-02		8.225
1		0.00		7.60		5.332e-02		-51.980		1.415e-02		6.512
1		0.00		8.00		5.591e-02		-52.169		1.411e-02		6.566
1		0.00		8.40		5.868e-02		-50.837		1.513e-02		7.032
1		0.00		8.80		5.962e-02		-50.013		1.450e-02		7.371
1		0.00		9.20		6.133e-02		-48.677		1.410e-02		7.472
1		0.00		9.60		6.125e-02		-48.124		1.362e-02		7.341
1		0.00		10.00		6.209e-02		-46.888		1.497e-02		8.562
1		0.00		9.60		6.107e-02		-48.133		1.500e-02		8.788
1		0.00		9.20		5.999e-02		-49.474		1.488e-02		9.877
1		0.00		8.80		5.797e-02		-48.578		1.330e-02		9.341
1		0.00		8.40		5.743e-02		-49.050		1.292e-02		8.583
1		0.00		8.00		5.626e-02		-50.005		1.281e-02		7.232
1		0.00		7.60		5.283e-02		-50.747		1.271e-02		9.080
1		0.00		7.20		5.216e-02		-51.698		1.282e-02		9.793
1		0.00		6.80		5.170e-02		-51.359		1.267e-02		8.310
1		0.00		6.40		4.953e-02		-52.250		1.182e-02		9.248
1		0.00		6.00		4.991e-02		-50.798		1.146e-02		7.812
1		0.00		5.60		4.874e-02		-51.771		1.169e-02		7.923
1		0.00		5.20		4.732e-02		-50.598		1.110e-02		7.779
1		0.00		4.80		4.651e-02		-50.893		1.069e-02		7.279
1		0.00		4.40		4.629e-02		-50.250		1.028e-02		7.112
1		0.00		4.00		4.530e-02		-51.040		1.066e-02		8.356
1		0.00		3.60		4.428e-02		-50.858		1.065e-02		7.760
1		0.00		3.20		4.328e-02		-51.373		1.078e-02		8.428
1		0.00		2.80		4.262e-02		-51.270		1.029e-02		8.125
1		0.00		2.40		4.116e-02		-50.226		1.067e-02		7.739
1		0.00		2.00		4.016e-02		-50.835		1.133e-02		7.872
1		0.00		1.60		3.908e-02		-50.517		1.156e-02		8.478
1		0.00		1.20		3.785e-02		-51.072		1.105e-02		9.319
1		0.00		0.80		3.742e-02		-51.101		1.136e-02		9.276
1		0.00		0.40		3.740e-02		-51.793		1.141e-02		8.349
1		0.00		0.00		3.639e-02		-50.958		1.087e-02		8.399
1		0.00		-0.40		3.477e-02		-52.073		1.065e-02		9.427
1		0.00		-0.80		3.131e-02		-50.001		9.603e-03		8.560
1		0.00		-1.20		2.894e-02		-51.808		8.996e-03		9.544
1		0.00		-1.60		2.707e-02		-52.227		7.804e-03		11.824
1		0.00		-2.00		2.329e-02		-51.661		6.815e-03		10.781
1		0.00		-2.40		2.075e-02		-51.720		6.273e-03		12.157
1		0.00		-2.80		1.727e-02		-53.278		5.400e-03		13.672
1		0.00		-3.20		1.451e-02		-49.760		4.494e-03		12.882
1		0.00		-3.60		1.149e-02		-48.238		3.841e-03		12.891
1		0.00		-4.00		7.291e-03		-50.025		2.831e-03		15.994
1		0.00		-4.40		4.723e-03		-55.249		2.297e-03		32.375
1		0.00		-4.80		2.591e-03		-31.901		1.156e-03		61.211
1		0.00		-5.20		3.006e-03		62.971		1.746e-03		72.797
1		0.00		-5.60		5.066e-03		103.189		2.852e-03		51.317
1		0.00		-6.00		8.012e-03		121.130		3.277e-03		21.509
1		0.00		-6.40		1.008e-02		119.683		3.942e-03		22.337
1		0.00		-6.80		1.250e-02		120.710		4.232e-03		21.468
1		0.00		-7.20		1.501e-02		120.234		5.066e-03		22.806
1		0.00		-7.60		1.700e-02		122.191		5.645e-03		19.000
1		0.00		-8.00		1.834e-02		122.806		6.060e-03		19.774
1		0.00		-8.40		1.981e-02		122.565		6.133e-03		19.117
1		0.00		-8.80		2.052e-02		120.995		6.512e-03		19.458
1		0.00		-9.20		2.148e-02		123.035		6.306e-03		17.097
1		0.00		-9.60		2.173e-02		122.293		6.546e-03		19.061
1		0.00		-10.00		2.394e-02		125.197		6.775e-03		13.943
1		0.00		-9.60		2.317e-02		127.141		6.552e-03		15.506
1		0.00		-9.20		2.305e-02		125.248		6.215e-03		12.557
1		0.00		-8.80		2.253e-02		124.321		6.358e-03		14.305
1		0.00		-8.40		2.236e-02		124.694		6.075e-03		13.041
1		0.00		-8.00		2.208e-02		125.046		6.036e-03		12.647
1		0.00		-7.60		2.092e-02		124.455		5.659e-03		13.501
1		0.00		-7.20		2.001e-02		127.145		5.535e-03		12.231
1		0.00		-6.80		1.820e-02		127.121		5.321e-03		11.201
1		0.00		-6.40		1.635e-02		126.488		4.987e-03		10.713
1		0.00		-6.00		1.459e-02		124.104		4.666e-03		14.874
1		0.00		-5.60		1.412e-02		125.539		4.393e-03		14.935
1		0.00		-5.20		1.315e-02		127.523		4.131e-03		10.621
1		0.00		-4.80		1.249e-02		123.638		3.828e-03		13.956
1		0.00		-4.40		1.125e-02		125.961		3.415e-03		11.835
1		0.00		-4.00		9.990e-03		126.999		3.204e-03		12.456
1		0.00		-3.60		9.012e-03		129.036		2.878e-03		15.876
1		0.00		-3.20		8.369e-03		124.536		2.335e-03		13.974
1		0.00		-2.80		7.710e-03		125.654		2.392e-03		11.610
1		0.00		-2.40		7.083e-03		131.789		2.074e-03		14.152
1		0.00		-2.00		6.287e-03		124.415		2.024e-03		25.165
1		0.00		-1.60		5.698e-03		125.616		1.837e-03		17.333
1		0.00		-1.20		4.649e-03		116.188		1.803e-03		43.183
1		0.00		-0.80		4.219e-03		115.763		1.605e-03		41.990
1		0.00		-0.40		3.563e-03		111.287		1.525e-03		42.354
2		0.00		0.00		2.956e-03		87.786		1.288e-03		75.863
2		0.00		0.40		2.169e-03		53.353		1.122e-03		85.005
2		0.00		0.80		1.770e-03		32.608		8.467e-04		82.492
2		0.00		1.20		1.798e-03		18.758		8.718e-04		88.194
2		0.00		1.60		2.222e-03		-38.833		9.094e-04		64.489
2		0.00		2.00		2.177e-03		-45.711		9.466e-04		54.650
2		0.00		2.40		3.144e-03		-66.617		1.347e-03		34.306
2		0.00		2.80		3.685e-03		-65.016		1.511e-03		29.525
2		0.00		3.20		4.878e-03		-60.563		1.577e-03		16.707
2		0.00		3.60		6.309e-03		-50.208		1.704e-03		15.642
2		0.00		4.00		8.045e-03		-57.068		2.284e-03		13.647
2		0.00		4.40		9.934e-03		-49.155		2.713e-03		14.129
2		0.00		4.80		1.217e-02		-53.459		3.129e-03		11.800
2		0.00		5.20		1.540e-02		-52.609		3.791e-03		10.601
2		0.00		5.60		1.873e-02		-54.035		4.732e-03		9.636
2		0.00		6.00		2.325e-02		-51.248		5.911e-03		8.935
2		0.00		6.40		2.574e-02		-50.694		6.566e-03		8.766
2		0.00		6.80		2.929e-02		-53.164		7.399e-03		8.190
2		0.00		7.20		3.314e-02		-52.782		8.628e-03		8.817
2		0.00		7.60		3.804e-02		-53.789		1.005e-02		7.730
2		0.00		8.00		4.121e-02		-52.214		1.102e-02		8.318
2		0.00		8.40		4.451e-02		-53.667		1.323e-02		8.778
2		0.00		8.80		4.735e-02		-53.155		1.460e-02		9.457
2		0.00		9.20		4.917e-02		-52.900		1.517e-02		9.344
2		0.00		9.60		5.113e-02		-52.079		1.577e-02		7.626
2		0.00		10.00		5.257e-02		-52.560		1.614e-02		7.535
2		0.00		9.60		5.130e-02		-52.507		1.589e-02		7.927
2		0.00		9.20		5.035e-02		-51.902		1.520e-02		7.592
2		0.00		8.80		4.828e-02		-54.198		1.453e-02		9.103
2		0.00		8.40		4.739e-02		-52.509		1.387e-02		8.137
2		0.00		8.00		4.656e-02		-52.740		1.297e-02		8.939
2		0.00		7.60		4.565e-02		-51.938		1.198e-02		7.214
2		0.00		7.20		4.439e-02		-51.831		1.075e-02		7.067
2		0.00		6.80		4.303e-02		-50.529		1.002e-02		7.242
2		0.00		6.40		4.130e-02		-50.187		9.365e-03		6.705
2		0.00		6.00		3.989e-02		-51.393		8.961e-03		6.524
2		0.00		5.60		3.921e-02		-50.216		8.644e-03		6.093
2		0.00		5.20		3.830e-02		-51.118		8.237e-03		7.606
2		0.00		4.80		3.706e-02		-50.896		7.630e-03		7.037
2		0.00		4.40		3.654e-02		-50.276		7.446e-03		7.499
2		0.00		4.00		3.566e-02		-50.733		7.285e-03		6.886
2		0.00		3.60		3.445e-02		-51.393		7.192e-03		7.437
2		0.00		3.20		3.442e-02		-52.069		7.122e-03		7.167
2		0.00		2.80		3.324e-02		-51.678		7.053e-03		7.274
2		0.00		2.40		3.262e-02		-50.943		6.519e-03		7.519
2		0.00		2.00		3.207e-02		-51.568		6.904e-03		7.500
2		0.00		1.60		3.158e-02		-50.508		6.403e-03		7.192
2		0.00		1.20		3.157e-02		-49.814		6.748e-03		7.101
2		0.00		0.80		3.141e-02		-50.478		6.569e-03		7.532
2		0.00		0.40		3.097e-02		-49.757		6.481e-03		7.356
2		0.00		0.00		3.041e-02		-51.735		6.242e-03		7.123
2		0.00		-0.40		2.925e-02		-51.480		5.906e-03		7.802
2		0.00		-0.80		2.710e-02		-50.013		5.632e-03		8.428
2		0.00		-1.20		2.532e-02		-50.059		5.548e-03		7.940
2		0.00		-1.60		2.289e-02		-49.567		4.843e-03		8.599
2		0.00		-2.00		1.951e-02		-50.124		4.647e-03		9.378
2		0.00		-2.40		1.648e-02		-50.581		4.187e-03		11.985
2		0.00		-2.80		1.328e-02		-53.761		3.745e-03		11.706
2		0.00		-3.20		1.107e-02		-52.805		3.347e-03		10.654
2		0.00		-3.60		8.328e-03		-50.370		3.098e-03		14.106
2		0.00		-4.00		4.538e-03		-37.757		2.253e-03		28.074
2		0.00		-4.40		3.103e-03		-31.489		1.646e-03		50.747
2		0.00		-4.80		2.659e-03		36.910		1.627e-03		76.229
2		0.00		-5.20		4.410e-03		95.906		2.467e-03		65.663
2		0.00		-5.60		6.706e-03		118.672		3.303e-03		27.906
2		0.00		-6.00		8.630e-03		123.365		3.418e-03		24.070
2		0.00		-6.40		1.043e-02		121.984		3.864e-03		19.218
2		0.00		-6.80		1.226e-02		120.272		4.501e-03		18.652
2		0.00		-7.20		1.311e-02		121.318		4.763e-03		19.291
2		0.00		-7.60		1.568e-02		123.794		5.232e-03		14.402
2		0.00		-8.00		1.712e-02		122.995		5.299e-03		14.333
2		0.00		-8.40		1.797e-02		125.445		5.545e-03		11.034
2		0.00		-8.80		1.946e-02		125.135		5.510e-03		12.572
2		0.00		-9.20		1.840e-02		127.810		5.136e-03		9.222
2		0.00		-9.60		2.067e-02		127.205		5.663e-03		9.283
2		0.00		-10.00		2.246e-02		128.166		6.044e-03		8.979
2		0.00		-9.60		2.402e-02		127.748		5.735e-03		9.079
2		0.00		-9.20		2.226e-02		128.453		5.407e-03		9.190
2		0.00		-8.80		2.238e-02		127.733		5.125e-03		7.457
2		0.00		-8.40		2.155e-02		127.690		5.286e-03		8.682
2		0.00		-8.00		2.112e-02		131.339		5.460e-03		7.236
2		0.00		-7.60		1.982e-02		129.253		5.186e-03		7.826
2		0.00		-7.20		1.866e-02		129.289		4.907e-03		8.266
2		0.00		-6.80		1.667e-02		127.704		4.646e-03		9.166
2		0.00		-6.40		1.590e-02		127.206		4.707e-03		11.440
2		0.00		-6.00		1.458e-02		125.616		4.604e-03		11.406
2		0.00		-5.60		1.324e-02		125.831		4.453e-03		15.071
2		0.00		-5.20		1.240e-02		121.553		4.252e-03		20.594
2		0.00		-4.80		1.140e-02		120.674		3.893e-03		21.256
2		0.00		-4.40		1.065e-02		120.712		3.565e-03		22.577
2		0.00		-4.00		9.323e-03		122.388		3.052e-03		17.121
2		0.00		-3.60		9.048e-03		125.297		2.877e-03		26.381
2		0.00		-3.20		8.020e-03		129.399		2.678e-03		14.007
2		0.00		-2.80		7.118e-03		130.898		2.432e-03		14.508
2		0.00		-2.40		6.390e-03		123.141		2.210e-03		23.284
2		0.00		-2.00		5.590e-03		130.898		2.075e-03		19.384
2		0.00		-1.60		4.627e-03		124.731		1.759e-03		34.886
2		0.00		-1.20		3.704e-03		107.545		1.451e-03		53.807
2		0.00		-0.80		3.121e-03		87.865		1.475e-03		68.447
2		0.00		-0.40		2.528e-03		74.316		1.265e-03		70.150
3		0.00		0.00		2.361e-03		70.352		1.113e-03		79.584
3		0.00		0.40		1.982e-03		37.269		8.585e-04		80.196
3		0.00		0.80		1.819e-03		9.667		8.276e-04		84.031
3		0.00		1.20		1.653e-03		-23.419		6.666e-04		69.471
3		0.00		1.60		2.067e-03		-44.752		1.001e-03		59.459
3		0.00		2.00		2.514e-03		-58.932		1.006e-03		32.929
3		0.00		2.40		3.075e-03		-55.072		1.288e-03		37.395
3		0.00		2.80		3.854e-03		-61.165		1.490e-03		28.757
3		0.00		3.20		4.737e-03		-60.988		1.664e-03		21.868
3		0.00		3.60		5.980e-03		-58.416		1.757e-03		16.005
3		0.00		4.00		8.128e-03		-51.589		1.590e-03		15.094
3		0.00		4.40		9.867e-03		-53.748		1.898e-03		12.525
3		0.00		4.80		1.126e-02		-49.027		2.238e-03		12.241
3		0.00		5.20		1.272e-02		-47.502		2.897e-03		10.138
3		0.00		5.60		1.563e-02		-53.208		3.487e-03		11.965
3		0.00		6.00		1.833e-02		-52.275		4.252e-03		9.423
3		0.00		6.40		2.122e-02		-50.793		5.028e-03		9.731
3		0.00		6.80		2.413e-02		-50.138		6.385e-03		9.336
3		0.00		7.20		2.749e-02		-53.133		7.038e-03		13.115
3		0.00		7.60		3.116e-02		-53.414		9.120e-03		15.523
3		0.00		8.00		3.355e-02		-53.965		1.019e-02		13.294
3		0.00		8.40		3.741e-02		-53.521		1.136e-02		11.769
3		0.00		8.80		4.039e-02		-52.663		1.170e-02		7.637
3		0.00		9.20		4.300e-02		-52.138		1.143e-02		6.127
3		0.00		9.60		4.498e-02		-50.897		1.094e-02		6.677
3		0.00		10.00		4.703e-02		-50.683		1.092e-02		6.532
3		0.00		9.60		4.539e-02		-50.476		1.001e-02		7.091
3		0.00		9.20		4.457e-02		-51.449		9.901e-03		7.315
3		0.00		8.80		4.269e-02		-50.849		1.003e-02		7.240
3		0.00		8.40		4.094e-02		-51.444		9.777e-03		7.512
3		0.00		8.00		3.936e-02		-50.292		9.832e-03		7.962
3		0.00		7.60		3.757e-02		-49.683		9.663e-03		7.720
3		0.00		7.20		3.640e-02		-50.733		9.984e-03		9.975
3		0.00		6.80		3.532e-02		-52.790		9.812e-03		14.620
3		0.00		6.40		3.505e-02		-53.253		9.766e-03		16.188
3		0.00		6.00		3.470e-02		-52.473		9.604e-03		9.045
3		0.00		5.60		3.443e-02		-52.428		8.726e-03		7.499
3		0.00		5.20		3.355e-02		-50.440		7.615e-03		7.815
3		0.00		4.80		3.331e-02		-49.440		6.911e-03		6.842
3		0.00		4.40		3.300e-02		-49.792		6.560e-03		6.919
3		0.00		4.00		3.150e-02		-50.949		6.438e-03		7.259
3		0.00		3.60		3.050e-02		-50.723		6.436e-03		6.855
3		0.00		3.20		2.893e-02		-49.578		6.728e-03		7.358
3		0.00		2.80		2.830e-02		-49.812		7.279e-03		9.503
3		0.00		2.40		2.774e-02		-50.196		7.606e-03		8.441
3		0.00		2.00		2.725e-02		-50.886		8.081e-03		9.436
3		0.00		1.60		2.702e-02		-52.338		8.154e-03		12.644
3		0.00		1.20		2.653e-02		-52.571		7.991e-03		12.656
3		0.00		0.80		2.675e-02		-52.578		7.883e-03		7.403
3		0.00		0.40		2.753e-02		-51.939		7.162e-03		7.580
3		0.00		0.00		2.768e-02		-50.311		5.922e-03		7.779
3		0.00		-0.40		2.683e-02		-51.221		4.946e-03		6.999
3		0.00		-0.80		2.567e-02		-49.348		4.707e-03		6.653
3		0.00		-1.20		2.328e-02		-49.765		4.468e-03		8.834
3		0.00		-1.60		2.084e-02		-51.133		4.585e-03		9.592
3		0.00		-2.00		1.822e-02		-51.108		4.517e-03		10.608
3		0.00		-2.40		1.539e-02		-47.987		4.264e-03		12.892
3		0.00		-2.80		1.317e-02		-49.382		3.869e-03		13.309
3		0.00		-3.20		9.644e-03		-53.058		3.266e-03		13.109
3		0.00		-3.60		7.353e-03		-47.992		2.897e-03		18.464
3		0.00		-4.00		4.782e-03		-47.471		2.109e-03		32.208
3		0.00		-4.40		2.947e-03		-23.648		1.399e-03		63.652
3		0.00		-4.80		2.596e-03		5.255		1.283e-03		82.471
3		0.00		-5.20		3.403e-03		80.339		2.130e-03		61.902
3		0.00		-5.60		5.038e-03		116.722		2.430e-03		32.724
3		0.00		-6.00		7.152e-03		123.456		3.018e-03		25.041
3		0.00		-6.40		9.050e-03		122.097		3.444e-03		22.316
3		0.00		-6.80		1.174e-02		123.115		4.071e-03		23.480
3		0.00		-7.20		1.475e-02		126.491		4.737e-03		14.554
3		0.00		-7.60		1.622e-02		127.706		4.952e-03		8.623
3		0.00		-8.00		1.779e-02		126.807		4.741e-03		10.104
3		0.00		-8.40		1.864e-02		127.214		4.630e-03		8.600
3		0.00		-8.80		1.910e-02		130.637		4.479e-03		6.864
3		0.00		-9.20		2.048e-02		129.424		4.990e-03		9.420
3		0.00		-9.60		2.093e-02		128.623		5.400e-03		9.412
3		0.00		-10.00		2.159e-02		128.168		5.884e-03		13.323
3		0.00		-9.60		2.148e-02		124.009		6.003e-03		19.207
3		0.00		-9.20		2.128e-02		126.896		5.840e-03		11.870
3		0.00		-8.80		2.144e-02		126.992		5.395e-03		8.079
3		0.00		-8.40		2.087e-02		128.417		4.444e-03		7.977
3		0.00		-8.00		1.967e-02		128.057		4.493e-03		8.067
3		0.00		-7.60		1.900e-02		128.708		4.918e-03		8.205
3		0.00		-7.20		1.779e-02		127.079		5.265e-03		10.757
3		0.00		-6.80		1.663e-02		125.433		5.247e-03		17.584
3		0.00		-6.40		1.525e-02		126.284		4.852e-03		11.316
3		0.00		-6.00		1.412e-02		126.846		4.367e-03		10.664
3		0.00		-5.60		1.298e-02		128.543		3.914e-03		8.513
3		0.00		-5.20		1.149e-02		127.415		3.275e-03		9.403
3		0.00		-4.80		1.039e-02		130.933		3.143e-03		10.585
3		0.00		-4.40		9.187e-03		126.153		2.890e-03		13.162
3		0.00		-4.00		8.569e-03		124.822		3.064e-03		22.925
3		0.00		-3.60		7.841e-03		120.492		2.799e-03		24.787
3		0.00		-3.20		6.836e-03		125.638		2.250e-03		18.229
3		0.00		-2.80		6.392e-03		127.347		2.121e-03		17.586
3		0.00		-2.40		5.495e-03		122.299		2.017e-03		21.245
3		0.00		-2.00		4.467e-03		123.515		1.634e-03		26.792
3		0.00		-1.60		3.800e-03		116.392		1.693e-03		49.926
3		0.00		-1.20		3.369e-03		103.073		1.369e-03		63.193
3		0.00		-0.80		3.068e-03		79.493		1.473e-03		69.643
3		0.00		-0.40		2.388e-03		55.950		1.274e-03		80.152
4		0.00		0.00		2.139e-03		37.332		1.051e-03		84.548
4		0.00		0.40		1.872e-03		-7.084		8.089e-04		85.783
4		0.00		0.80		1.897e-03		-25.856		7.434e-04		69.178
4		0.00		1.20		2.121e-03		-46.236		8.712e-04		56.350
4		0.00		1.60		2.690e-03		-47.110		1.103e-03		31.696
4		0.00		2.00		3.256e-03		-52.252		1.314e-03		38.769
4		0.00		2.40		3.759e-03		-54.850		1.443e-03		24.677
4		0.00		2.80		4.544e-03		-46.693		1.770e-03		20.606
4		0.00		3.20		5.540e-03		-62.231		1.652e-03		18.246
4		0.00		3.60		6.662e-03		-44.201		1.735e-03		14.267
4		0.00		4.00		8.102e-03		-53.030		1.976e-03		14.835
4		0.00		4.40		9.248e-03		-48.367		2.282e-03		15.835
4		0.00		4.80		1.001e-02		-53.930		2.548e-03		12.446
4		0.00		5.20		1.161e-02		-46.933		3.028e-03		14.571
4		0.00		5.60		1.437e-02		-51.900		3.711e-03		12.296
4		0.00		6.00		1.697e-02		-50.467		4.480e-03		10.441
4		0.00		6.40		2.034e-02		-50.668		4.553e-03		8.606
4		0.00		6.80		2.369e-02		-50.521		4.832e-03		7.489
4		0.00		7.20		2.614e-02		-50.833		5.021e-03		7.989
4		0.00		7.60		2.920e-02		-49.873		5.846e-03		8.198
4		0.00		8.00		3.170e-02		-50.033		6.731e-03		7.154
4		0.00		8.40		3.413e-02		-50.613		8.316e-03		7.481
4		0.00		8.80		3.644e-02		-51.691		1.036e-02		11.547
4		0.00		9.20		3.868e-02		-54.739		1.195e-02		17.932
4		0.00		9.60		4.139e-02		-53.809		1.275e-02		10.837
4		0.00		10.00		4.375e-02		-51.688		1.134e-02		6.517
4		0.00		9.60		4.356e-02		-50.231		1.019e-02		6.798
4		0.00		9.20		4.215e-02		-50.228		9.762e-03		6.414
4		0.00		8.80		3.891e-02		-51.423		9.557e-03		8.636
4		0.00		8.40		3.758e-02		-51.294		1.062e-02		8.180
4		0.00		8.00		3.596e-02		-50.426		1.121e-02		9.014
4		0.00		7.60		3.545e-02		-53.385		1.154e-02		15.890
4		0.00		7.20		3.527e-02		-53.044		9.975e-03		8.918
4		0.00		6.80		3.531e-02		-50.948		8.186e-03		6.523
4		0.00		6.40		3.500e-02		-50.118		6.926e-03		7.104
4		0.00		6.00		3.373e-02		-51.082		6.866e-03		7.311
4		0.00		5.60		3.259e-02		-50.219		6.849e-03		7.827
4		0.00		5.20		3.206e-02		-49.987		7.827e-03		7.589
4		0.00		4.80		3.099e-02		-52.235		8.171e-03		14.839
4		0.00		4.40		3.065e-02		-51.958		8.289e-03		10.266
4		0.00		4.00		3.115e-02		-51.430		7.532e-03		7.013
4		0.00		3.60		3.098e-02		-50.328		6.299e-03		7.752
4		0.00		3.20		3.021e-02		-50.398		5.646e-03		6.791
4		0.00		2.80		2.928e-02		-50.203		5.712e-03		7.103
4		0.00		2.40		2.884e-02		-49.102		6.480e-03		8.359
4		0.00		2.00		2.828e-02		-50.057		7.369e-03		8.390
4		0.00		1.60		2.734e-02		-50.443		7.800e-03		11.025
4		0.00		1.20		2.735e-02		-53.072		7.654e-03		13.236
4		0.00		0.80		2.790e-02		-51.733		6.929e-03		7.532
4		0.00		0.40		2.816e-02		-50.163		6.148e-03		7.126
4		0.00		0.00		2.759e-02		-49.963		5.165e-03		6.285
4		0.00		-0.40		2.721e-02		-50.129		5.003e-03		7.515
4		0.00		-0.80		2.543e-02		-49.247		5.515e-03		8.423
4		0.00		-1.20		2.334e-02		-50.443		5.401e-03		8.096
4		0.00		-1.60		2.133e-02		-50.172		5.211e-03		10.974
4		0.00		-2.00		1.939e-02		-50.325		5.126e-03		9.706
4		0.00		-2.40		1.709e-02		-51.783		4.947e-03		8.573
4		0.00		-2.80		1.374e-02		-55.239		3.889e-03		9.633
4		0.00		-3.20		1.177e-02		-52.127		2.929e-03		11.074
4		0.00		-3.60		8.985e-03		-47.732		2.531e-03		14.251
4		0.00		-4.00		6.611e-03		-47.912		2.614e-03		21.921
4		0.00		-4.40		3.846e-03		-35.315		1.836e-03		48.711
4		0.00		-4.80		2.588e-03		-10.623		1.176e-03		77.091
4		0.00		-5.20		2.714e-03		50.663		1.584e-03		72.140
4		0.00		-5.60		4.441e-03		109.501		2.275e-03		45.223
4		0.00		-6.00		6.729e-03		124.764		3.030e-03		20.717
4		0.00		-6.40		8.616e-03		124.315		3.317e-03		15.138
4		0.00		-6.80		1.090e-02		128.787		3.743e-03		12.130
4		0.00		-7.20		1.310e-02		129.311		4.057e-03		8.911
4		0.00		-7.60		1.508e-02		128.233		4.270e-03		10.401
4		0.00		-8.00		1.674e-02		128.736		4.968e-03		9.238
4		0.00		-8.40		1.788e-02		125.918		5.561e-03		12.911
4		0.00		-8.80		1.905e-02		123.400		6.151e-03		20.825
4		0.00		-9.20		2.029e-02		123.054		6.193e-03		18.633
4		0.00		-9.60		2.191e-02		125.350		6.323e-03		12.606
4		0.00		-10.00		2.234e-02		126.194		5.681e-03		9.101
4		0.00		-9.60		2.234e-02		130.292		5.200e-03		7.495
4		0.00		-9.20		2.216e-02		128.060		4.648e-03		7.722
4		0.00		-8.80		2.185e-02		129.109		4.932e-03		8.042
4		0.00		-8.40		2.084e-02		128.710		4.639e-03		8.163
4		0.00		-8.00		2.031e-02		129.266		4.678e-03		9.078
4		0.00		-7.60		1.982e-02		128.804		5.119e-03		11.686
4		0.00		-7.20		1.869e-02		127.131		5.030e-03		11.595
4		0.00		-6.80		1.802e-02		126.076		4.812e-03		17.485
4		0.00		-6.40		1.592e-02		124.807		4.601e-03		17.663
4		0.00		-6.00		1.466e-02		124.531		4.370e-03		11.501
4		0.00		-5.60		1.332e-02		128.141		3.813e-03		10.399
4		0.00		-5.20		1.228e-02		130.294		3.332e-03		10.640
4		0.00		-4.80		1.138e-02		128.387		3.173e-03		10.758
4		0.00		-4.40		1.049e-02		129.391		2.799e-03		10.066
4		0.00		-4.00		9.532e-03		129.322		2.674e-03		11.747
4		0.00		-3.60		8.673e-03		125.522		2.493e-03		11.444
4		0.00		-3.20		7.669e-03		130.709		2.364e-03		15.083
4		0.00		-2.80		6.786e-03		130.709		2.061e-03		13.067
4		0.00		-2.40		5.712e-03		122.275		1.886e-03		21.121
4		0.00		-2.00		5.197e-03		123.950		1.950e-03		29.908
4		0.00		-1.60		4.546e-03		120.307		1.556e-03		40.480
4		0.00		-1.20		3.817e-03		106.363		1.571e-03		57.031
4		0.00		-0.80		3.061e-03		103.107		1.351e-03		54.127
4		0.00		-0.40		2.627e-03		96.117		1.231e-03		55.920
5		0.00		0.00		2.209e-03		45.252		1.240e-03		85.339
5		0.00		0.40		1.915e-03		22.556		8.348e-04		85.555
5		0.00		0.80		1.782e-03		-13.140		7.705e-04		75.105
5		0.00		1.20		1.871e-03		-29.618		7.933e-04		66.276
5		0.00		1.60		2.476e-03		-56.278		1.077e-03		41.403
5		0.00		2.00		2.893e-03		-50.016		1.240e-03		36.883
5		0.00		2.40		3.517e-03		-58.124		1.417e-03		27.826
5		0.00		2.80		4.351e-03		-54.909		1.310e-03		23.092
5		0.00		3.20		5.159e-03		-54.763		1.546e-03		17.286
5		0.00		3.60		5.513e-03		-52.782		1.669e-03		22.141
5		0.00		4.00		6.725e-03		-53.707		2.067e-03		16.431
5		0.00		4.40		7.626e-03		-51.497		2.179e-03		16.188
5		0.00		4.80		8.449e-03		-54.508		2.620e-03		15.489
5		0.00		5.20		9.878e-03		-48.437		2.961e-03		16.150
5		0.00		5.60		1.208e-02		-49.081		3.406e-03		11.360
5		0.00		6.00		1.503e-02		-50.575		3.880e-03		11.097
5		0.00		6.40		1.814e-02		-50.011		4.266e-03		8.805
5		0.00		6.80		2.155e-02		-49.618		4.795e-03		8.284
5		0.00		7.20		2.650e-02		-52.274		5.372e-03		7.036
5		0.00		7.60		2.866e-02		-50.873		5.533e-03		6.463
5		0.00		8.00		3.184e-02		-50.058		5.702e-03		5.631
5		0.00		8.40		3.377e-02		-50.443		6.076e-03		7.296
5		0.00		8.80		3.701e-02		-49.858		6.541e-03		6.195
5		0.00		9.20		4.016e-02		-49.978		7.666e-03		6.162
5		0.00		9.60		4.176e-02		-50.138		8.834e-03		5.864
5		0.00		10.00		4.367e-02		-49.918		1.006e-02		6.337
5		0.00		9.60		4.264e-02		-51.188		1.058e-02		7.589
5		0.00		9.20		4.090e-02		-50.719		1.062e-02		8.663
5		0.00		8.80		4.011e-02		-50.714		1.060e-02		9.613
5		0.00		8.40		3.897e-02		-51.987		1.082e-02		12.359
5		0.00		8.00		3.742e-02		-53.249		1.090e-02		16.330
5		0.00		7.60		3.616e-02		-52.551		1.031e-02		13.036
5		0.00		7.20		3.473e-02		-52.931		1.022e-02		13.544
5		0.00		6.80		3.460e-02		-52.133		9.784e-03		10.602
5		0.00		6.40		3.393e-02		-52.598		8.827e-03		7.962
5		0.00		6.00		3.448e-02		-51.321		8.075e-03		6.840
5		0.00		5.60		3.402e-02		-50.678		7.116e-03		6.337
5		0.00		5.20		3.368e-02		-51.145		6.561e-03		5.871
5		0.00		4.80		3.321e-02		-50.911		6.140e-03		6.141
5		0.00		4.40		3.276e-02		-48.397		5.488e-03		5.069
5		0.00		4.00		3.254e-02		-50.171		5.488e-03		6.052
5		0.00		3.60		3.199e-02		-48.303		5.667e-03		6.546
5		0.00		3.20		3.114e-02		-48.794		5.983e-03		6.149
5		0.00		2.80		3.037e-02		-47.941		5.669e-03		7.144
5		0.00		2.40		2.938e-02		-49.577		6.038e-03		6.581
5		0.00		2.00		2.859e-02		-50.756		6.928e-03		8.538
5		0.00		1.60		2.734e-02		-50.151		6.904e-03		8.105
5		0.00		1.20		2.721e-02		-51.038		6.996e-03		8.607
5		0.00		0.80		2.689e-02		-51.691		7.409e-03		10.368
5		0.00		0.40		2.658e-02		-52.048		7.432e-03		13.947
5		0.00		0.00		2.656e-02		-52.683		7.479e-03		14.889
5		0.00		-0.40		2.597e-02		-52.268		7.241e-03		15.020
5		0.00		-0.80		2.457e-02		-51.193		6.922e-03		12.145
5		0.00		-1.20		2.274e-02		-53.148		6.364e-03		13.528
5		0.00		-1.60		2.039e-02		-49.211		5.326e-03		7.819
5		0.00		-2.00		1.867e-02		-53.439		4.990e-03		10.277
5		0.00		-2.40		1.620e-02		-48.188		4.075e-03		9.448
5		0.00		-2.80		1.390e-02		-51.312		3.514e-03		12.668
5		0.00		-3.20		1.142e-02		-48.422		3.029e-03		10.753
5		0.00		-3.60		8.524e-03		-55.848		2.841e-03		15.290
5		0.00		-4.00		6.675e-03		-51.439		2.349e-03		18.128
5		0.00		-4.40		4.384e-03		-45.306		2.041e-03		41.019
5		0.00		-4.80		3.371e-03		-16.240		1.442e-03		68.652
5		0.00		-5.20		2.514e-03		31.340		1.571e-03		86.476
5		0.00		-5.60		3.837e-03		93.938		2.447e-03		56.743
5		0.00		-6.00		5.401e-03		126.110		2.562e-03		22.320
5		0.00		-6.40		8.157e-03		126.101		3.303e-03		11.463
5		0.00		-6.80		1.153e-02		125.455		3.601e-03		10.392
5		0.00		-7.20		1.347e-02		128.178		3.895e-03		9.590
5		0.00		-7.60		1.439e-02		129.053		4.389e-03		10.538
5		0.00		-8.00		1.621e-02		128.546		4.855e-03		11.312
5		0.00		-8.40		1.789e-02		125.102		5.410e-03		14.081
5		0.00		-8.80		1.831e-02		126.785		5.711e-03		16.134
5		0.00		-9.20		1.902e-02		123.615		5.664e-03		16.629
5		0.00		-9.60		2.080e-02		123.416		5.983e-03		17.186
5		0.00		-10.00		2.215e-02		125.424		6.327e-03		15.246
5		0.00		-9.60		2.205e-02		125.415		6.092e-03		13.889
5		0.00		-9.20		2.193e-02		126.213		5.935e-03		10.035
5		0.00		-8.80		2.102e-02		128.002		5.640e-03		8.855
5		0.00		-8.40		2.058e-02		128.777		5.230e-03		7.630
5		0.00		-8.00		2.051e-02		129.456		4.887e-03		8.550
5		0.00		-7.60		2.071e-02		130.417		4.537e-03		8.167
5		0.00		-7.20		1.884e-02		130.356		4.155e-03		7.158
5		0.00		-6.80		1.707e-02		128.578		3.999e-03		7.100
5		0.00		-6.40		1.562e-02		128.836		3.969e-03		8.875
5		0.00		-6.00		1.369e-02		126.326		3.796e-03		10.039
5		0.00		-5.60		1.259e-02		127.231		3.623e-03		9.496
5		0.00		-5.20		1.171e-02		128.171		3.621e-03		11.111
5		0.00		-4.80		1.067e-02		126.500		3.369e-03		12.314
5		0.00		-4.40		9.834e-03		127.013		3.268e-03		19.437
5		0.00		-4.00		8.776e-03		123.824		2.924e-03		20.830
5		0.00		-3.60		7.961e-03		125.527		2.692e-03		22.580
5		0.00		-3.20		7.298e-03		129.906		2.710e-03		19.730
5		0.00		-2.80		6.598e-03		123.547		2.379e-03		24.839
5		0.00		-2.40		5.690e-03		124.041		2.037e-03		20.868
5		0.00		-2.00		5.143e-03		125.097		1.798e-03		22.445
5		0.00		-1.60		4.385e-03		123.085		1.676e-03		32.022
5		0.00		-1.20		3.704e-03		108.646		1.550e-03		57.435
5		0.00		-0.80		3.201e-03		95.516		1.363e-03		71.089
5		0.00		-0.40		2.517e-03		71.104		1.183e-03		81.996
6		0.00		0.00		2.358e-03		66.086		9.793e-04		76.636
6		0.00		0.40		1.897e-03		25.435		9.420e-04		89.943
6		0.00		0.80		1.838e-03		6.472		8.122e-04		78.997
6		0.00		1.20		1.817e-03		-21.169		8.603e-04		74.083
6		0.00		1.60		2.344e-03		-44.687		9.251e-04		57.268
6		0.00		2.00		2.482e-03		-49.333		1.047e-03		45.938
6		0.00		2.40		3.048e-03		-54.853		1.186e-03		32.782
6		0.00		2.80		3.967e-03		-53.837		1.709e-03		28.900
6		0.00		3.20		5.115e-03		-58.894		1.641e-03		18.633
6		0.00		3.60		5.568e-03		-54.983		1.841e-03		19.054
6		0.00		4.00		6.454e-03		-56.590		1.913e-03		15.761
6		0.00		4.40		7.604e-03		-47.912		1.936e-03		13.756
6		0.00		4.80		8.845e-03		-50.623		2.024e-03		12.073
6		0.00		5.20		1.049e-02		-50.201		1.921e-03		11.408
6		0.00		5.60		1.224e-02		-50.640		2.402e-03		10.973
6		0.00		6.00		1.438e-02		-51.348		2.966e-03		11.306
6		0.00		6.40		1.642e-02		-50.572		3.465e-03		10.225
6		0.00		6.80		1.894e-02		-50.171		4.554e-03		9.474
6		0.00		7.20		2.259e-02		-49.783		5.683e-03		9.754
6		0.00		7.60		2.545e-02		-50.328		6.296e-03		9.626
6		0.00		8.00		2.899e-02		-53.504		7.696e-03		14.188
6		0.00		8.40		3.313e-02		-53.453		8.731e-03		11.733
6		0.00		8.80		3.615e-02		-51.505		9.246e-03		7.210
6		0.00		9.20		3.958e-02		-51.741		1.006e-02		6.755
6		0.00		9.60		4.156e-02		-51.103		1.032e-02		6.055
6		0.00		10.00		4.327e-02		-50.173		1.010e-02		5.913
6		0.00		9.60		4.295e-02		-49.779		9.668e-03		6.271
6		0.00		9.20		4.248e-02		-50.009		9.316e-03		6.012
6		0.00		8.80		4.076e-02		-49.774		9.045e-03		5.948
6		0.00		8.40		3.877e-02		-49.620		9.364e-03		7.254
6		0.00		8.00		3.762e-02		-50.611		9.884e-03		8.002
6		0.00		7.60		3.590e-02		-48.989		9.883e-03		8.698
6		0.00		7.20		3.455e-02		-50.531		1.020e-02		9.405
6		0.00		6.80		3.390e-02		-52.565		9.821e-03		13.535
6		0.00		6.40		3.366e-02		-53.128		8.946e-03		10.960
6		0.00		6.00		3.341e-02		-52.722		8.464e-03		8.744
6		0.00		5.60		3.360e-02		-50.076		7.680e-03		6.115
6		0.00		5.20		3.248e-02		-51.094		6.750e-03		6.147
6		0.00		4.80		3.217e-02		-49.209		6.150e-03		6.628
6		0.00		4.40		3.184e-02		-49.999		6.006e-03		6.543
6		0.00		4.00		3.052e-02		-49.755		5.790e-03		6.542
6		0.00		3.60		2.999e-02		-49.973		6.415e-03		6.736
6		0.00		3.20		2.944e-02		-48.173		6.316e-03		6.914
6		0.00		2.80		2.853e-02		-49.259		6.973e-03		7.957
6		0.00		2.40		2.818e-02		-49.694		7.884e-03		9.184
6		0.00		2.00		2.774e-02		-52.002		7.586e-03		12.658
6		0.00		1.60		2.704e-02		-51.940		7.656e-03		13.913
6		0.00		1.20		2.746e-02		-49.902		7.331e-03		8.075
6		0.00		0.80		2.710e-02		-51.409		6.492e-03		7.264
6		0.00		0.40		2.728e-02		-49.721		5.220e-03		6.620
6		0.00		0.00		2.689e-02		-49.612		5.228e-03		6.861
6		0.00		-0.40		2.586e-02		-50.372		4.887e-03		5.950
6		0.00		-0.80		2.406e-02		-51.320		4.837e-03		9.241
6		0.00		-1.20		2.239e-02		-49.075		4.566e-03		9.151
6		0.00		-1.60		2.089e-02		-48.742		4.206e-03		8.530
6		0.00		-2.00		1.948e-02		-49.376		4.446e-03		10.309
6		0.00		-2.40		1.713e-02		-47.431		4.344e-03		8.331
6		0.00		-2.80		1.328e-02		-47.518		3.614e-03		10.757
6		0.00		-3.20		1.148e-02		-47.482		3.498e-03		13.092
6		0.00		-3.60		9.187e-03		-42.562		2.830e-03		17.574
6		0.00		-4.00		5.679e-03		-54.883		2.486e-03		23.508
6		0.00		-4.40		3.366e-03		-31.616		1.504e-03		52.368
6		0.00		-4.80		2.567e-03		10.630		1.120e-03		77.696
6		0.00		-5.20		2.948e-03		63.633		1.719e-03		77.596
6		0.00		-5.60		5.428e-03		125.898		2.567e-03		22.925
6		0.00		-6.00		7.541e-03		125.238		3.026e-03		13.000
6		0.00		-6.40		8.720e-03		125.788		3.334e-03		17.276
6		0.00		-6.80		1.159e-02		128.259		3.957e-03		10.415
6		0.00		-7.20		1.328e-02		126.408		4.547e-03		11.429
6		0.00		-7.60		1.399e-02		125.145		4.870e-03		15.978
6		0.00		-8.00		1.567e-02		122.672		5.459e-03		19.851
6		0.00		-8.40		1.719e-02		123.098		5.673e-03		18.636
6		0.00		-8.80		1.938e-02		124.645		6.173e-03		16.672
6		0.00		-9.20		1.968e-02		127.496		5.838e-03		10.932
6		0.00		-9.60		2.153e-02		128.130		5.697e-03		10.920
6		0.00		-10.00		2.278e-02		126.292		5.505e-03		8.428
6		0.00		-9.60		2.264e-02		128.845		4.889e-03		6.899
6		0.00		-9.20		2.200e-02		129.164		4.758e-03		6.164
6		0.00		-8.80		2.198e-02		129.681		5.015e-03		6.706
6		0.00		-8.40		2.010e-02		129.789		4.974e-03		8.343
6		0.00		-8.00		2.004e-02		128.053		5.114e-03		8.387
6		0.00		-7.60		1.953e-02		128.226		5.138e-03		11.421
6		0.00		-7.20		1.828e-02		124.521		5.215e-03		15.837
6		0.00		-6.80		1.731e-02		124.882		4.912e-03		17.046
6		0.00		-6.40		1.589e-02		125.805		4.752e-03		13.394
6		0.00		-6.00		1.521e-02		128.966		4.479e-03		11.012
6		0.00		-5.60		1.343e-02		129.838		4.085e-03		9.207
6		0.00		-5.20		1.250e-02		129.184		3.609e-03		9.639
6		0.00		-4.80		1.134e-02		130.962		3.091e-03		10.413
6		0.00		-4.40		1.071e-02		132.310		2.878e-03		10.187
6		0.00		-4.00		9.100e-03		126.046		2.671e-03		10.314
6		0.00		-3.60		8.494e-03		131.817		2.571e-03		10.948
6		0.00		-3.20		7.447e-03		125.245		2.378e-03		20.151
6		0.00		-2.80		6.640e-03		124.922		2.252e-03		17.845
6		0.00		-2.40		6.234e-03		123.933		2.320e-03		18.708
6		0.00		-2.00		5.333e-03		119.382		1.917e-03		28.222
6		0.00		-1.60		5.119e-03		124.265		1.815e-03		24.537
6		0.00		-1.20		4.389e-03		102.125		1.856e-03		60.483
6		0.00		-0.80		3.442e-03		101.109		1.668e-03		64.847
6		0.00		-0.40		2.995e-03		95.997		1.287e-03		60.803
7		0.00		0.00		2.488e-03		57.086		1.122e-03		85.163
7		0.00		0.40		2.183e-03		60.986		1.051e-03		78.946
7		0.00		0.80		1.897e-03		-5.620		7.742e-04		81.346
7		0.00		1.20		1.988e-03		-35.664		8.061e-04		67.108
7		0.00		1.60		2.226e-03		-49.404		9.627e-04		53.385
7		0.00		2.00		2.691e-03		-49.310		1.055e-03		38.521
7		0.00		2.40		3.261e-03		-63.703		1.323e-03		33.426
7		0.00		2.80		3.807e-03		-64.557		1.475e-03		29.457
7		0.00		3.20		4.550e-03		-65.303		1.650e-03		18.859
7		0.00		3.60		5.286e-03		-48.083		1.647e-03		19.451
7		0.00		4.00		5.887e-03		-50.681		1.760e-03		14.838
7		0.00		4.40		6.839e-03		-54.720		2.412e-03		19.656
7		0.00		4.80		8.682e-03		-54.135		2.689e-03		14.677
7		0.00		5.20		9.694e-03		-50.216		2.979e-03		15.365
7		0.00		5.60		1.125e-02		-47.548		3.185e-03		12.564
7		0.00		6.00		1.303e-02		-47.531		3.229e-03		10.279
7		0.00		6.40		1.648e-02		-50.318		3.837e-03		9.147
7		0.00		6.80		1.964e-02		-49.608		4.259e-03		7.346
7		0.00		7.20		2.291e-02		-49.650		4.293e-03		5.984
7		0.00		7.60		2.582e-02		-49.433		4.857e-03		7.126
7		0.00		8.00		2.946e-02		-50.629		5.373e-03		8.123
7		0.00		8.40		3.258e-02		-50.603		5.673e-03		6.421
7		0.00		8.80		3.647e-02		-49.817		6.247e-03		5.463
7		0.00		9.20		3.899e-02		-49.234		7.940e-03		6.043
7		0.00		9.60		4.138e-02		-49.633		8.871e-03		6.298
7		0.00		10.00		4.165e-02		-50.137		9.845e-03		6.718
7		0.00		9.60		4.088e-02		-49.782		1.017e-02		7.093
7		0.00		9.20		3.941e-02		-49.617		1.028e-02		7.837
7		0.00		8.80		3.896e-02		-51.282		1.047e-02		9.329
7		0.00		8.40		3.812e-02		-50.859		1.072e-02		9.150
7		0.00		8.00		3.650e-02		-53.708		1.067e-02		13.562
7		0.00		7.60		3.645e-02		-53.369		1.064e-02		12.888
7		0.00		7.20		3.476e-02		-52.773		1.017e-02		14.587
7		0.00		6.80		3.386e-02		-52.071		9.824e-03		11.158
7		0.00		6.40		3.373e-02		-51.725		8.706e-03		7.593
7		0.00		6.00		3.403e-02		-51.863		8.197e-03		7.238
7		0.00		5.60		3.398e-02		-51.600		7.695e-03		5.547
7		0.00		5.20		3.341e-02		-50.769		7.168e-03		6.676
7		0.00		4.80		3.324e-02		-49.215		6.572e-03		6.151
7		0.00		4.40		3.309e-02		-49.659		5.925e-03		5.275
7		0.00		4.00		3.244e-02		-49.060		5.579e-03		6.094
7		0.00		3.60		3.176e-02		-49.672		5.608e-03		6.533
7		0.00		3.20		3.143e-02		-51.033		5.610e-03		6.640
7		0.00		2.80		3.065e-02		-50.416		5.635e-03		6.438
7		0.00		2.40		3.017e-02		-50.270		6.185e-03		6.417
7		0.00		2.00		2.964e-02		-49.478		6.445e-03		8.366
7		0.00		1.60		2.960e-02		-50.304		6.565e-03		7.610
7		0.00		1.20		2.943e-02		-51.362		6.549e-03		7.232
7		0.00		0.80		2.945e-02		-49.703		6.795e-03		6.929
7		0.00		0.40		2.852e-02		-50.250		6.959e-03		7.834
7		0.00		0.00		2.791e-02		-50.473		6.966e-03		8.625
7		0.00		-0.40		2.690e-02		-49.937		6.983e-03		10.617
7		0.00		-0.80		2.550e-02		-50.474		7.155e-03		9.997
7		0.00		-1.20		2.407e-02		-50.698		6.241e-03		10.706
7		0.00		-1.60		2.201e-02		-50.321		5.490e-03		12.164
7		0.00		-2.00		1.960e-02		-50.250		4.938e-03		13.166
7		0.00		-2.40		1.724e-02		-49.292		4.533e-03		10.846
7		0.00		-2.80		1.441e-02		-53.401		3.997e-03		11.401
7		0.00		-3.20		1.133e-02		-47.017		3.111e-03		10.513
7		0.00		-3.60		8.764e-03		-51.350		2.896e-03		17.096
7		0.00		-4.00		5.386e-03		-52.137		2.017e-03		23.563
7		0.00		-4.40		3.265e-03		-46.505		1.725e-03		54.479
7		0.00		-4.80		2.507e-03		8.949		1.167e-03		86.805
7		0.00		-5.20		3.233e-03		61.724		2.070e-03		74.567
7		0.00		-5.60		5.215e-03		113.354		2.644e-03		35.753
7		0.00		-6.00		7.167e-03		125.721		2.825e-03		14.290
7		0.00		-6.40		9.196e-03		129.124		3.495e-03		12.192
7		0.00		-6.80		1.105e-02		125.658		3.542e-03		10.325
7		0.00		-7.20		1.308e-02		125.786		3.949e-03		7.105
7		0.00		-7.60		1.447e-02		129.151		3.960e-03		9.204
7		0.00		-8.00		1.599e-02		127.967		4.283e-03		8.299
7		0.00		-8.40		1.732e-02		128.400		4.657e-03		9.019
7		0.00		-8.80		1.846e-02		128.814		4.762e-03		7.553
7		0.00		-9.20		1.945e-02		128.150		4.836e-03		8.267
7		0.00		-9.60		2.120e-02		128.390		4.907e-03		7.373
7		0.00		-10.00		2.210e-02		127.771		4.965e-03		7.236
7		0.00		-9.60		2.153e-02		128.289		5.037e-03		5.797
7		0.00		-9.20		2.098e-02		130.909		4.800e-03		6.865
7		0.00		-8.80		2.060e-02		128.485		4.806e-03		8.168
7		0.00		-8.40		2.040e-02		127.085		5.000e-03		9.580
7		0.00		-8.00		1.940e-02		130.017		4.664e-03		6.893
7		0.00		-7.60		1.973e-02		127.211		4.651e-03		8.771
7		0.00		-7.20		1.800e-02		127.971		4.658e-03		9.451
7		0.00		-6.80		1.704e-02		128.327		4.763e-03		11.029
7		0.00		-6.40		1.618e-02		126.797		4.682e-03		14.338
7		0.00		-6.00		1.458e-02		128.110		4.638e-03		12.834
7		0.00		-5.60		1.309e-02		124.567		4.290e-03		14.796
7		0.00		-5.20		1.178e-02		121.530		3.670e-03		17.927
7		0.00		-4.80		1.099e-02		126.241		3.463e-03		17.716
7		0.00		-4.40		1.002e-02		123.388		3.243e-03		21.884
7		0.00		-4.00		9.088e-03		127.602		3.053e-03		23.499
7		0.00		-3.60		8.270e-03		117.299		2.754e-03		26.484
7		0.00		-3.20		7.715e-03		120.644		2.650e-03		25.311
7		0.00		-2.80		6.935e-03		129.736		2.427e-03		21.836
7		0.00		-2.40		6.357e-03		122.297		2.124e-03		26.745
7		0.00		-2.00		5.657e-03		122.285		1.823e-03		26.774
7		0.00		-1.60		4.900e-03		117.029		1.971e-03		41.037
7		0.00		-1.20		4.315e-03		116.099		1.647e-03		40.568
7		0.00		-0.80		3.425e-03		109.800		1.418e-03		42.586
7		0.00		-0.40		3.009e-03		96.578		1.385e-03		51.251
8		0.00		0.00		2.153e-03		69.355		1.098e-03		70.409
8		0.00		0.40		2.110e-03		51.180		1.040e-03		76.733
8		0.00		0.80		1.784e-03		10.682		7.110e-04		79.294
8		0.00		1.20		1.981e-03		-26.539		8.486e-04		70.348
8		0.00		1.60		2.055e-03		-42.451		8.960e-04		61.200
8		0.00		2.00		2.577e-03		-57.067		1.206e-03		38.611
8		0.00		2.40		3.115e-03		-62.022		1.397e-03		31.309
8		0.00		2.80		3.542e-03		-63.669		1.499e-03		32.188
8		0.00		3.20		4.289e-03		-54.359		1.683e-03		26.658
8		0.00		3.60		5.293e-03		-48.972		1.932e-03		20.145
8		0.00		4.00		6.202e-03		-45.892		1.818e-03		17.615
8		0.00		4.40		6.996e-03		-55.811		2.156e-03		14.306
8		0.00		4.80		7.986e-03		-51.282		2.174e-03		15.144
8		0.00		5.20		9.738e-03		-55.448		2.490e-03		15.492
8		0.00		5.60		1.133e-02		-51.683		2.854e-03		12.536
8		0.00		6.00		1.406e-02		-51.848		3.676e-03		10.431
8		0.00		6.40		1.648e-02		-50.748		4.132e-03		9.683
8		0.00		6.80		1.965e-02		-53.418		4.750e-03		9.115
8		0.00		7.20		2.243e-02		-51.623		5.446e-03		9.182
8		0.00		7.60		2.535e-02		-51.919		6.389e-03		8.407
8		0.00		8.00		2.817e-02		-52.438		7.022e-03		9.752
8		0.00		8.40		3.107e-02		-52.533		8.016e-03		10.255
8		0.00		8.80		3.373e-02		-51.416		9.345e-03		8.760
8		0.00		9.20		3.606e-02		-52.639		1.038e-02		9.382
8		0.00		9.60		3.909e-02		-52.653		1.162e-02		11.446
8		0.00		10.00		4.060e-02		-53.383		1.222e-02		10.779
8		0.00		9.60		4.040e-02		-53.888		1.210e-02		10.905
8		0.00		9.20		3.954e-02		-53.343		1.184e-02		11.970
8		0.00		8.80		3.839e-02		-54.004		1.146e-02		13.478
8		0.00		8.40		3.693e-02		-52.708		1.086e-02		13.141
8		0.00		8.00		3.607e-02		-53.724		1.054e-02		14.368
8		0.00		7.60		3.560e-02		-53.381		9.652e-03		12.468
8		0.00		7.20		3.474e-02		-51.806		9.184e-03		13.080
8		0.00		6.80		3.415e-02		-51.598		8.716e-03		12.389
8		0.00		6.40		3.271e-02		-50.002		8.249e-03		12.227
8		0.00		6.00		3.238e-02		-50.720		7.958e-03		11.580
8		0.00		5.60		3.182e-02		-51.473		7.598e-03		10.983
8		0.00		5.20		3.150e-02		-50.125		7.492e-03		10.027
8		0.00		4.80		3.108e-02		-50.316		7.432e-03		10.605
8		0.00		4.40		3.003e-02		-51.151		7.267e-03		9.373
8		0.00		4.00		2.974e-02		-50.065		6.988e-03		7.570
8		0.00		3.60		2.951e-02		-49.299		7.151e-03		7.872
8		0.00		3.20		2.884e-02		-49.043		6.739e-03		8.292
8		0.00		2.80		2.807e-02		-49.699		6.942e-03		8.259
8		0.00		2.40		2.803e-02		-50.568		6.560e-03		7.844
8		0.00		2.00		2.793e-02		-49.408		6.651e-03		6.784
8		0.00		1.60		2.767e-02		-50.608		6.426e-03		8.406
8		0.00		1.20		2.801e-02		-49.969		6.010e-03		8.408
8		0.00		0.80		2.753e-02		-50.365		5.759e-03		7.118
8		0.00		0.40		2.731e-02		-49.921		5.600e-03		7.513
8		0.00		0.00		2.662e-02		-47.336		4.952e-03		7.116
8		0.00		-0.40		2.715e-02		-49.363		4.739e-03		6.558
8		0.00		-0.80		2.590e-02		-50.218		4.902e-03		7.704
8		0.00		-1.20		2.339e-02		-51.370		4.189e-03		7.790
8		0.00		-1.60		2.093e-02		-49.966		3.618e-03		7.040
8		0.00		-2.00		1.877e-02		-47.788		3.421e-03		9.891
8		0.00		-2.40		1.588e-02		-49.109		3.082e-03		8.441
8		0.00		-2.80		1.382e-02		-49.577		2.787e-03		8.685
8		0.00		-3.20		1.076e-02		-51.554		2.301e-03		11.372
8		0.00		-3.60		7.888e-03		-49.402		2.324e-03		15.722
8		0.00		-4.00		5.309e-03		-48.029		2.184e-03		23.376
8		0.00		-4.40		3.846e-03		-45.295		1.740e-03		41.763
8		0.00		-4.80		2.580e-03		-4.000		1.032e-03		74.596
8		0.00		-5.20		2.976e-03		72.736		1.810e-03		82.261
8		0.00		-5.60		5.054e-03		112.095		2.301e-03		46.005
8		0.00		-6.00		7.727e-03		124.721		2.915e-03		18.421
8		0.00		-6.40		9.848e-03		125.948		3.430e-03		13.364
8		0.00		-6.80		1.183e-02		126.941		3.961e-03		17.706
8		0.00		-7.20		1.310e-02		124.231		4.286e-03		16.778
8		0.00		-7.60		1.547e-02		125.693		4.840e-03		16.239
8		0.00		-8.00		1.651e-02		126.537		5.033e-03		18.299
8		0.00		-8.40		1.805e-02		125.600		5.040e-03		19.839
8		0.00		-8.80		1.906e-02		126.723		5.172e-03		16.515
8		0.00		-9.20		2.028e-02		126.271		5.620e-03		14.947
8		0.00		-9.60		2.155e-02		126.753		5.860e-03		12.297
8		0.00		-10.00		2.292e-02		127.231		5.831e-03		10.145
8		0.00		-9.60		2.211e-02		128.666		5.465e-03		9.470
8		0.00		-9.20		2.251e-02		127.839		5.819e-03		8.409
8		0.00		-8.80		2.166e-02		129.701		5.627e-03		8.499
8		0.00		-8.40		2.109e-02		129.238		5.123e-03		6.864
8		0.00		-8.00		1.977e-02		129.001		5.003e-03		9.215
8		0.00		-7.60		1.930e-02		128.680		4.641e-03		7.404
8		0.00		-7.20		1.888e-02		129.478		4.647e-03		7.646
8		0.00		-6.80		1.788e-02		128.025		4.337e-03		8.620
8		0.00		-6.40		1.650e-02		130.431		3.963e-03		8.345
8		0.00		-6.00		1.570e-02		129.617		4.115e-03		8.920
8		0.00		-5.60		1.476e-02		127.521		3.577e-03		9.819
8		0.00		-5.20		1.332e-02		129.438		3.421e-03		7.790
8		0.00		-4.80		1.276e-02		127.331		3.104e-03		9.018
8		0.00		-4.40		1.161e-02		130.362		3.096e-03		10.589
8		0.00		-4.00		1.098e-02		127.201		2.850e-03		11.758
8		0.00		-3.60		9.791e-03		127.292		2.725e-03		12.218
8		0.00		-3.20		8.862e-03		128.244		2.638e-03		13.645
8		0.00		-2.80		7.725e-03		123.940		2.420e-03		11.250
8		0.00		-2.40		7.235e-03		129.853		2.415e-03		14.837
8		0.00		-2.00		6.200e-03		122.462		2.161e-03		23.474
8		0.00		-1.60		5.492e-03		127.705		2.089e-03		24.909
8		0.00		-1.20		4.723e-03		116.892		1.811e-03		30.935
8		0.00		-0.80		4.245e-03		106.383		1.855e-03		53.814
8		0.00		-0.40		3.473e-03		104.418		1.668e-03		50.807
