# Date of analysis: 2024-03-08 10;59
# Segment other properties: height: -62.42343354007952, diff height: 519.0644049083038, deflection: 33.36007907550442, deflection error: 2.572338890260238, adhesion: 35.296973071489376, phase offset: 0
# 
# Loop index	Read Volt (V)	Write Volt (V)	Amplitude (a.u)	Phase (deg)	Sigma Amp (a.u)	Sigma Pha (deg)	
1		0.00		0.00		1.258e-02		-47.633		3.167e-03		13.597
1		0.00		0.40		1.233e-02		-48.634		2.982e-03		9.587
1		0.00		0.80		1.271e-02		-50.559		3.033e-03		11.027
1		0.00		1.20		1.270e-02		-45.671		2.795e-03		11.149
1		0.00		1.60		1.257e-02		-46.754		2.673e-03		12.209
1		0.00		2.00		1.271e-02		-49.579		2.641e-03		12.558
1		0.00		2.40		1.290e-02		-47.930		2.975e-03		12.603
1		0.00		2.80		1.323e-02		-48.386		3.105e-03		14.054
1		0.00		3.20		1.379e-02		-49.101		3.283e-03		14.418
1		0.00		3.60		1.360e-02		-48.473		3.231e-03		13.836
1		0.00		4.00		1.373e-02		-47.584		3.549e-03		12.724
1		0.00		4.40		1.465e-02		-50.116		3.806e-03		14.180
1		0.00		4.80		1.508e-02		-52.597		3.987e-03		18.054
1		0.00		5.20		1.593e-02		-47.398		4.355e-03		15.053
1		0.00		5.60		1.629e-02		-48.639		4.359e-03		13.461
1		0.00		6.00		1.744e-02		-47.832		4.422e-03		12.494
1		0.00		6.40		1.784e-02		-50.227		4.286e-03		11.585
1		0.00		6.80		1.898e-02		-50.211		4.334e-03		10.899
1		0.00		7.20		2.014e-02		-51.710		3.978e-03		11.472
1		0.00		7.60		2.071e-02		-49.685		4.311e-03		11.357
1		0.00		8.00		2.224e-02		-52.274		4.428e-03		10.929
1		0.00		8.40		2.289e-02		-52.073		4.943e-03		11.976
1		0.00		8.80		2.455e-02		-52.219		5.295e-03		10.755
1		0.00		9.20		2.550e-02		-50.571		5.539e-03		10.457
1		0.00		9.60		2.683e-02		-50.262		5.704e-03		10.604
1		0.00		10.00		2.765e-02		-51.143		6.750e-03		14.588
1		0.00		9.60		2.901e-02		-49.387		7.124e-03		11.844
1		0.00		9.20		2.901e-02		-50.373		7.164e-03		10.399
1		0.00		8.80		2.936e-02		-51.533		6.987e-03		9.573
1		0.00		8.40		2.958e-02		-52.568		6.701e-03		11.405
1		0.00		8.00		3.041e-02		-51.427		5.934e-03		9.579
1		0.00		7.60		3.048e-02		-51.292		5.882e-03		9.450
1		0.00		7.20		3.077e-02		-51.526		5.770e-03		9.514
1		0.00		6.80		3.038e-02		-52.169		5.861e-03		10.414
1		0.00		6.40		3.003e-02		-52.086		5.697e-03		9.931
1		0.00		6.00		2.963e-02		-51.717		5.890e-03		10.902
1		0.00		5.60		2.886e-02		-50.004		6.395e-03		11.378
1		0.00		5.20		2.846e-02		-50.201		6.276e-03		14.546
1		0.00		4.80		2.823e-02		-49.731		6.463e-03		10.966
1		0.00		4.40		2.780e-02		-51.530		6.092e-03		10.530
1		0.00		4.00		2.791e-02		-50.520		5.760e-03		10.196
1		0.00		3.60		2.760e-02		-51.309		5.546e-03		10.768
1		0.00		3.20		2.818e-02		-50.225		5.116e-03		9.115
1		0.00		2.80		2.777e-02		-49.644		5.344e-03		9.766
1		0.00		2.40		2.794e-02		-50.343		5.056e-03		10.057
1		0.00		2.00		2.786e-02		-49.075		5.804e-03		9.769
1		0.00		1.60		2.653e-02		-49.565		6.166e-03		12.883
1		0.00		1.20		2.658e-02		-49.760		6.777e-03		10.906
1		0.00		0.80		2.632e-02		-49.558		7.049e-03		11.018
1		0.00		0.40		2.650e-02		-50.825		6.629e-03		11.408
1		0.00		0.00		2.612e-02		-51.040		6.156e-03		10.888
1		0.00		-0.40		2.612e-02		-49.337		5.374e-03		9.812
1		0.00		-0.80		2.622e-02		-51.522		5.562e-03		10.983
1		0.00		-1.20		2.592e-02		-50.093		5.665e-03		10.435
1		0.00		-1.60		2.496e-02		-51.417		5.793e-03		12.158
1		0.00		-2.00		2.511e-02		-49.930		5.462e-03		11.835
1		0.00		-2.40		2.398e-02		-50.381		5.790e-03		14.231
1		0.00		-2.80		2.381e-02		-48.697		5.827e-03		9.602
1		0.00		-3.20		2.344e-02		-49.104		5.523e-03		10.023
1		0.00		-3.60		2.255e-02		-49.197		4.822e-03		10.375
1		0.00		-4.00		2.269e-02		-49.953		4.721e-03		9.879
1		0.00		-4.40		2.213e-02		-51.549		4.429e-03		10.932
1		0.00		-4.80		2.077e-02		-48.331		3.939e-03		9.979
1		0.00		-5.20		1.971e-02		-49.789		3.979e-03		10.857
1		0.00		-5.60		1.869e-02		-49.513		4.231e-03		12.763
1		0.00		-6.00		1.735e-02		-47.872		3.894e-03		12.385
1		0.00		-6.40		1.651e-02		-47.641		4.019e-03		11.672
1		0.00		-6.80		1.516e-02		-46.959		3.265e-03		14.270
1		0.00		-7.20		1.378e-02		-45.483		2.822e-03		13.533
1		0.00		-7.60		1.201e-02		-43.560		2.473e-03		12.796
1		0.00		-8.00		9.265e-03		-42.644		2.069e-03		11.372
1		0.00		-8.40		6.365e-03		-40.371		1.601e-03		21.566
1		0.00		-8.80		3.857e-03		-31.888		1.182e-03		24.113
1		0.00		-9.20		2.100e-03		12.141		8.480e-04		53.931
1		0.00		-9.60		3.178e-03		72.969		1.285e-03		42.180
1		0.00		-10.00		4.682e-03		101.162		1.733e-03		35.055
1		0.00		-9.60		6.454e-03		114.576		2.162e-03		17.556
1		0.00		-9.20		6.641e-03		111.523		1.908e-03		22.008
1		0.00		-8.80		7.387e-03		115.660		2.056e-03		16.763
1		0.00		-8.40		7.158e-03		116.490		2.185e-03		18.974
1		0.00		-8.00		6.906e-03		111.380		2.078e-03		27.772
1		0.00		-7.60		6.475e-03		115.218		2.055e-03		22.264
1		0.00		-7.20		6.543e-03		114.349		2.099e-03		17.749
1		0.00		-6.80		6.815e-03		117.472		2.056e-03		19.407
1		0.00		-6.40		6.316e-03		109.766		1.971e-03		17.574
1		0.00		-6.00		6.161e-03		116.703		1.869e-03		16.494
1		0.00		-5.60		6.015e-03		112.299		1.735e-03		20.828
1		0.00		-5.20		5.784e-03		111.641		1.783e-03		28.569
1		0.00		-4.80		5.307e-03		111.533		1.789e-03		27.745
1		0.00		-4.40		5.118e-03		104.698		1.747e-03		19.374
1		0.00		-4.00		5.144e-03		114.164		1.744e-03		22.488
1		0.00		-3.60		5.027e-03		107.285		1.877e-03		21.232
1		0.00		-3.20		5.297e-03		106.646		1.684e-03		24.815
1		0.00		-2.80		4.404e-03		108.651		1.444e-03		31.003
1		0.00		-2.40		4.621e-03		101.651		1.686e-03		39.407
1		0.00		-2.00		4.540e-03		102.814		1.619e-03		34.299
1		0.00		-1.60		4.535e-03		100.313		1.630e-03		32.094
1		0.00		-1.20		4.499e-03		107.256		1.517e-03		23.310
1		0.00		-0.80		4.295e-03		103.319		1.485e-03		26.590
1		0.00		-0.40		4.404e-03		102.536		1.425e-03		30.661
2		0.00		0.00		3.906e-03		96.466		1.518e-03		35.915
2		0.00		0.40		4.154e-03		94.215		1.629e-03		39.777
2		0.00		0.80		4.055e-03		102.808		1.420e-03		35.237
2		0.00		1.20		3.422e-03		101.268		1.217e-03		35.610
2		0.00		1.60		3.496e-03		91.470		1.315e-03		42.089
2		0.00		2.00		2.698e-03		79.265		1.152e-03		46.534
2		0.00		2.40		2.418e-03		56.472		9.617e-04		72.227
2		0.00		2.80		1.982e-03		32.625		7.875e-04		57.394
2		0.00		3.20		1.932e-03		0.049		9.333e-04		48.555
2		0.00		3.60		2.676e-03		-34.436		9.738e-04		37.868
2		0.00		4.00		3.213e-03		-33.441		9.995e-04		27.538
2		0.00		4.40		4.355e-03		-36.150		1.256e-03		23.602
2		0.00		4.80		4.822e-03		-48.680		1.474e-03		24.002
2		0.00		5.20		5.338e-03		-37.014		1.583e-03		22.116
2		0.00		5.60		6.011e-03		-38.946		1.594e-03		18.881
2		0.00		6.00		6.532e-03		-40.460		1.932e-03		18.498
2		0.00		6.40		7.583e-03		-45.371		1.851e-03		14.642
2		0.00		6.80		8.951e-03		-52.901		1.958e-03		15.740
2		0.00		7.20		9.815e-03		-48.620		1.901e-03		13.418
2		0.00		7.60		1.076e-02		-47.210		2.337e-03		14.562
2		0.00		8.00		1.155e-02		-43.844		2.734e-03		12.044
2		0.00		8.40		1.286e-02		-48.237		2.913e-03		13.711
2		0.00		8.80		1.440e-02		-50.199		3.472e-03		9.977
2		0.00		9.20		1.715e-02		-51.859		3.579e-03		10.921
2		0.00		9.60		1.992e-02		-51.309		3.793e-03		10.111
2		0.00		10.00		2.208e-02		-52.870		4.425e-03		8.892
2		0.00		9.60		2.349e-02		-50.834		4.670e-03		9.245
2		0.00		9.20		2.444e-02		-50.360		5.012e-03		11.174
2		0.00		8.80		2.475e-02		-50.933		5.792e-03		13.274
2		0.00		8.40		2.457e-02		-50.654		5.828e-03		9.791
2		0.00		8.00		2.436e-02		-50.715		5.893e-03		9.525
2		0.00		7.60		2.466e-02		-51.841		5.407e-03		9.732
2		0.00		7.20		2.527e-02		-52.100		5.328e-03		10.286
2		0.00		6.80		2.455e-02		-51.096		5.368e-03		11.071
2		0.00		6.40		2.437e-02		-52.693		5.274e-03		9.835
2		0.00		6.00		2.356e-02		-52.776		5.603e-03		12.334
2		0.00		5.60		2.321e-02		-51.025		6.489e-03		14.660
2		0.00		5.20		2.253e-02		-50.845		6.319e-03		13.089
2		0.00		4.80		2.207e-02		-52.381		5.985e-03		11.249
2		0.00		4.40		2.278e-02		-52.308		5.296e-03		10.618
2		0.00		4.00		2.309e-02		-52.412		4.849e-03		12.336
2		0.00		3.60		2.312e-02		-51.231		4.676e-03		8.450
2		0.00		3.20		2.279e-02		-51.201		4.807e-03		9.759
2		0.00		2.80		2.252e-02		-49.237		4.708e-03		11.334
2		0.00		2.40		2.246e-02		-46.674		4.722e-03		12.635
2		0.00		2.00		2.228e-02		-48.212		5.001e-03		12.624
2		0.00		1.60		2.208e-02		-49.524		5.206e-03		10.349
2		0.00		1.20		2.209e-02		-49.744		4.922e-03		9.997
2		0.00		0.80		2.192e-02		-48.642		4.534e-03		9.195
2		0.00		0.40		2.185e-02		-49.746		4.362e-03		9.462
2		0.00		0.00		2.208e-02		-49.250		4.558e-03		10.179
2		0.00		-0.40		2.194e-02		-50.052		4.473e-03		10.013
2		0.00		-0.80		2.098e-02		-49.467		4.284e-03		13.436
2		0.00		-1.20		2.037e-02		-49.939		4.859e-03		12.298
2		0.00		-1.60		2.058e-02		-49.456		4.903e-03		10.925
2		0.00		-2.00		1.991e-02		-51.043		4.829e-03		10.903
2		0.00		-2.40		2.014e-02		-50.068		4.502e-03		10.201
2		0.00		-2.80		1.963e-02		-47.839		3.975e-03		11.013
2		0.00		-3.20		1.981e-02		-51.189		4.067e-03		10.736
2		0.00		-3.60		1.936e-02		-49.980		4.103e-03		10.046
2		0.00		-4.00		1.873e-02		-48.062		3.786e-03		10.665
2		0.00		-4.40		1.789e-02		-46.462		3.800e-03		10.273
2		0.00		-4.80		1.675e-02		-47.871		3.994e-03		13.584
2		0.00		-5.20		1.578e-02		-45.334		3.834e-03		12.021
2		0.00		-5.60		1.486e-02		-49.893		3.720e-03		12.343
2		0.00		-6.00		1.384e-02		-49.615		3.225e-03		12.959
2		0.00		-6.40		1.251e-02		-43.668		2.761e-03		11.115
2		0.00		-6.80		1.142e-02		-49.157		2.250e-03		13.823
2		0.00		-7.20		9.663e-03		-47.603		2.009e-03		14.129
2		0.00		-7.60		7.726e-03		-41.263		1.777e-03		14.310
2		0.00		-8.00		6.245e-03		-32.408		1.742e-03		19.786
2		0.00		-8.40		4.254e-03		-41.395		1.451e-03		20.423
2		0.00		-8.80		2.924e-03		-23.699		1.100e-03		30.352
2		0.00		-9.20		2.062e-03		35.287		7.606e-04		57.166
2		0.00		-9.60		3.586e-03		91.465		1.581e-03		42.783
2		0.00		-10.00		5.108e-03		111.571		1.663e-03		17.242
2		0.00		-9.60		6.870e-03		107.574		2.303e-03		30.307
2		0.00		-9.20		8.038e-03		119.169		2.217e-03		11.727
2		0.00		-8.80		7.827e-03		117.583		2.261e-03		14.174
2		0.00		-8.40		8.220e-03		118.488		2.565e-03		16.503
2		0.00		-8.00		7.704e-03		113.376		2.380e-03		20.670
2		0.00		-7.60		7.920e-03		115.883		2.456e-03		25.286
2		0.00		-7.20		7.352e-03		115.354		2.288e-03		27.036
2		0.00		-6.80		7.864e-03		120.192		2.298e-03		18.521
2		0.00		-6.40		7.454e-03		114.826		2.073e-03		16.298
2		0.00		-6.00		7.206e-03		118.658		1.991e-03		16.155
2		0.00		-5.60		6.962e-03		115.796		1.925e-03		18.063
2		0.00		-5.20		6.969e-03		115.056		2.011e-03		14.651
2		0.00		-4.80		6.448e-03		115.451		1.821e-03		18.516
2		0.00		-4.40		6.180e-03		119.529		1.826e-03		28.137
2		0.00		-4.00		6.085e-03		111.290		1.934e-03		32.498
2		0.00		-3.60		6.106e-03		116.543		1.960e-03		25.051
2		0.00		-3.20		5.866e-03		113.301		1.864e-03		22.692
2		0.00		-2.80		5.714e-03		113.418		1.850e-03		19.714
2		0.00		-2.40		5.875e-03		113.169		1.526e-03		16.921
2		0.00		-2.00		5.891e-03		110.735		1.848e-03		20.891
2		0.00		-1.60		5.664e-03		108.811		2.067e-03		28.196
2		0.00		-1.20		5.729e-03		118.356		1.728e-03		17.090
2		0.00		-0.80		5.323e-03		110.428		1.616e-03		25.500
2		0.00		-0.40		5.293e-03		105.361		1.842e-03		28.899
3		0.00		0.00		5.635e-03		113.925		1.940e-03		21.541
3		0.00		0.40		4.758e-03		112.219		1.391e-03		31.906
3		0.00		0.80		4.924e-03		108.144		1.410e-03		23.413
3		0.00		1.20		4.557e-03		108.367		1.594e-03		30.365
3		0.00		1.60		4.367e-03		109.124		1.584e-03		21.650
3		0.00		2.00		3.750e-03		112.121		1.356e-03		22.363
3		0.00		2.40		3.218e-03		98.445		1.160e-03		42.514
3		0.00		2.80		2.621e-03		61.787		1.103e-03		55.486
3		0.00		3.20		1.990e-03		44.601		7.180e-04		59.761
3		0.00		3.60		1.888e-03		19.677		8.328e-04		71.746
3		0.00		4.00		1.988e-03		-20.618		8.844e-04		53.624
3		0.00		4.40		2.649e-03		-34.872		9.615e-04		35.628
3		0.00		4.80		3.204e-03		-28.734		1.145e-03		33.347
3		0.00		5.20		3.604e-03		-30.221		1.303e-03		29.892
3		0.00		5.60		4.575e-03		-50.463		1.320e-03		16.831
3		0.00		6.00		5.570e-03		-46.895		1.488e-03		19.977
3		0.00		6.40		5.933e-03		-49.185		1.817e-03		22.871
3		0.00		6.80		6.615e-03		-45.742		1.974e-03		18.031
3		0.00		7.20		7.814e-03		-45.606		2.004e-03		11.852
3		0.00		7.60		8.964e-03		-51.173		2.061e-03		14.696
3		0.00		8.00		1.064e-02		-49.686		2.429e-03		15.079
3		0.00		8.40		1.204e-02		-53.509		2.626e-03		11.519
3		0.00		8.80		1.358e-02		-47.447		3.055e-03		13.907
3		0.00		9.20		1.505e-02		-48.926		3.619e-03		13.676
3		0.00		9.60		1.780e-02		-47.438		4.684e-03		12.497
3		0.00		10.00		2.011e-02		-51.153		4.809e-03		11.282
3		0.00		9.60		2.116e-02		-52.116		4.696e-03		10.526
3		0.00		9.20		2.267e-02		-50.659		4.716e-03		9.203
3		0.00		8.80		2.301e-02		-52.712		4.919e-03		11.911
3		0.00		8.40		2.316e-02		-48.786		4.973e-03		9.225
3		0.00		8.00		2.293e-02		-49.780		5.010e-03		12.467
3		0.00		7.60		2.308e-02		-50.216		5.400e-03		12.131
3		0.00		7.20		2.289e-02		-49.264		5.899e-03		11.759
3		0.00		6.80		2.316e-02		-51.632		5.572e-03		10.298
3		0.00		6.40		2.273e-02		-50.976		4.926e-03		9.929
3		0.00		6.00		2.270e-02		-50.125		5.078e-03		11.314
3		0.00		5.60		2.294e-02		-51.369		4.716e-03		9.145
3		0.00		5.20		2.161e-02		-49.976		4.985e-03		12.766
3		0.00		4.80		2.164e-02		-51.319		5.403e-03		14.444
3		0.00		4.40		2.139e-02		-51.509		6.026e-03		10.570
3		0.00		4.00		2.145e-02		-50.331		5.398e-03		10.042
3		0.00		3.60		2.157e-02		-50.893		4.880e-03		10.417
3		0.00		3.20		2.199e-02		-50.877		4.341e-03		9.537
3		0.00		2.80		2.113e-02		-50.676		4.542e-03		11.048
3		0.00		2.40		2.141e-02		-48.668		4.472e-03		12.078
3		0.00		2.00		2.094e-02		-50.224		4.992e-03		12.380
3		0.00		1.60		2.091e-02		-45.801		5.484e-03		11.739
3		0.00		1.20		2.080e-02		-47.518		5.377e-03		10.578
3		0.00		0.80		2.106e-02		-49.089		4.816e-03		11.396
3		0.00		0.40		2.058e-02		-49.023		4.337e-03		9.898
3		0.00		0.00		2.110e-02		-50.598		4.171e-03		10.352
3		0.00		-0.40		2.061e-02		-48.638		4.284e-03		9.838
3		0.00		-0.80		2.071e-02		-50.987		4.509e-03		9.402
3		0.00		-1.20		2.012e-02		-47.935		4.725e-03		13.285
3		0.00		-1.60		1.905e-02		-47.290		5.150e-03		11.907
3		0.00		-2.00		1.853e-02		-46.642		4.970e-03		9.272
3		0.00		-2.40		1.862e-02		-49.248		4.471e-03		12.066
3		0.00		-2.80		1.798e-02		-50.318		3.935e-03		10.348
3		0.00		-3.20		1.799e-02		-50.376		4.596e-03		12.254
3		0.00		-3.60		1.685e-02		-53.413		4.047e-03		12.545
3		0.00		-4.00		1.661e-02		-49.776		4.560e-03		14.722
3		0.00		-4.40		1.643e-02		-49.841		4.762e-03		15.549
3		0.00		-4.80		1.565e-02		-51.072		3.836e-03		9.162
3		0.00		-5.20		1.479e-02		-47.753		3.393e-03		12.631
3		0.00		-5.60		1.426e-02		-49.355		3.107e-03		11.263
3		0.00		-6.00		1.313e-02		-47.290		2.934e-03		11.321
3		0.00		-6.40		1.197e-02		-51.217		2.426e-03		12.131
3		0.00		-6.80		1.073e-02		-49.223		2.420e-03		15.189
3		0.00		-7.20		9.697e-03		-46.974		2.555e-03		12.708
3		0.00		-7.60		8.305e-03		-40.926		1.882e-03		14.043
3		0.00		-8.00		5.676e-03		-43.352		1.696e-03		25.799
3		0.00		-8.40		4.501e-03		-27.740		1.374e-03		21.855
3		0.00		-8.80		2.934e-03		-38.757		1.061e-03		35.960
3		0.00		-9.20		1.881e-03		-0.973		7.437e-04		60.758
3		0.00		-9.60		2.755e-03		68.812		1.165e-03		55.165
3		0.00		-10.00		3.732e-03		92.471		1.354e-03		40.154
3		0.00		-9.60		4.754e-03		93.615		1.777e-03		30.773
3		0.00		-9.20		6.089e-03		114.153		1.823e-03		23.690
3		0.00		-8.80		6.716e-03		114.984		1.674e-03		21.770
3		0.00		-8.40		6.889e-03		120.241		1.760e-03		14.681
3		0.00		-8.00		7.075e-03		117.344		2.168e-03		17.231
3		0.00		-7.60		6.906e-03		118.799		1.973e-03		14.947
3		0.00		-7.20		6.614e-03		113.029		1.899e-03		21.404
3		0.00		-6.80		6.339e-03		110.508		2.055e-03		27.986
3		0.00		-6.40		6.346e-03		121.120		1.789e-03		17.585
3		0.00		-6.00		6.439e-03		115.594		1.820e-03		16.098
3		0.00		-5.60		6.540e-03		117.029		1.887e-03		22.234
3		0.00		-5.20		5.990e-03		117.659		1.820e-03		20.877
3		0.00		-4.80		5.781e-03		116.007		1.843e-03		22.651
3		0.00		-4.40		6.010e-03		114.016		1.789e-03		19.400
3		0.00		-4.00		5.583e-03		111.622		1.785e-03		37.715
3		0.00		-3.60		5.682e-03		113.805		1.854e-03		20.670
3		0.00		-3.20		5.579e-03		112.362		1.527e-03		19.064
3		0.00		-2.80		5.443e-03		114.371		1.687e-03		25.760
3		0.00		-2.40		5.472e-03		118.847		1.604e-03		19.474
3		0.00		-2.00		5.343e-03		114.297		1.678e-03		19.735
3		0.00		-1.60		5.183e-03		111.336		1.441e-03		21.000
3		0.00		-1.20		5.316e-03		105.325		1.827e-03		31.803
3		0.00		-0.80		5.184e-03		105.672		1.824e-03		31.514
3		0.00		-0.40		4.902e-03		111.158		1.634e-03		23.734
4		0.00		0.00		4.885e-03		116.660		1.594e-03		23.852
4		0.00		0.40		4.564e-03		107.286		1.567e-03		36.111
4		0.00		0.80		4.583e-03		103.335		1.686e-03		25.929
4		0.00		1.20		4.252e-03		113.283		1.251e-03		25.154
4		0.00		1.60		3.898e-03		109.334		1.469e-03		34.631
4		0.00		2.00		3.518e-03		93.021		1.352e-03		40.257
4		0.00		2.40		2.843e-03		91.630		1.120e-03		52.461
4		0.00		2.80		2.528e-03		74.141		9.689e-04		51.595
4		0.00		3.20		2.141e-03		61.085		8.611e-04		59.486
4		0.00		3.60		2.029e-03		7.807		8.990e-04		64.814
4		0.00		4.00		2.132e-03		-26.942		8.528e-04		53.562
4		0.00		4.40		2.816e-03		-25.627		1.029e-03		38.059
4		0.00		4.80		3.432e-03		-34.434		1.113e-03		29.034
4		0.00		5.20		4.083e-03		-54.071		1.177e-03		27.375
4		0.00		5.60		4.676e-03		-49.465		1.362e-03		19.511
4		0.00		6.00		5.428e-03		-42.065		1.564e-03		24.001
4		0.00		6.40		6.666e-03		-39.161		1.511e-03		14.699
4		0.00		6.80		7.368e-03		-41.444		1.913e-03		18.482
4		0.00		7.20		8.362e-03		-42.250		2.344e-03		19.590
4		0.00		7.60		9.446e-03		-44.948		2.342e-03		13.928
4		0.00		8.00		1.108e-02		-47.126		2.489e-03		13.257
4		0.00		8.40		1.276e-02		-50.495		2.586e-03		10.349
4		0.00		8.80		1.422e-02		-50.637		2.877e-03		12.271
4		0.00		9.20		1.614e-02		-52.508		3.462e-03		10.776
4		0.00		9.60		1.882e-02		-50.944		3.962e-03		10.788
4		0.00		10.00		2.085e-02		-49.983		4.261e-03		9.664
4		0.00		9.60		2.150e-02		-51.723		5.092e-03		10.998
4		0.00		9.20		2.260e-02		-51.815		5.211e-03		10.843
4		0.00		8.80		2.276e-02		-49.441		5.488e-03		9.380
4		0.00		8.40		2.320e-02		-49.444		5.725e-03		8.754
4		0.00		8.00		2.309e-02		-51.351		5.122e-03		8.782
4		0.00		7.60		2.312e-02		-52.038		4.861e-03		8.178
4		0.00		7.20		2.323e-02		-54.069		4.886e-03		10.545
4		0.00		6.80		2.286e-02		-51.206		4.468e-03		10.250
4		0.00		6.40		2.236e-02		-49.595		4.719e-03		11.007
4		0.00		6.00		2.267e-02		-50.223		4.842e-03		11.070
4		0.00		5.60		2.207e-02		-49.554		5.200e-03		12.456
4		0.00		5.20		2.195e-02		-49.949		5.385e-03		9.548
4		0.00		4.80		2.177e-02		-50.355		5.527e-03		9.558
4		0.00		4.40		2.167e-02		-51.179		5.295e-03		10.862
4		0.00		4.00		2.168e-02		-51.657		4.587e-03		10.421
4		0.00		3.60		2.078e-02		-51.219		4.822e-03		11.373
4		0.00		3.20		2.100e-02		-51.029		5.001e-03		11.067
4		0.00		2.80		2.007e-02		-50.370		5.192e-03		14.270
4		0.00		2.40		1.951e-02		-51.537		5.382e-03		13.890
4		0.00		2.00		1.933e-02		-48.185		5.424e-03		12.593
4		0.00		1.60		2.004e-02		-50.230		5.328e-03		9.969
4		0.00		1.20		1.969e-02		-51.138		4.498e-03		11.210
4		0.00		0.80		1.981e-02		-50.195		4.099e-03		11.566
4		0.00		0.40		2.038e-02		-51.067		4.318e-03		10.144
4		0.00		0.00		1.996e-02		-48.113		4.179e-03		10.690
4		0.00		-0.40		1.911e-02		-48.263		4.397e-03		13.332
4		0.00		-0.80		1.948e-02		-47.952		5.082e-03		11.309
4		0.00		-1.20		1.919e-02		-46.308		4.957e-03		11.172
4		0.00		-1.60		1.893e-02		-50.451		4.670e-03		11.601
4		0.00		-2.00		1.874e-02		-50.102		3.924e-03		9.731
4		0.00		-2.40		1.924e-02		-49.674		3.668e-03		8.474
4		0.00		-2.80		1.886e-02		-48.565		3.701e-03		11.590
4		0.00		-3.20		1.811e-02		-47.678		3.739e-03		10.499
4		0.00		-3.60		1.736e-02		-47.107		3.974e-03		11.276
4		0.00		-4.00		1.646e-02		-46.511		4.305e-03		12.051
4		0.00		-4.40		1.619e-02		-49.236		4.228e-03		11.240
4		0.00		-4.80		1.587e-02		-49.371		3.566e-03		8.987
4		0.00		-5.20		1.554e-02		-48.463		3.356e-03		10.199
4		0.00		-5.60		1.473e-02		-48.471		2.854e-03		9.614
4		0.00		-6.00		1.386e-02		-47.479		2.754e-03		13.619
4		0.00		-6.40		1.200e-02		-51.022		2.584e-03		13.193
4		0.00		-6.80		1.034e-02		-42.775		2.313e-03		13.398
4		0.00		-7.20		9.652e-03		-44.380		2.433e-03		15.981
4		0.00		-7.60		8.114e-03		-40.358		1.995e-03		13.842
4		0.00		-8.00		6.676e-03		-40.246		1.845e-03		17.712
4		0.00		-8.40		5.144e-03		-35.772		1.525e-03		18.501
4		0.00		-8.80		3.441e-03		-48.213		1.227e-03		29.486
4		0.00		-9.20		2.231e-03		-20.942		8.738e-04		42.722
4		0.00		-9.60		1.935e-03		30.700		9.257e-04		63.304
4		0.00		-10.00		3.279e-03		80.769		1.232e-03		35.853
4		0.00		-9.60		4.055e-03		109.585		1.373e-03		24.755
4		0.00		-9.20		5.003e-03		112.648		1.618e-03		25.582
4		0.00		-8.80		5.381e-03		110.612		1.789e-03		24.325
4		0.00		-8.40		6.346e-03		109.575		1.895e-03		23.813
4		0.00		-8.00		7.324e-03		116.364		1.986e-03		11.976
4		0.00		-7.60		7.056e-03		119.243		2.086e-03		16.681
4		0.00		-7.20		7.006e-03		117.258		1.898e-03		19.210
4		0.00		-6.80		6.919e-03		114.874		2.123e-03		17.709
4		0.00		-6.40		6.168e-03		111.208		1.903e-03		20.859
4		0.00		-6.00		6.369e-03		111.382		2.090e-03		25.352
4		0.00		-5.60		6.033e-03		110.791		1.920e-03		21.263
4		0.00		-5.20		5.988e-03		119.086		2.083e-03		19.580
4		0.00		-4.80		5.893e-03		112.115		1.690e-03		20.046
4		0.00		-4.40		5.899e-03		116.520		1.886e-03		17.877
4		0.00		-4.00		6.038e-03		115.220		1.877e-03		18.946
4		0.00		-3.60		5.862e-03		115.948		1.635e-03		19.734
4		0.00		-3.20		5.381e-03		109.207		1.789e-03		27.045
4		0.00		-2.80		4.995e-03		109.576		1.843e-03		33.682
4		0.00		-2.40		5.172e-03		112.948		1.607e-03		21.042
4		0.00		-2.00		5.284e-03		116.247		1.523e-03		21.483
4		0.00		-1.60		5.436e-03		112.557		1.526e-03		18.553
4		0.00		-1.20		5.561e-03		112.144		1.459e-03		21.240
4		0.00		-0.80		5.135e-03		114.289		1.303e-03		19.837
4		0.00		-0.40		5.037e-03		114.814		1.534e-03		23.373
5		0.00		0.00		4.868e-03		109.478		1.540e-03		26.125
5		0.00		0.40		4.549e-03		115.798		1.625e-03		29.493
5		0.00		0.80		4.709e-03		99.645		1.405e-03		22.062
5		0.00		1.20		4.817e-03		108.397		1.497e-03		23.412
5		0.00		1.60		4.301e-03		108.232		1.601e-03		26.327
5		0.00		2.00		3.965e-03		106.656		1.343e-03		28.079
5		0.00		2.40		3.016e-03		96.227		1.116e-03		28.897
5		0.00		2.80		2.729e-03		81.287		1.129e-03		55.254
5		0.00		3.20		2.079e-03		44.230		8.091e-04		64.853
5		0.00		3.60		1.764e-03		20.073		7.818e-04		71.744
5		0.00		4.00		1.878e-03		-7.029		8.044e-04		62.571
5		0.00		4.40		2.247e-03		-27.727		9.682e-04		42.748
5		0.00		4.80		2.834e-03		-47.989		1.078e-03		31.868
5		0.00		5.20		3.852e-03		-39.420		1.397e-03		25.612
5		0.00		5.60		4.176e-03		-40.163		1.278e-03		23.304
5		0.00		6.00		4.908e-03		-41.730		1.416e-03		22.978
5		0.00		6.40		5.769e-03		-42.886		1.592e-03		15.287
5		0.00		6.80		6.623e-03		-43.222		1.584e-03		18.240
5		0.00		7.20		7.342e-03		-45.723		1.735e-03		15.824
5		0.00		7.60		8.890e-03		-50.536		1.868e-03		13.067
5		0.00		8.00		9.760e-03		-46.097		2.087e-03		12.759
5		0.00		8.40		1.104e-02		-46.013		2.517e-03		13.980
5		0.00		8.80		1.262e-02		-48.563		2.873e-03		13.037
5		0.00		9.20		1.411e-02		-49.789		3.559e-03		11.293
5		0.00		9.60		1.569e-02		-52.783		4.338e-03		16.223
5		0.00		10.00		1.816e-02		-49.527		4.999e-03		11.287
5		0.00		9.60		2.012e-02		-51.030		5.130e-03		9.073
5		0.00		9.20		2.051e-02		-52.908		4.727e-03		9.588
5		0.00		8.80		2.143e-02		-50.815		4.752e-03		9.918
5		0.00		8.40		2.162e-02		-52.651		4.884e-03		11.892
5		0.00		8.00		2.159e-02		-51.721		4.696e-03		10.504
5		0.00		7.60		2.122e-02		-47.879		5.075e-03		12.884
5		0.00		7.20		2.105e-02		-49.140		5.361e-03		11.997
5		0.00		6.80		2.102e-02		-48.421		5.202e-03		9.605
5		0.00		6.40		2.160e-02		-50.349		4.933e-03		9.038
5		0.00		6.00		2.138e-02		-49.685		4.506e-03		9.683
5		0.00		5.60		2.124e-02		-49.838		3.974e-03		8.391
5		0.00		5.20		2.099e-02		-48.525		4.190e-03		10.508
5		0.00		4.80		2.104e-02		-50.387		4.135e-03		11.386
5		0.00		4.40		2.051e-02		-48.726		4.904e-03		11.515
5		0.00		4.00		2.057e-02		-50.287		5.147e-03		10.316
5		0.00		3.60		2.042e-02		-49.222		4.832e-03		10.104
5		0.00		3.20		2.080e-02		-50.401		4.474e-03		9.205
5		0.00		2.80		2.044e-02		-49.840		3.972e-03		10.597
5		0.00		2.40		2.046e-02		-50.242		3.984e-03		9.231
5		0.00		2.00		2.029e-02		-49.010		4.175e-03		10.776
5		0.00		1.60		1.967e-02		-50.139		4.284e-03		10.093
5		0.00		1.20		1.942e-02		-50.017		4.622e-03		10.420
5		0.00		0.80		1.906e-02		-48.170		4.806e-03		9.846
5		0.00		0.40		1.938e-02		-48.435		5.126e-03		9.023
5		0.00		0.00		1.916e-02		-48.501		4.517e-03		8.969
5		0.00		-0.40		1.947e-02		-49.780		4.079e-03		10.051
5		0.00		-0.80		1.926e-02		-50.019		3.682e-03		11.025
5		0.00		-1.20		1.927e-02		-49.536		3.553e-03		9.137
5		0.00		-1.60		1.818e-02		-47.492		4.123e-03		11.193
5		0.00		-2.00		1.844e-02		-50.665		4.021e-03		12.149
5		0.00		-2.40		1.751e-02		-49.916		3.982e-03		13.690
5		0.00		-2.80		1.744e-02		-50.531		4.250e-03		13.337
5		0.00		-3.20		1.710e-02		-50.034		4.082e-03		10.469
5		0.00		-3.60		1.706e-02		-48.770		3.885e-03		10.781
5		0.00		-4.00		1.657e-02		-50.042		3.225e-03		10.758
5		0.00		-4.40		1.651e-02		-49.560		3.193e-03		9.870
5		0.00		-4.80		1.587e-02		-48.366		3.165e-03		11.613
5		0.00		-5.20		1.502e-02		-48.677		3.344e-03		11.537
5		0.00		-5.60		1.363e-02		-50.198		3.161e-03		14.452
5		0.00		-6.00		1.254e-02		-50.223		3.468e-03		16.899
5		0.00		-6.40		1.139e-02		-46.985		3.106e-03		13.737
5		0.00		-6.80		1.055e-02		-49.901		3.001e-03		14.026
5		0.00		-7.20		8.797e-03		-40.831		2.398e-03		15.617
5		0.00		-7.60		7.927e-03		-44.470		2.127e-03		13.941
5		0.00		-8.00		6.163e-03		-46.622		1.514e-03		22.535
5		0.00		-8.40		4.866e-03		-39.050		1.314e-03		28.121
5		0.00		-8.80		3.655e-03		-38.857		1.234e-03		27.849
5		0.00		-9.20		2.318e-03		-7.376		9.097e-04		54.398
5		0.00		-9.60		2.151e-03		44.198		9.925e-04		61.485
5		0.00		-10.00		3.607e-03		86.322		1.503e-03		47.383
5		0.00		-9.60		5.177e-03		110.749		1.509e-03		19.505
5		0.00		-9.20		5.679e-03		115.836		1.858e-03		18.160
5		0.00		-8.80		5.969e-03		113.569		1.453e-03		18.999
5		0.00		-8.40		6.523e-03		108.518		1.571e-03		17.912
5		0.00		-8.00		6.800e-03		117.560		1.927e-03		14.733
5		0.00		-7.60		6.263e-03		116.390		1.967e-03		20.727
5		0.00		-7.20		6.326e-03		122.910		1.754e-03		16.742
5		0.00		-6.80		5.728e-03		113.108		1.792e-03		26.402
5		0.00		-6.40		5.617e-03		113.305		1.984e-03		29.555
5		0.00		-6.00		5.987e-03		114.837		1.949e-03		22.738
5		0.00		-5.60		5.615e-03		108.461		1.766e-03		22.936
5		0.00		-5.20		5.719e-03		112.866		1.928e-03		26.827
5		0.00		-4.80		5.459e-03		113.734		1.539e-03		19.012
5		0.00		-4.40		5.489e-03		117.719		1.634e-03		20.087
5		0.00		-4.00		5.675e-03		110.781		1.636e-03		20.262
5		0.00		-3.60		5.419e-03		113.698		1.634e-03		17.999
5		0.00		-3.20		5.113e-03		109.758		1.536e-03		20.316
5		0.00		-2.80		5.058e-03		104.977		1.810e-03		42.740
5		0.00		-2.40		5.153e-03		112.664		1.697e-03		27.429
5		0.00		-2.00		5.205e-03		112.768		1.816e-03		19.786
5		0.00		-1.60		4.960e-03		113.196		1.469e-03		17.997
5		0.00		-1.20		5.266e-03		115.723		1.674e-03		16.164
5		0.00		-0.80		5.111e-03		113.500		1.571e-03		17.526
5		0.00		-0.40		5.045e-03		117.925		1.558e-03		17.990
6		0.00		0.00		4.894e-03		114.661		1.425e-03		20.884
6		0.00		0.40		4.825e-03		110.944		1.412e-03		22.981
6		0.00		0.80		4.973e-03		106.615		1.543e-03		37.900
6		0.00		1.20		4.741e-03		102.747		1.458e-03		19.980
6		0.00		1.60		4.370e-03		106.869		1.622e-03		25.580
6		0.00		2.00		3.833e-03		104.072		1.421e-03		33.713
6		0.00		2.40		3.452e-03		94.201		1.137e-03		37.275
6		0.00		2.80		2.815e-03		96.362		1.034e-03		38.793
6		0.00		3.20		2.036e-03		52.076		9.477e-04		73.708
6		0.00		3.60		1.937e-03		28.436		7.902e-04		60.812
6		0.00		4.00		1.884e-03		-17.582		8.934e-04		59.204
6		0.00		4.40		2.258e-03		-20.400		8.505e-04		41.482
6		0.00		4.80		2.761e-03		-43.423		1.114e-03		36.981
6		0.00		5.20		3.588e-03		-24.756		1.266e-03		34.917
6		0.00		5.60		4.350e-03		-46.354		1.258e-03		27.539
6		0.00		6.00		4.985e-03		-53.384		1.446e-03		20.018
6		0.00		6.40		6.150e-03		-46.416		1.561e-03		15.144
6		0.00		6.80		7.125e-03		-52.698		1.458e-03		12.783
6		0.00		7.20		7.468e-03		-46.771		1.544e-03		15.733
6		0.00		7.60		8.474e-03		-45.881		1.948e-03		17.015
6		0.00		8.00		9.813e-03		-47.076		2.288e-03		13.572
6		0.00		8.40		1.063e-02		-49.128		2.558e-03		15.394
6		0.00		8.80		1.232e-02		-47.140		3.019e-03		14.732
6		0.00		9.20		1.426e-02		-48.582		3.643e-03		12.626
6		0.00		9.60		1.595e-02		-47.650		3.933e-03		10.489
6		0.00		10.00		1.803e-02		-49.950		4.059e-03		9.801
6		0.00		9.60		1.921e-02		-51.970		3.948e-03		9.279
6		0.00		9.20		2.050e-02		-51.072		3.981e-03		7.535
6		0.00		8.80		2.097e-02		-50.762		4.202e-03		8.619
6		0.00		8.40		2.135e-02		-51.047		4.076e-03		10.931
6		0.00		8.00		2.131e-02		-50.114		4.490e-03		10.689
6		0.00		7.60		2.102e-02		-49.132		4.968e-03		11.630
6		0.00		7.20		2.120e-02		-49.696		4.904e-03		11.880
6		0.00		6.80		2.081e-02		-48.908		5.010e-03		9.054
6		0.00		6.40		2.071e-02		-50.517		4.871e-03		9.390
6		0.00		6.00		2.063e-02		-49.045		4.402e-03		9.718
6		0.00		5.60		2.072e-02		-50.032		4.077e-03		10.111
6		0.00		5.20		2.087e-02		-52.503		3.837e-03		8.455
6		0.00		4.80		2.026e-02		-50.199		4.124e-03		8.696
6		0.00		4.40		2.018e-02		-50.533		3.813e-03		9.571
6		0.00		4.00		1.909e-02		-48.092		4.294e-03		10.028
6		0.00		3.60		1.915e-02		-48.893		4.130e-03		12.164
6		0.00		3.20		1.934e-02		-49.288		4.286e-03		12.443
6		0.00		2.80		1.942e-02		-49.050		4.683e-03		13.440
6		0.00		2.40		1.921e-02		-47.856		4.472e-03		10.804
6		0.00		2.00		1.910e-02		-50.987		4.403e-03		9.630
6		0.00		1.60		1.909e-02		-49.115		4.353e-03		10.486
6		0.00		1.20		1.932e-02		-51.400		4.079e-03		10.598
6		0.00		0.80		1.896e-02		-49.872		3.981e-03		10.762
6		0.00		0.40		1.893e-02		-51.290		3.997e-03		10.873
6		0.00		0.00		1.853e-02		-49.304		3.734e-03		9.652
6		0.00		-0.40		1.828e-02		-47.575		4.199e-03		10.701
6		0.00		-0.80		1.797e-02		-48.666		4.721e-03		11.827
6		0.00		-1.20		1.796e-02		-51.560		4.683e-03		13.604
6		0.00		-1.60		1.753e-02		-48.596		4.524e-03		14.209
6		0.00		-2.00		1.708e-02		-47.483		3.824e-03		9.871
6		0.00		-2.40		1.751e-02		-48.535		3.631e-03		12.329
6		0.00		-2.80		1.709e-02		-47.497		3.292e-03		10.189
6		0.00		-3.20		1.660e-02		-47.365		3.082e-03		10.210
6		0.00		-3.60		1.654e-02		-49.679		2.963e-03		10.493
6		0.00		-4.00		1.608e-02		-46.359		3.195e-03		11.986
6		0.00		-4.40		1.538e-02		-47.787		2.967e-03		11.271
6		0.00		-4.80		1.491e-02		-47.722		3.025e-03		12.024
6		0.00		-5.20		1.373e-02		-49.464		3.183e-03		13.438
6		0.00		-5.60		1.298e-02		-45.376		3.296e-03		13.008
6		0.00		-6.00		1.182e-02		-50.151		2.789e-03		12.474
6		0.00		-6.40		1.077e-02		-45.737		2.638e-03		13.528
6		0.00		-6.80		9.907e-03		-46.594		2.253e-03		13.797
6		0.00		-7.20		8.373e-03		-45.335		2.010e-03		15.598
6		0.00		-7.60		7.219e-03		-42.334		1.875e-03		16.318
6		0.00		-8.00		6.109e-03		-45.887		1.384e-03		21.013
6		0.00		-8.40		4.523e-03		-41.196		1.364e-03		24.729
6		0.00		-8.80		3.337e-03		-21.853		1.084e-03		28.076
6		0.00		-9.20		2.137e-03		-23.921		1.003e-03		47.511
6		0.00		-9.60		2.055e-03		36.773		9.995e-04		63.334
6		0.00		-10.00		4.054e-03		95.732		1.261e-03		42.922
6		0.00		-9.60		4.941e-03		111.523		1.590e-03		29.247
6		0.00		-9.20		5.394e-03		113.957		1.328e-03		20.162
6		0.00		-8.80		6.457e-03		121.719		1.536e-03		15.350
6		0.00		-8.40		6.941e-03		119.165		1.766e-03		16.821
6		0.00		-8.00		6.964e-03		118.306		1.830e-03		15.150
6		0.00		-7.60		6.953e-03		117.304		1.896e-03		19.345
6		0.00		-7.20		6.755e-03		118.918		2.119e-03		20.106
6		0.00		-6.80		6.501e-03		115.611		1.801e-03		23.019
6		0.00		-6.40		6.062e-03		114.696		1.654e-03		20.062
6		0.00		-6.00		6.548e-03		116.664		1.842e-03		14.396
6		0.00		-5.60		6.143e-03		114.669		1.468e-03		13.160
6		0.00		-5.20		6.269e-03		115.554		1.655e-03		18.693
6		0.00		-4.80		5.803e-03		114.629		1.676e-03		14.968
6		0.00		-4.40		5.725e-03		115.237		1.512e-03		19.775
6		0.00		-4.00		5.536e-03		112.247		1.738e-03		20.372
6		0.00		-3.60		5.432e-03		103.011		1.711e-03		33.494
6		0.00		-3.20		5.670e-03		113.807		1.778e-03		19.500
6		0.00		-2.80		5.495e-03		110.929		1.682e-03		20.800
6		0.00		-2.40		5.171e-03		102.033		1.578e-03		16.534
6		0.00		-2.00		5.372e-03		108.957		1.580e-03		32.750
6		0.00		-1.60		5.713e-03		112.487		1.623e-03		21.134
6		0.00		-1.20		5.544e-03		112.905		1.297e-03		16.022
6		0.00		-0.80		5.381e-03		108.517		1.565e-03		35.517
6		0.00		-0.40		5.186e-03		113.232		1.444e-03		25.058
7		0.00		0.00		4.868e-03		112.428		1.477e-03		24.361
7		0.00		0.40		5.120e-03		110.999		1.619e-03		21.810
7		0.00		0.80		4.858e-03		114.620		1.518e-03		22.596
7		0.00		1.20		4.551e-03		108.299		1.537e-03		23.431
7		0.00		1.60		4.366e-03		113.569		1.275e-03		28.446
7		0.00		2.00		3.861e-03		107.558		1.352e-03		22.964
7		0.00		2.40		3.252e-03		108.611		1.161e-03		33.262
7		0.00		2.80		2.662e-03		98.640		1.031e-03		43.778
7		0.00		3.20		2.072e-03		50.911		7.312e-04		54.137
7		0.00		3.60		1.871e-03		24.426		7.894e-04		63.111
7		0.00		4.00		1.810e-03		4.623		6.824e-04		58.327
7		0.00		4.40		2.170e-03		-21.171		9.258e-04		39.484
7		0.00		4.80		2.602e-03		-42.493		1.048e-03		38.259
7		0.00		5.20		3.442e-03		-46.482		1.155e-03		30.159
7		0.00		5.60		4.312e-03		-32.405		1.135e-03		25.494
7		0.00		6.00		4.750e-03		-50.486		1.205e-03		19.008
7		0.00		6.40		5.854e-03		-43.476		1.371e-03		18.415
7		0.00		6.80		6.986e-03		-47.139		1.633e-03		18.046
7		0.00		7.20		7.842e-03		-46.493		1.840e-03		13.604
7		0.00		7.60		8.240e-03		-46.351		1.820e-03		15.573
7		0.00		8.00		9.311e-03		-45.505		2.174e-03		15.366
7		0.00		8.40		1.034e-02		-48.546		2.528e-03		13.695
7		0.00		8.80		1.170e-02		-47.310		2.936e-03		14.638
7		0.00		9.20		1.388e-02		-47.774		3.278e-03		10.645
7		0.00		9.60		1.617e-02		-47.783		3.733e-03		9.736
7		0.00		10.00		1.886e-02		-50.442		3.906e-03		10.232
7		0.00		9.60		1.971e-02		-48.185		3.769e-03		9.913
7		0.00		9.20		2.038e-02		-49.818		4.111e-03		9.687
7		0.00		8.80		2.052e-02		-50.477		4.649e-03		10.795
7		0.00		8.40		2.112e-02		-50.356		4.515e-03		11.236
7		0.00		8.00		2.100e-02		-50.395		4.593e-03		10.296
7		0.00		7.60		2.027e-02		-53.210		4.882e-03		13.671
7		0.00		7.20		2.040e-02		-50.697		5.238e-03		14.295
7		0.00		6.80		2.023e-02		-51.065		5.335e-03		13.276
7		0.00		6.40		1.980e-02		-48.023		5.250e-03		13.378
7		0.00		6.00		1.982e-02		-51.033		5.504e-03		10.420
7		0.00		5.60		1.925e-02		-50.337		4.671e-03		10.300
7		0.00		5.20		1.994e-02		-51.777		4.201e-03		10.013
7		0.00		4.80		2.012e-02		-50.491		3.635e-03		9.465
7		0.00		4.40		2.010e-02		-51.322		3.806e-03		8.973
7		0.00		4.00		1.992e-02		-50.188		3.629e-03		10.201
7		0.00		3.60		1.961e-02		-49.906		4.016e-03		10.785
7		0.00		3.20		1.927e-02		-49.196		3.987e-03		9.969
7		0.00		2.80		1.890e-02		-46.102		3.909e-03		10.815
7		0.00		2.40		1.884e-02		-49.361		4.320e-03		13.360
7		0.00		2.00		1.891e-02		-49.296		4.650e-03		12.711
7		0.00		1.60		1.868e-02		-48.260		4.408e-03		11.709
7		0.00		1.20		1.873e-02		-48.060		4.745e-03		10.879
7		0.00		0.80		1.856e-02		-49.574		4.320e-03		9.668
7		0.00		0.40		1.867e-02		-50.208		4.282e-03		9.618
7		0.00		0.00		1.887e-02		-49.122		4.054e-03		10.027
7		0.00		-0.40		1.940e-02		-50.143		3.702e-03		9.756
7		0.00		-0.80		1.929e-02		-49.809		3.643e-03		10.081
7		0.00		-1.20		1.926e-02		-49.520		3.635e-03		8.889
7		0.00		-1.60		1.840e-02		-50.927		3.634e-03		9.840
7		0.00		-2.00		1.770e-02		-47.954		3.983e-03		12.647
7		0.00		-2.40		1.760e-02		-48.955		4.172e-03		11.543
7		0.00		-2.80		1.678e-02		-47.899		3.715e-03		11.139
7		0.00		-3.20		1.626e-02		-49.014		4.157e-03		13.847
7		0.00		-3.60		1.561e-02		-46.978		3.839e-03		10.133
7		0.00		-4.00		1.529e-02		-48.674		3.798e-03		10.142
7		0.00		-4.40		1.492e-02		-47.012		3.111e-03		10.587
7		0.00		-4.80		1.491e-02		-49.068		3.075e-03		9.569
7		0.00		-5.20		1.399e-02		-49.578		2.829e-03		9.394
7		0.00		-5.60		1.311e-02		-47.409		2.391e-03		8.863
7		0.00		-6.00		1.323e-02		-48.050		2.474e-03		10.014
7		0.00		-6.40		1.143e-02		-50.676		2.451e-03		14.849
7		0.00		-6.80		9.903e-03		-43.234		2.115e-03		10.328
7		0.00		-7.20		8.358e-03		-41.434		1.948e-03		14.541
7		0.00		-7.60		7.064e-03		-46.072		1.926e-03		15.026
7		0.00		-8.00		5.329e-03		-47.624		1.531e-03		17.064
7		0.00		-8.40		4.213e-03		-32.997		1.582e-03		31.079
7		0.00		-8.80		2.939e-03		-16.880		1.160e-03		38.278
7		0.00		-9.20		2.248e-03		-12.886		1.170e-03		53.317
7		0.00		-9.60		1.924e-03		16.346		8.264e-04		53.958
7		0.00		-10.00		2.795e-03		80.939		9.644e-04		45.566
7		0.00		-9.60		3.832e-03		99.684		1.391e-03		27.808
7		0.00		-9.20		4.690e-03		109.348		1.365e-03		37.594
7		0.00		-8.80		4.989e-03		110.171		1.475e-03		22.405
7		0.00		-8.40		6.046e-03		117.988		1.274e-03		16.554
7		0.00		-8.00		5.766e-03		116.286		1.720e-03		23.752
7		0.00		-7.60		5.642e-03		113.895		1.795e-03		17.618
7		0.00		-7.20		5.716e-03		116.346		1.448e-03		16.716
7		0.00		-6.80		5.178e-03		112.026		1.597e-03		28.345
7		0.00		-6.40		5.234e-03		110.383		1.458e-03		20.021
7		0.00		-6.00		5.056e-03		115.231		1.570e-03		26.338
7		0.00		-5.60		4.821e-03		116.384		1.547e-03		24.733
7		0.00		-5.20		4.705e-03		108.361		1.462e-03		30.433
7		0.00		-4.80		4.934e-03		112.249		1.503e-03		19.682
7		0.00		-4.40		4.834e-03		115.318		1.679e-03		21.610
7		0.00		-4.00		4.502e-03		104.852		1.417e-03		22.805
7		0.00		-3.60		4.430e-03		105.297		1.447e-03		24.942
7		0.00		-3.20		4.673e-03		109.647		1.461e-03		24.155
7		0.00		-2.80		4.361e-03		101.152		1.333e-03		26.830
7		0.00		-2.40		4.738e-03		113.173		1.430e-03		20.721
7		0.00		-2.00		4.739e-03		110.521		1.542e-03		20.836
7		0.00		-1.60		4.542e-03		113.232		1.324e-03		42.211
7		0.00		-1.20		4.654e-03		110.851		1.497e-03		28.578
7		0.00		-0.80		4.364e-03		100.741		1.428e-03		29.872
7		0.00		-0.40		4.397e-03		107.553		1.575e-03		38.459
8		0.00		0.00		4.460e-03		112.501		1.337e-03		18.500
8		0.00		0.40		4.500e-03		105.312		1.587e-03		29.604
8		0.00		0.80		4.371e-03		106.479		1.441e-03		27.731
8		0.00		1.20		3.988e-03		107.312		1.394e-03		29.838
8		0.00		1.60		3.824e-03		104.005		1.380e-03		42.285
8		0.00		2.00		3.175e-03		100.298		1.324e-03		48.725
8		0.00		2.40		2.880e-03		91.569		1.130e-03		36.918
8		0.00		2.80		2.299e-03		67.029		9.760e-04		44.891
8		0.00		3.20		1.835e-03		43.979		7.754e-04		53.586
8		0.00		3.60		1.724e-03		-0.613		8.034e-04		73.061
8		0.00		4.00		2.120e-03		-28.550		9.322e-04		46.554
8		0.00		4.40		3.046e-03		-54.141		1.125e-03		39.843
8		0.00		4.80		3.071e-03		-51.991		1.292e-03		31.908
8		0.00		5.20		3.628e-03		-35.389		1.182e-03		25.288
8		0.00		5.60		4.633e-03		-52.737		1.421e-03		21.416
8		0.00		6.00		5.025e-03		-43.370		1.637e-03		19.826
8		0.00		6.40		5.839e-03		-45.496		1.565e-03		15.799
8		0.00		6.80		6.791e-03		-52.201		1.730e-03		12.974
8		0.00		7.20		7.615e-03		-45.772		1.721e-03		14.553
8		0.00		7.60		8.950e-03		-47.518		1.821e-03		15.320
8		0.00		8.00		9.919e-03		-52.096		1.827e-03		12.937
8		0.00		8.40		1.101e-02		-50.882		1.974e-03		11.710
8		0.00		8.80		1.242e-02		-50.142		2.094e-03		10.991
8		0.00		9.20		1.407e-02		-50.297		2.592e-03		10.861
8		0.00		9.60		1.622e-02		-48.616		3.165e-03		11.162
8		0.00		10.00		1.784e-02		-48.415		3.576e-03		11.989
8		0.00		9.60		1.932e-02		-50.769		4.523e-03		11.489
8		0.00		9.20		2.031e-02		-48.943		4.649e-03		11.012
8		0.00		8.80		2.074e-02		-52.162		4.504e-03		8.613
8		0.00		8.40		2.110e-02		-50.597		4.197e-03		8.793
8		0.00		8.00		2.145e-02		-49.926		3.889e-03		10.081
8		0.00		7.60		2.099e-02		-50.178		3.723e-03		8.858
8		0.00		7.20		2.091e-02		-50.558		3.931e-03		9.537
8		0.00		6.80		2.114e-02		-49.134		4.319e-03		9.975
8		0.00		6.40		2.093e-02		-50.168		4.371e-03		10.413
8		0.00		6.00		2.034e-02		-50.485		4.768e-03		12.604
8		0.00		5.60		1.987e-02		-51.154		5.019e-03		11.877
8		0.00		5.20		1.994e-02		-48.782		4.637e-03		10.293
8		0.00		4.80		1.953e-02		-52.395		4.502e-03		9.771
8		0.00		4.40		2.017e-02		-49.630		3.831e-03		9.956
8		0.00		4.00		2.006e-02		-48.897		3.902e-03		10.088
8		0.00		3.60		2.005e-02		-47.837		3.589e-03		9.302
8		0.00		3.20		1.979e-02		-49.942		3.773e-03		9.699
8		0.00		2.80		1.958e-02		-49.047		3.704e-03		10.311
8		0.00		2.40		1.938e-02		-46.043		3.812e-03		9.149
8		0.00		2.00		1.862e-02		-49.247		4.203e-03		12.787
8		0.00		1.60		1.900e-02		-47.460		4.648e-03		9.626
8		0.00		1.20		1.908e-02		-49.040		4.232e-03		10.096
8		0.00		0.80		1.897e-02		-48.302		4.059e-03		8.443
8		0.00		0.40		1.916e-02		-51.158		3.650e-03		11.001
8		0.00		0.00		1.909e-02		-48.583		3.635e-03		10.082
8		0.00		-0.40		1.897e-02		-49.959		3.567e-03		10.590
8		0.00		-0.80		1.854e-02		-46.992		3.950e-03		9.851
8		0.00		-1.20		1.827e-02		-49.002		3.988e-03		9.394
8		0.00		-1.60		1.800e-02		-49.342		4.233e-03		10.588
8		0.00		-2.00		1.741e-02		-49.115		4.463e-03		12.871
8		0.00		-2.40		1.711e-02		-48.529		4.542e-03		9.986
8		0.00		-2.80		1.714e-02		-48.502		3.710e-03		8.432
8		0.00		-3.20		1.717e-02		-48.054		3.176e-03		10.988
8		0.00		-3.60		1.629e-02		-47.983		2.871e-03		10.025
8		0.00		-4.00		1.567e-02		-47.787		2.750e-03		9.531
8		0.00		-4.40		1.534e-02		-46.584		2.871e-03		9.648
8		0.00		-4.80		1.483e-02		-48.224		2.983e-03		12.555
8		0.00		-5.20		1.361e-02		-48.621		3.062e-03		12.887
8		0.00		-5.60		1.300e-02		-49.106		3.171e-03		12.386
8		0.00		-6.00		1.204e-02		-47.152		2.891e-03		10.856
8		0.00		-6.40		1.113e-02		-47.395		2.245e-03		12.853
8		0.00		-6.80		9.888e-03		-47.019		1.786e-03		10.576
8		0.00		-7.20		8.949e-03		-43.229		1.727e-03		12.197
8		0.00		-7.60		7.252e-03		-48.391		1.648e-03		13.661
8		0.00		-8.00		6.215e-03		-42.691		1.695e-03		15.647
8		0.00		-8.40		4.729e-03		-42.583		1.297e-03		21.672
8		0.00		-8.80		3.166e-03		-29.226		1.201e-03		36.225
8		0.00		-9.20		2.590e-03		-26.873		1.119e-03		46.905
8		0.00		-9.60		1.917e-03		-6.413		7.615e-04		58.163
8		0.00		-10.00		2.635e-03		73.232		1.030e-03		43.437
8		0.00		-9.60		3.762e-03		95.059		1.394e-03		39.737
8		0.00		-9.20		4.420e-03		110.381		1.476e-03		27.752
8		0.00		-8.80		4.895e-03		116.563		1.406e-03		16.623
8		0.00		-8.40		5.115e-03		117.849		1.398e-03		22.971
8		0.00		-8.00		4.981e-03		113.957		1.530e-03		20.095
8		0.00		-7.60		5.102e-03		106.850		1.742e-03		24.617
8		0.00		-7.20		4.687e-03		116.093		1.411e-03		21.619
8		0.00		-6.80		4.848e-03		108.857		1.492e-03		23.350
8		0.00		-6.40		4.982e-03		116.280		1.583e-03		19.597
8		0.00		-6.00		4.577e-03		119.390		1.278e-03		19.436
8		0.00		-5.60		4.656e-03		111.446		1.626e-03		22.996
8		0.00		-5.20		4.571e-03		107.102		1.393e-03		25.271
8		0.00		-4.80		4.516e-03		105.804		1.479e-03		19.931
8		0.00		-4.40		4.387e-03		107.615		1.394e-03		25.468
8		0.00		-4.00		4.531e-03		115.647		1.298e-03		18.728
8		0.00		-3.60		3.992e-03		111.008		1.527e-03		29.232
8		0.00		-3.20		4.288e-03		111.056		1.488e-03		23.603
8		0.00		-2.80		4.334e-03		115.333		1.157e-03		18.446
8		0.00		-2.40		4.140e-03		109.919		1.523e-03		28.244
8		0.00		-2.00		4.314e-03		108.919		1.292e-03		27.730
8		0.00		-1.60		4.305e-03		111.903		1.454e-03		27.894
8		0.00		-1.20		4.296e-03		103.601		1.545e-03		23.207
8		0.00		-0.80		4.316e-03		111.780		1.328e-03		21.758
8		0.00		-0.40		4.249e-03		108.280		1.333e-03		28.364
