# Date of analysis: 2023-11-20 16;15
# 
# Loop index	Read Volt (V)	Write Volt (V)	Amplitude (a.u)	Phase (deg)	Sigma Amp (a.u)	Sigma Pha (deg)	
1		0.00		0.00		1.707e-02		-60.095		3.205e-03		15.780
1		0.00		0.40		1.464e-02		-59.580		2.871e-03		16.680
1		0.00		0.80		1.362e-02		-60.207		2.896e-03		18.476
1		0.00		1.20		1.298e-02		-57.935		2.860e-03		17.860
1		0.00		1.60		1.253e-02		-57.255		3.027e-03		18.354
1		0.00		2.00		1.169e-02		-57.598		3.208e-03		21.582
1		0.00		2.40		1.136e-02		-53.859		3.572e-03		22.840
1		0.00		2.80		1.107e-02		-49.581		4.018e-03		27.135
1		0.00		3.20		1.190e-02		-52.628		4.453e-03		22.210
1		0.00		3.60		1.262e-02		-46.734		4.880e-03		24.667
1		0.00		4.00		1.288e-02		-53.561		4.776e-03		19.090
1		0.00		4.40		1.394e-02		-55.450		4.444e-03		17.993
1		0.00		4.80		1.568e-02		-56.346		4.328e-03		16.090
1		0.00		5.20		1.666e-02		-58.497		4.112e-03		16.322
1		0.00		5.60		1.779e-02		-55.916		4.377e-03		17.583
1		0.00		6.00		1.824e-02		-55.401		4.982e-03		19.433
1		0.00		6.40		1.867e-02		-54.598		5.065e-03		18.474
1		0.00		6.80		1.973e-02		-53.401		5.827e-03		18.990
1		0.00		7.20		2.095e-02		-54.428		6.190e-03		18.157
1		0.00		7.60		2.207e-02		-49.845		6.633e-03		21.415
1		0.00		8.00		2.132e-02		-49.195		6.865e-03		19.688
1		0.00		8.40		2.151e-02		-48.581		6.731e-03		18.089
1		0.00		8.80		2.391e-02		-47.219		7.626e-03		15.661
1		0.00		9.20		2.346e-02		-52.834		7.744e-03		15.294
1		0.00		9.60		2.302e-02		-51.486		7.235e-03		14.104
1		0.00		10.00		2.509e-02		-51.700		7.313e-03		12.504
1		0.00		9.60		2.292e-02		-52.988		5.996e-03		13.341
1		0.00		9.20		2.282e-02		-51.882		5.727e-03		13.717
1		0.00		8.80		2.216e-02		-53.961		4.753e-03		13.865
1		0.00		8.40		2.171e-02		-53.982		4.373e-03		13.887
1		0.00		8.00		2.240e-02		-53.568		4.732e-03		15.178
1		0.00		7.60		2.116e-02		-54.723		4.405e-03		15.232
1		0.00		7.20		2.105e-02		-52.058		4.752e-03		16.635
1		0.00		6.80		2.001e-02		-51.294		5.048e-03		15.895
1		0.00		6.40		1.900e-02		-48.847		4.577e-03		16.903
1		0.00		6.00		1.939e-02		-48.082		4.934e-03		16.989
1		0.00		5.60		1.798e-02		-51.073		4.760e-03		20.148
1		0.00		5.20		1.695e-02		-51.113		4.803e-03		20.053
1		0.00		4.80		1.713e-02		-46.092		5.217e-03		19.081
1		0.00		4.40		1.707e-02		-47.118		5.223e-03		17.904
1		0.00		4.00		1.697e-02		-49.282		5.409e-03		21.132
1		0.00		3.60		1.652e-02		-48.784		5.168e-03		14.685
1		0.00		3.20		1.633e-02		-52.052		4.711e-03		15.775
1		0.00		2.80		1.636e-02		-52.138		4.536e-03		15.560
1		0.00		2.40		1.592e-02		-52.866		4.070e-03		15.175
1		0.00		2.00		1.600e-02		-53.263		3.618e-03		14.935
1		0.00		1.60		1.538e-02		-50.718		3.219e-03		16.341
1		0.00		1.20		1.530e-02		-52.759		2.927e-03		16.472
1		0.00		0.80		1.484e-02		-52.003		2.787e-03		17.055
1		0.00		0.40		1.435e-02		-55.141		2.776e-03		17.255
1		0.00		0.00		1.369e-02		-52.115		2.850e-03		15.717
1		0.00		-0.40		1.178e-02		-51.128		2.759e-03		18.108
1		0.00		-0.80		9.262e-03		-47.904		2.728e-03		21.136
1		0.00		-1.20		7.146e-03		-50.970		2.494e-03		25.427
1		0.00		-1.60		5.062e-03		-42.090		2.689e-03		36.102
1		0.00		-2.00		3.649e-03		-19.795		2.247e-03		55.093
1		0.00		-2.40		3.426e-03		12.598		2.002e-03		67.367
1		0.00		-2.80		4.431e-03		80.063		2.115e-03		62.111
1		0.00		-3.20		5.207e-03		97.061		2.265e-03		53.911
1		0.00		-3.60		7.381e-03		110.778		2.929e-03		37.390
1		0.00		-4.00		9.830e-03		123.169		3.411e-03		27.538
1		0.00		-4.40		1.121e-02		125.358		3.677e-03		25.418
1		0.00		-4.80		1.350e-02		123.884		3.993e-03		20.724
1		0.00		-5.20		1.579e-02		126.147		4.635e-03		15.144
1		0.00		-5.60		1.716e-02		125.873		4.390e-03		10.240
1		0.00		-6.00		1.838e-02		125.338		5.037e-03		10.170
1		0.00		-6.40		1.969e-02		125.088		5.617e-03		11.873
1		0.00		-6.80		2.046e-02		124.579		5.297e-03		11.423
1		0.00		-7.20		1.941e-02		128.384		5.485e-03		11.069
1		0.00		-7.60		2.085e-02		125.650		5.543e-03		12.312
1		0.00		-8.00		2.238e-02		127.460		6.256e-03		12.442
1		0.00		-8.40		2.434e-02		126.493		6.657e-03		13.804
1		0.00		-8.80		2.250e-02		123.931		6.372e-03		18.221
1		0.00		-9.20		2.239e-02		123.408		6.642e-03		24.269
1		0.00		-9.60		2.331e-02		126.570		6.812e-03		18.344
1		0.00		-10.00		2.465e-02		127.061		7.119e-03		13.730
1		0.00		-9.60		2.379e-02		130.143		6.672e-03		10.337
1		0.00		-9.20		2.611e-02		126.132		6.739e-03		9.767
1		0.00		-8.80		2.453e-02		127.001		5.490e-03		9.994
1		0.00		-8.40		1.868e-02		127.021		4.051e-03		9.857
1		0.00		-8.00		1.906e-02		126.444		3.955e-03		11.590
1		0.00		-7.60		2.154e-02		126.121		4.061e-03		11.268
1		0.00		-7.20		1.996e-02		125.665		4.213e-03		11.785
1		0.00		-6.80		2.298e-02		127.621		5.272e-03		12.197
1		0.00		-6.40		2.109e-02		127.624		5.434e-03		12.751
1		0.00		-6.00		2.345e-02		125.746		6.264e-03		15.686
1		0.00		-5.60		2.166e-02		124.870		6.194e-03		19.059
1		0.00		-5.20		2.182e-02		123.612		6.751e-03		20.851
1		0.00		-4.80		2.238e-02		122.108		6.899e-03		21.509
1		0.00		-4.40		2.101e-02		125.599		6.569e-03		11.539
1		0.00		-4.00		1.919e-02		125.903		5.367e-03		10.036
1		0.00		-3.60		1.921e-02		125.981		4.660e-03		9.758
1		0.00		-3.20		1.745e-02		126.583		4.233e-03		10.519
1		0.00		-2.80		1.632e-02		125.320		3.667e-03		10.698
1		0.00		-2.40		1.515e-02		124.966		3.161e-03		12.445
1		0.00		-2.00		1.404e-02		126.007		3.358e-03		11.495
1		0.00		-1.60		1.339e-02		127.693		3.078e-03		12.045
1		0.00		-1.20		1.230e-02		125.622		2.877e-03		12.844
1		0.00		-0.80		1.149e-02		126.276		3.155e-03		21.068
1		0.00		-0.40		1.060e-02		124.659		2.995e-03		20.427
2		0.00		0.00		9.469e-03		125.439		2.734e-03		22.602
2		0.00		0.40		8.666e-03		129.010		2.476e-03		15.951
2		0.00		0.80		7.734e-03		126.806		2.307e-03		15.567
2		0.00		1.20		6.637e-03		126.240		2.073e-03		23.884
2		0.00		1.60		5.081e-03		123.236		1.518e-03		32.126
2		0.00		2.00		3.313e-03		97.380		1.197e-03		61.832
2		0.00		2.40		2.307e-03		19.775		9.163e-04		91.536
2		0.00		2.80		2.964e-03		-49.087		1.119e-03		47.721
2		0.00		3.20		4.099e-03		-52.542		1.481e-03		39.146
2		0.00		3.60		4.878e-03		-45.687		1.731e-03		28.754
2		0.00		4.00		6.605e-03		-51.635		2.399e-03		24.344
2		0.00		4.40		7.987e-03		-51.393		2.895e-03		19.777
2		0.00		4.80		9.503e-03		-49.143		3.052e-03		19.849
2		0.00		5.20		1.189e-02		-54.182		3.265e-03		14.716
2		0.00		5.60		1.355e-02		-50.702		3.660e-03		15.531
2		0.00		6.00		1.553e-02		-52.813		4.020e-03		15.700
2		0.00		6.40		1.543e-02		-52.352		4.138e-03		16.516
2		0.00		6.80		1.679e-02		-50.422		4.049e-03		16.687
2		0.00		7.20		1.601e-02		-47.557		4.175e-03		18.121
2		0.00		7.60		1.783e-02		-50.292		4.836e-03		20.046
2		0.00		8.00		1.767e-02		-48.977		5.659e-03		21.085
2		0.00		8.40		1.906e-02		-46.330		6.114e-03		22.277
2		0.00		8.80		2.025e-02		-50.088		6.235e-03		16.101
2		0.00		9.20		2.006e-02		-52.882		6.192e-03		13.510
2		0.00		9.60		1.903e-02		-48.934		5.053e-03		15.337
2		0.00		10.00		2.065e-02		-52.342		5.099e-03		15.078
2		0.00		9.60		1.783e-02		-52.833		4.426e-03		16.333
2		0.00		9.20		1.858e-02		-50.073		4.269e-03		15.638
2		0.00		8.80		1.776e-02		-50.318		4.491e-03		16.953
2		0.00		8.40		1.787e-02		-51.726		4.628e-03		16.239
2		0.00		8.00		1.776e-02		-51.101		5.268e-03		19.805
2		0.00		7.60		1.660e-02		-48.305		5.164e-03		18.338
2		0.00		7.20		1.630e-02		-46.352		5.177e-03		25.500
2		0.00		6.80		1.568e-02		-50.752		5.031e-03		21.629
2		0.00		6.40		1.595e-02		-55.431		4.513e-03		16.517
2		0.00		6.00		1.636e-02		-54.755		3.849e-03		15.009
2		0.00		5.60		1.587e-02		-49.909		3.239e-03		14.841
2		0.00		5.20		1.471e-02		-52.604		3.221e-03		17.606
2		0.00		4.80		1.392e-02		-50.114		3.301e-03		17.551
2		0.00		4.40		1.411e-02		-48.641		3.363e-03		15.674
2		0.00		4.00		1.351e-02		-51.106		3.581e-03		19.818
2		0.00		3.60		1.269e-02		-47.518		3.830e-03		21.966
2		0.00		3.20		1.311e-02		-48.538		3.977e-03		19.539
2		0.00		2.80		1.310e-02		-51.218		4.057e-03		17.324
2		0.00		2.40		1.344e-02		-53.892		3.919e-03		15.355
2		0.00		2.00		1.291e-02		-47.861		3.341e-03		15.619
2		0.00		1.60		1.372e-02		-52.492		2.770e-03		14.879
2		0.00		1.20		1.327e-02		-53.701		2.575e-03		16.342
2		0.00		0.80		1.288e-02		-52.258		2.631e-03		16.953
2		0.00		0.40		1.180e-02		-52.813		2.801e-03		16.154
2		0.00		0.00		1.005e-02		-49.889		3.038e-03		18.921
2		0.00		-0.40		8.327e-03		-52.970		3.070e-03		20.027
2		0.00		-0.80		7.376e-03		-47.826		2.926e-03		22.891
2		0.00		-1.20		5.304e-03		-44.569		2.628e-03		31.220
2		0.00		-1.60		3.998e-03		-33.569		2.259e-03		57.505
2		0.00		-2.00		3.424e-03		15.844		1.605e-03		78.348
2		0.00		-2.40		3.736e-03		63.107		1.754e-03		69.789
2		0.00		-2.80		5.242e-03		99.645		2.508e-03		50.199
2		0.00		-3.20		6.777e-03		116.971		2.635e-03		35.428
2		0.00		-3.60		8.682e-03		121.236		3.209e-03		24.148
2		0.00		-4.00		1.091e-02		123.944		3.448e-03		22.549
2		0.00		-4.40		1.381e-02		123.047		4.244e-03		26.678
2		0.00		-4.80		1.505e-02		124.891		4.547e-03		24.235
2		0.00		-5.20		1.678e-02		127.805		4.901e-03		16.405
2		0.00		-5.60		1.879e-02		127.107		5.231e-03		11.467
2		0.00		-6.00		2.156e-02		127.017		5.294e-03		8.164
2		0.00		-6.40		2.297e-02		128.314		5.518e-03		10.337
2		0.00		-6.80		2.397e-02		124.637		5.823e-03		10.040
2		0.00		-7.20		2.275e-02		128.143		5.465e-03		10.773
2		0.00		-7.60		2.306e-02		126.296		6.277e-03		13.212
2		0.00		-8.00		2.473e-02		124.174		7.292e-03		18.358
2		0.00		-8.40		2.363e-02		123.401		7.225e-03		25.641
2		0.00		-8.80		2.487e-02		124.798		7.523e-03		23.644
2		0.00		-9.20		2.638e-02		127.681		7.771e-03		10.811
2		0.00		-9.60		2.507e-02		127.362		6.219e-03		9.831
2		0.00		-10.00		2.627e-02		127.365		5.953e-03		10.288
2		0.00		-9.60		2.849e-02		125.653		5.836e-03		10.691
2		0.00		-9.20		2.884e-02		127.969		6.018e-03		11.296
2		0.00		-8.80		2.797e-02		128.496		6.329e-03		9.898
2		0.00		-8.40		2.810e-02		127.897		7.156e-03		12.108
2		0.00		-8.00		2.578e-02		127.428		7.209e-03		19.313
2		0.00		-7.60		2.740e-02		127.489		7.723e-03		18.251
2		0.00		-7.20		2.676e-02		127.480		7.312e-03		9.865
2		0.00		-6.80		2.759e-02		127.538		6.664e-03		10.958
2		0.00		-6.40		2.586e-02		128.320		5.935e-03		9.865
2		0.00		-6.00		2.530e-02		127.596		5.582e-03		10.713
2		0.00		-5.60		2.440e-02		126.340		5.520e-03		11.155
2		0.00		-5.20		2.279e-02		125.941		4.913e-03		11.314
2		0.00		-4.80		2.248e-02		129.551		5.465e-03		11.070
2		0.00		-4.40		2.008e-02		126.911		5.073e-03		12.242
2		0.00		-4.00		1.901e-02		123.188		5.401e-03		18.140
2		0.00		-3.60		1.825e-02		125.310		5.234e-03		19.047
2		0.00		-3.20		1.647e-02		126.465		5.194e-03		15.463
2		0.00		-2.80		1.539e-02		129.161		4.783e-03		9.140
2		0.00		-2.40		1.443e-02		126.644		4.224e-03		13.278
2		0.00		-2.00		1.320e-02		123.035		3.307e-03		11.111
2		0.00		-1.60		1.166e-02		123.916		2.980e-03		12.682
2		0.00		-1.20		1.096e-02		125.505		2.707e-03		10.513
2		0.00		-0.80		9.706e-03		128.626		2.337e-03		12.972
2		0.00		-0.40		8.566e-03		124.750		2.317e-03		17.986
3		0.00		0.00		7.712e-03		119.094		2.475e-03		25.635
3		0.00		0.40		6.793e-03		120.682		2.330e-03		30.066
3		0.00		0.80		6.089e-03		120.315		2.072e-03		35.035
3		0.00		1.20		4.660e-03		110.665		1.790e-03		41.385
3		0.00		1.60		3.711e-03		107.143		1.447e-03		40.509
3		0.00		2.00		2.775e-03		66.574		1.042e-03		71.957
3		0.00		2.40		2.261e-03		27.018		9.218e-04		79.494
3		0.00		2.80		2.313e-03		-19.084		9.206e-04		66.885
3		0.00		3.20		2.929e-03		-48.934		1.090e-03		49.957
3		0.00		3.60		4.070e-03		-51.646		1.549e-03		35.391
3		0.00		4.00		6.147e-03		-53.626		2.038e-03		23.470
3		0.00		4.40		8.137e-03		-47.849		2.843e-03		25.620
3		0.00		4.80		9.512e-03		-47.716		3.185e-03		20.870
3		0.00		5.20		1.180e-02		-51.088		3.562e-03		16.449
3		0.00		5.60		1.411e-02		-52.472		3.470e-03		14.693
3		0.00		6.00		1.569e-02		-53.265		3.549e-03		15.325
3		0.00		6.40		1.669e-02		-50.644		4.126e-03		16.373
3		0.00		6.80		1.871e-02		-48.459		4.464e-03		15.149
3		0.00		7.20		1.803e-02		-49.109		4.736e-03		16.179
3		0.00		7.60		1.842e-02		-49.621		5.506e-03		19.522
3		0.00		8.00		1.924e-02		-48.960		5.884e-03		18.016
3		0.00		8.40		2.078e-02		-47.627		6.340e-03		14.535
3		0.00		8.80		2.241e-02		-49.892		5.733e-03		13.991
3		0.00		9.20		2.316e-02		-49.718		5.463e-03		15.946
3		0.00		9.60		2.195e-02		-52.576		5.061e-03		15.910
3		0.00		10.00		2.247e-02		-48.952		5.361e-03		16.071
3		0.00		9.60		2.118e-02		-50.597		5.373e-03		15.010
3		0.00		9.20		2.030e-02		-50.428		6.108e-03		16.073
3		0.00		8.80		2.004e-02		-49.217		6.728e-03		23.101
3		0.00		8.40		1.860e-02		-49.597		6.130e-03		13.087
3		0.00		8.00		1.857e-02		-52.818		5.077e-03		12.437
3		0.00		7.60		1.921e-02		-51.308		4.129e-03		12.027
3		0.00		7.20		1.912e-02		-52.617		3.760e-03		13.382
3		0.00		6.80		1.937e-02		-52.659		4.344e-03		13.052
3		0.00		6.40		1.696e-02		-50.358		4.456e-03		16.403
3		0.00		6.00		1.649e-02		-49.320		4.706e-03		20.238
3		0.00		5.60		1.674e-02		-50.528		4.754e-03		14.406
3		0.00		5.20		1.682e-02		-51.289		4.424e-03		13.658
3		0.00		4.80		1.763e-02		-52.698		3.661e-03		12.388
3		0.00		4.40		1.692e-02		-55.353		2.990e-03		13.548
3		0.00		4.00		1.595e-02		-50.354		3.203e-03		15.925
3		0.00		3.60		1.448e-02		-47.827		3.561e-03		16.384
3		0.00		3.20		1.491e-02		-49.117		3.933e-03		17.333
3		0.00		2.80		1.455e-02		-46.532		4.116e-03		20.112
3		0.00		2.40		1.537e-02		-53.203		4.089e-03		12.047
3		0.00		2.00		1.549e-02		-49.982		3.103e-03		12.728
3		0.00		1.60		1.481e-02		-51.764		2.521e-03		13.922
3		0.00		1.20		1.403e-02		-50.182		2.833e-03		16.348
3		0.00		0.80		1.286e-02		-48.695		3.271e-03		18.406
3		0.00		0.40		1.215e-02		-49.904		3.677e-03		23.120
3		0.00		0.00		1.219e-02		-53.121		3.774e-03		16.531
3		0.00		-0.40		1.128e-02		-52.886		3.021e-03		14.167
3		0.00		-0.80		9.681e-03		-54.873		2.607e-03		14.340
3		0.00		-1.20		7.145e-03		-49.206		2.150e-03		19.448
3		0.00		-1.60		4.302e-03		-46.348		1.986e-03		51.200
3		0.00		-2.00		2.990e-03		-7.732		1.716e-03		77.416
3		0.00		-2.40		3.662e-03		58.539		1.753e-03		71.473
3		0.00		-2.80		4.832e-03		92.153		2.173e-03		60.882
3		0.00		-3.20		7.010e-03		116.986		2.840e-03		42.946
3		0.00		-3.60		8.622e-03		114.341		3.064e-03		40.684
3		0.00		-4.00		1.066e-02		124.137		3.744e-03		21.412
3		0.00		-4.40		1.189e-02		123.100		3.971e-03		18.811
3		0.00		-4.80		1.585e-02		123.573		4.753e-03		19.064
3		0.00		-5.20		1.781e-02		125.097		5.463e-03		20.572
3		0.00		-5.60		1.828e-02		124.758		5.885e-03		19.048
3		0.00		-6.00		2.177e-02		126.355		5.580e-03		9.593
3		0.00		-6.40		2.325e-02		128.576		5.439e-03		9.565
3		0.00		-6.80		2.356e-02		126.156		5.638e-03		10.966
3		0.00		-7.20		2.605e-02		126.720		6.533e-03		11.166
3		0.00		-7.60		2.587e-02		125.947		7.193e-03		16.380
3		0.00		-8.00		2.734e-02		125.195		7.854e-03		20.719
3		0.00		-8.40		2.841e-02		126.734		8.668e-03		12.514
3		0.00		-8.80		2.847e-02		127.213		7.870e-03		9.354
3		0.00		-9.20		2.847e-02		127.141		6.975e-03		9.523
3		0.00		-9.60		3.055e-02		126.416		7.271e-03		9.816
3		0.00		-10.00		2.880e-02		126.337		6.908e-03		10.667
3		0.00		-9.60		2.742e-02		127.430		7.771e-03		11.354
3		0.00		-9.20		2.854e-02		125.327		8.063e-03		22.667
3		0.00		-8.80		2.743e-02		125.210		8.608e-03		22.226
3		0.00		-8.40		2.815e-02		126.521		7.773e-03		9.712
3		0.00		-8.00		2.937e-02		125.005		7.252e-03		8.794
3		0.00		-7.60		2.960e-02		126.795		6.491e-03		9.380
3		0.00		-7.20		2.879e-02		126.436		6.071e-03		10.627
3		0.00		-6.80		2.925e-02		128.216		6.407e-03		10.458
3		0.00		-6.40		2.913e-02		126.336		7.183e-03		15.114
3		0.00		-6.00		2.646e-02		125.791		7.086e-03		17.735
3		0.00		-5.60		2.454e-02		126.219		6.737e-03		13.603
3		0.00		-5.20		2.443e-02		126.576		6.065e-03		9.109
3		0.00		-4.80		2.374e-02		127.043		4.926e-03		9.572
3		0.00		-4.40		2.240e-02		127.247		4.925e-03		9.952
3		0.00		-4.00		2.043e-02		127.982		4.772e-03		9.684
3		0.00		-3.60		1.854e-02		128.291		4.830e-03		13.994
3		0.00		-3.20		1.700e-02		122.954		4.987e-03		22.304
3		0.00		-2.80		1.605e-02		126.082		4.726e-03		22.588
3		0.00		-2.40		1.504e-02		127.497		4.392e-03		14.258
3		0.00		-2.00		1.410e-02		126.496		4.041e-03		12.278
3		0.00		-1.60		1.285e-02		125.939		3.526e-03		11.338
3		0.00		-1.20		1.191e-02		124.336		2.912e-03		11.927
3		0.00		-0.80		1.064e-02		127.010		2.765e-03		11.201
3		0.00		-0.40		9.309e-03		127.376		2.804e-03		16.786
4		0.00		0.00		8.872e-03		117.948		2.530e-03		32.916
4		0.00		0.40		7.685e-03		124.094		2.317e-03		28.468
4		0.00		0.80		6.864e-03		126.366		2.104e-03		27.321
4		0.00		1.20		5.706e-03		120.495		2.088e-03		23.153
4		0.00		1.60		4.918e-03		118.626		1.885e-03		36.605
4		0.00		2.00		3.841e-03		108.238		1.429e-03		54.410
4		0.00		2.40		2.763e-03		68.818		1.136e-03		70.603
4		0.00		2.80		2.305e-03		21.850		9.674e-04		75.681
4		0.00		3.20		2.222e-03		-16.767		9.871e-04		66.743
4		0.00		3.60		3.097e-03		-44.317		1.424e-03		42.181
4		0.00		4.00		4.870e-03		-52.192		1.861e-03		31.425
4		0.00		4.40		7.504e-03		-50.692		2.475e-03		21.306
4		0.00		4.80		9.599e-03		-51.173		3.006e-03		17.312
4		0.00		5.20		1.239e-02		-51.199		2.810e-03		14.884
4		0.00		5.60		1.427e-02		-50.373		3.153e-03		15.050
4		0.00		6.00		1.669e-02		-52.823		3.887e-03		14.238
4		0.00		6.40		1.924e-02		-51.249		4.589e-03		13.693
4		0.00		6.80		1.951e-02		-48.709		5.464e-03		15.596
4		0.00		7.20		1.940e-02		-50.871		5.603e-03		16.979
4		0.00		7.60		2.047e-02		-51.353		5.845e-03		19.118
4		0.00		8.00		2.058e-02		-51.607		6.218e-03		18.634
4		0.00		8.40		2.263e-02		-49.451		6.324e-03		12.742
4		0.00		8.80		2.283e-02		-50.103		6.369e-03		12.024
4		0.00		9.20		2.482e-02		-51.733		6.415e-03		11.075
4		0.00		9.60		2.553e-02		-50.395		6.258e-03		11.753
4		0.00		10.00		2.529e-02		-51.043		5.533e-03		13.756
4		0.00		9.60		2.508e-02		-50.004		5.189e-03		13.733
4		0.00		9.20		2.341e-02		-49.827		4.905e-03		14.844
4		0.00		8.80		2.266e-02		-47.528		4.898e-03		13.719
4		0.00		8.40		2.229e-02		-46.514		5.081e-03		14.599
4		0.00		8.00		2.016e-02		-49.589		5.032e-03		18.816
4		0.00		7.60		1.869e-02		-49.058		5.591e-03		21.240
4		0.00		7.20		1.787e-02		-50.340		5.584e-03		23.978
4		0.00		6.80		1.738e-02		-49.412		5.578e-03		17.397
4		0.00		6.40		1.737e-02		-50.609		5.560e-03		13.711
4		0.00		6.00		1.856e-02		-49.586		5.229e-03		12.365
4		0.00		5.60		1.912e-02		-50.809		4.654e-03		12.840
4		0.00		5.20		1.892e-02		-51.928		4.231e-03		12.854
4		0.00		4.80		1.759e-02		-51.394		3.302e-03		12.798
4		0.00		4.40		1.678e-02		-53.294		3.264e-03		14.882
4		0.00		4.00		1.592e-02		-52.705		3.010e-03		14.664
4		0.00		3.60		1.518e-02		-50.938		3.006e-03		15.035
4		0.00		3.20		1.460e-02		-48.440		3.030e-03		14.785
4		0.00		2.80		1.413e-02		-47.117		3.276e-03		16.099
4		0.00		2.40		1.357e-02		-47.043		3.335e-03		18.755
4		0.00		2.00		1.283e-02		-46.525		3.457e-03		20.134
4		0.00		1.60		1.259e-02		-44.232		3.382e-03		22.967
4		0.00		1.20		1.257e-02		-47.298		3.479e-03		21.931
4		0.00		0.80		1.268e-02		-48.292		3.424e-03		15.798
4		0.00		0.40		1.267e-02		-50.522		3.389e-03		14.719
4		0.00		0.00		1.172e-02		-48.200		2.828e-03		13.828
4		0.00		-0.40		1.106e-02		-50.974		2.590e-03		14.930
4		0.00		-0.80		9.452e-03		-48.011		2.400e-03		16.590
4		0.00		-1.20		6.733e-03		-42.855		2.264e-03		21.530
4		0.00		-1.60		4.734e-03		-50.288		1.850e-03		31.994
4		0.00		-2.00		3.214e-03		-14.377		1.502e-03		66.966
4		0.00		-2.40		3.575e-03		65.135		1.448e-03		70.211
4		0.00		-2.80		4.620e-03		88.599		1.993e-03		57.766
4		0.00		-3.20		6.994e-03		120.148		2.704e-03		32.915
4		0.00		-3.60		1.003e-02		120.442		3.617e-03		28.580
4		0.00		-4.00		1.172e-02		121.095		3.913e-03		25.190
4		0.00		-4.40		1.380e-02		125.332		4.267e-03		25.211
4		0.00		-4.80		1.589e-02		125.131		4.610e-03		22.192
4		0.00		-5.20		1.857e-02		127.967		5.484e-03		13.453
4		0.00		-5.60		2.007e-02		127.184		5.508e-03		10.883
4		0.00		-6.00		2.316e-02		126.656		5.993e-03		10.901
4		0.00		-6.40		2.492e-02		127.244		5.759e-03		8.287
4		0.00		-6.80		2.671e-02		126.996		5.569e-03		6.854
4		0.00		-7.20		2.668e-02		127.226		5.507e-03		8.215
4		0.00		-7.60		2.794e-02		127.331		5.849e-03		9.408
4		0.00		-8.00		2.958e-02		127.408		6.038e-03		9.132
4		0.00		-8.40		2.849e-02		129.482		6.268e-03		10.543
4		0.00		-8.80		3.010e-02		128.831		7.193e-03		9.775
4		0.00		-9.20		3.112e-02		127.841		7.959e-03		11.063
4		0.00		-9.60		3.144e-02		127.510		8.520e-03		12.629
4		0.00		-10.00		3.006e-02		127.046		8.420e-03		16.479
4		0.00		-9.60		2.960e-02		124.201		8.628e-03		21.664
4		0.00		-9.20		3.000e-02		124.429		8.428e-03		23.847
4		0.00		-8.80		3.016e-02		126.087		9.025e-03		22.295
4		0.00		-8.40		3.002e-02		123.241		8.918e-03		22.336
4		0.00		-8.00		3.085e-02		126.471		9.283e-03		15.648
4		0.00		-7.60		3.005e-02		128.321		8.159e-03		9.323
4		0.00		-7.20		3.031e-02		127.875		7.711e-03		8.463
4		0.00		-6.80		3.114e-02		128.203		6.811e-03		7.592
4		0.00		-6.40		3.019e-02		127.772		6.268e-03		7.936
4		0.00		-6.00		2.975e-02		125.434		5.969e-03		8.980
4		0.00		-5.60		2.721e-02		127.704		5.370e-03		9.106
4		0.00		-5.20		2.577e-02		128.179		5.192e-03		9.424
4		0.00		-4.80		2.509e-02		126.830		5.042e-03		9.546
4		0.00		-4.40		2.288e-02		129.074		4.787e-03		10.302
4		0.00		-4.00		2.087e-02		128.601		4.680e-03		10.629
4		0.00		-3.60		1.992e-02		127.746		4.936e-03		13.335
4		0.00		-3.20		1.892e-02		127.898		4.711e-03		17.787
4		0.00		-2.80		1.756e-02		126.591		4.762e-03		18.738
4		0.00		-2.40		1.619e-02		124.390		4.616e-03		23.424
4		0.00		-2.00		1.493e-02		124.736		4.118e-03		19.638
4		0.00		-1.60		1.398e-02		129.286		4.174e-03		16.209
4		0.00		-1.20		1.272e-02		127.632		3.737e-03		11.651
4		0.00		-0.80		1.175e-02		129.884		3.373e-03		11.968
4		0.00		-0.40		1.068e-02		130.133		2.885e-03		11.372
5		0.00		0.00		9.872e-03		127.502		2.558e-03		13.272
5		0.00		0.40		9.081e-03		128.238		2.164e-03		12.981
5		0.00		0.80		7.996e-03		126.496		2.360e-03		17.742
5		0.00		1.20		6.739e-03		125.642		1.923e-03		14.696
5		0.00		1.60		5.934e-03		126.239		1.965e-03		17.978
5		0.00		2.00		4.763e-03		120.360		1.527e-03		36.973
5		0.00		2.40		3.768e-03		118.151		1.407e-03		44.376
5		0.00		2.80		3.017e-03		69.029		1.125e-03		76.727
5		0.00		3.20		2.113e-03		-7.316		8.277e-04		81.348
5		0.00		3.60		2.790e-03		-49.417		1.235e-03		51.585
5		0.00		4.00		5.071e-03		-49.685		1.799e-03		23.391
5		0.00		4.40		7.262e-03		-55.360		2.307e-03		20.322
5		0.00		4.80		9.670e-03		-48.156		2.927e-03		18.014
5		0.00		5.20		1.225e-02		-55.463		3.932e-03		16.759
5		0.00		5.60		1.457e-02		-53.498		4.500e-03		16.023
5		0.00		6.00		1.624e-02		-51.330		5.172e-03		11.478
5		0.00		6.40		1.725e-02		-50.779		4.861e-03		11.650
5		0.00		6.80		1.795e-02		-51.703		4.608e-03		11.568
5		0.00		7.20		2.152e-02		-51.391		4.944e-03		11.858
5		0.00		7.60		2.330e-02		-51.308		5.129e-03		11.502
5		0.00		8.00		2.367e-02		-51.787		5.130e-03		12.749
5		0.00		8.40		2.357e-02		-50.493		4.680e-03		13.167
5		0.00		8.80		2.421e-02		-49.575		4.908e-03		13.464
5		0.00		9.20		2.506e-02		-48.394		5.351e-03		14.075
5		0.00		9.60		2.565e-02		-49.099		5.956e-03		13.754
5		0.00		10.00		2.619e-02		-48.813		6.008e-03		13.025
5		0.00		9.60		2.518e-02		-46.853		5.896e-03		13.650
5		0.00		9.20		2.490e-02		-48.147		6.284e-03		14.445
5		0.00		8.80		2.384e-02		-48.349		5.706e-03		13.425
5		0.00		8.40		2.360e-02		-48.667		6.407e-03		15.832
5		0.00		8.00		2.311e-02		-49.175		6.356e-03		16.745
5		0.00		7.60		2.287e-02		-49.153		6.492e-03		16.173
5		0.00		7.20		2.108e-02		-50.724		6.325e-03		15.623
5		0.00		6.80		2.082e-02		-49.429		6.570e-03		14.187
5		0.00		6.40		1.962e-02		-47.768		6.230e-03		14.348
5		0.00		6.00		1.974e-02		-49.209		5.774e-03		10.490
5		0.00		5.60		1.896e-02		-49.670		5.504e-03		12.221
5		0.00		5.20		1.906e-02		-50.547		5.333e-03		10.863
5		0.00		4.80		1.851e-02		-49.865		4.719e-03		11.807
5		0.00		4.40		1.909e-02		-52.042		4.319e-03		11.208
5		0.00		4.00		1.879e-02		-48.903		3.796e-03		11.581
5		0.00		3.60		1.878e-02		-50.417		3.675e-03		11.993
5		0.00		3.20		1.855e-02		-54.198		3.064e-03		11.561
5		0.00		2.80		1.859e-02		-51.645		2.948e-03		12.467
5		0.00		2.40		1.804e-02		-52.638		3.103e-03		12.577
5		0.00		2.00		1.794e-02		-48.941		2.919e-03		11.911
5		0.00		1.60		1.704e-02		-49.748		2.856e-03		13.455
5		0.00		1.20		1.638e-02		-48.719		2.974e-03		13.169
5		0.00		0.80		1.533e-02		-46.963		3.190e-03		13.859
5		0.00		0.40		1.491e-02		-48.734		3.201e-03		14.001
5		0.00		0.00		1.409e-02		-47.740		3.273e-03		15.805
5		0.00		-0.40		1.272e-02		-47.898		3.242e-03		18.216
5		0.00		-0.80		1.105e-02		-49.065		3.344e-03		18.885
5		0.00		-1.20		8.449e-03		-51.668		2.898e-03		17.198
5		0.00		-1.60		5.694e-03		-48.277		2.430e-03		25.126
5		0.00		-2.00		3.916e-03		-37.545		2.075e-03		47.373
5		0.00		-2.40		3.173e-03		7.818		1.754e-03		75.693
5		0.00		-2.80		3.640e-03		60.078		1.694e-03		71.486
5		0.00		-3.20		5.607e-03		101.882		2.367e-03		51.847
5		0.00		-3.60		7.647e-03		115.453		2.902e-03		39.158
5		0.00		-4.00		9.879e-03		118.697		3.589e-03		34.787
5		0.00		-4.40		1.227e-02		124.257		3.898e-03		27.330
5		0.00		-4.80		1.555e-02		126.851		4.436e-03		21.183
5		0.00		-5.20		1.818e-02		125.566		5.061e-03		12.903
5		0.00		-5.60		2.129e-02		127.391		4.983e-03		10.205
5		0.00		-6.00		2.358e-02		128.822		5.775e-03		9.010
5		0.00		-6.40		2.488e-02		127.775		5.601e-03		10.698
5		0.00		-6.80		2.781e-02		127.556		6.678e-03		9.933
5		0.00		-7.20		2.782e-02		126.465		7.180e-03		13.365
5		0.00		-7.60		2.885e-02		128.259		7.167e-03		12.573
5		0.00		-8.00		3.037e-02		124.215		8.316e-03		21.310
5		0.00		-8.40		2.977e-02		126.211		8.493e-03		19.182
5		0.00		-8.80		3.083e-02		124.587		9.082e-03		21.041
5		0.00		-9.20		3.169e-02		126.136		9.879e-03		19.029
5		0.00		-9.60		3.215e-02		128.000		9.811e-03		11.625
5		0.00		-10.00		3.399e-02		127.731		1.019e-02		9.770
5		0.00		-9.60		3.347e-02		127.021		8.819e-03		9.249
5		0.00		-9.20		3.264e-02		128.111		7.999e-03		8.692
5		0.00		-8.80		3.501e-02		127.437		8.235e-03		8.292
5		0.00		-8.40		3.209e-02		127.631		7.290e-03		10.132
5		0.00		-8.00		3.372e-02		125.897		7.473e-03		10.763
5		0.00		-7.60		3.274e-02		127.187		6.758e-03		9.841
5		0.00		-7.20		3.151e-02		128.371		7.036e-03		9.698
5		0.00		-6.80		3.074e-02		128.337		6.961e-03		9.717
5		0.00		-6.40		2.916e-02		128.406		7.084e-03		10.703
5		0.00		-6.00		2.768e-02		126.401		6.813e-03		16.538
5		0.00		-5.60		2.650e-02		126.529		6.880e-03		19.038
5		0.00		-5.20		2.553e-02		127.316		6.792e-03		16.994
5		0.00		-4.80		2.380e-02		128.078		6.236e-03		11.417
5		0.00		-4.40		2.282e-02		128.619		5.924e-03		10.426
5		0.00		-4.00		2.206e-02		127.706		5.359e-03		9.380
5		0.00		-3.60		2.060e-02		127.953		4.424e-03		9.359
5		0.00		-3.20		1.886e-02		127.918		4.388e-03		10.453
5		0.00		-2.80		1.800e-02		127.385		4.116e-03		9.814
5		0.00		-2.40		1.681e-02		126.956		3.867e-03		8.558
5		0.00		-2.00		1.558e-02		126.831		3.900e-03		12.202
5		0.00		-1.60		1.432e-02		124.506		3.994e-03		15.430
5		0.00		-1.20		1.300e-02		126.383		3.762e-03		19.917
5		0.00		-0.80		1.196e-02		124.244		3.600e-03		23.150
5		0.00		-0.40		1.102e-02		123.160		3.338e-03		20.938
6		0.00		0.00		1.031e-02		128.079		3.358e-03		15.919
6		0.00		0.40		9.478e-03		129.121		2.683e-03		13.210
6		0.00		0.80		8.833e-03		126.839		2.317e-03		13.162
6		0.00		1.20		7.643e-03		127.796		2.055e-03		12.864
6		0.00		1.60		7.217e-03		126.310		1.857e-03		14.654
6		0.00		2.00		6.104e-03		129.654		1.904e-03		14.917
6		0.00		2.40		4.822e-03		119.788		1.525e-03		31.867
6		0.00		2.80		3.703e-03		105.283		1.325e-03		55.948
6		0.00		3.20		2.486e-03		57.505		1.161e-03		77.197
6		0.00		3.60		2.317e-03		-9.554		9.717e-04		68.236
6		0.00		4.00		3.078e-03		-43.083		1.406e-03		45.751
6		0.00		4.40		5.693e-03		-56.210		1.757e-03		21.597
6		0.00		4.80		7.977e-03		-55.780		1.673e-03		17.099
6		0.00		5.20		1.054e-02		-51.433		2.145e-03		14.946
6		0.00		5.60		1.407e-02		-52.436		3.168e-03		15.078
6		0.00		6.00		1.625e-02		-51.183		4.136e-03		15.968
6		0.00		6.40		1.873e-02		-52.216		5.401e-03		18.355
6		0.00		6.80		2.133e-02		-52.353		6.356e-03		14.618
6		0.00		7.20		2.252e-02		-52.824		6.317e-03		11.290
6		0.00		7.60		2.226e-02		-50.217		6.092e-03		11.594
6		0.00		8.00		2.269e-02		-50.213		5.283e-03		12.216
6		0.00		8.40		2.495e-02		-50.601		5.744e-03		12.370
6		0.00		8.80		2.477e-02		-49.762		5.579e-03		12.908
6		0.00		9.20		2.630e-02		-49.493		6.477e-03		12.840
6		0.00		9.60		2.582e-02		-48.904		7.303e-03		18.251
6		0.00		10.00		2.812e-02		-51.120		7.993e-03		13.858
6		0.00		9.60		2.703e-02		-49.723		6.941e-03		11.237
6		0.00		9.20		2.780e-02		-50.338		5.651e-03		11.865
6		0.00		8.80		2.594e-02		-50.168		4.945e-03		12.483
6		0.00		8.40		2.506e-02		-48.473		4.679e-03		12.483
6		0.00		8.00		2.230e-02		-47.810		5.056e-03		13.405
6		0.00		7.60		2.169e-02		-51.875		5.955e-03		16.717
6		0.00		7.20		2.051e-02		-50.639		6.492e-03		15.511
6		0.00		6.80		2.113e-02		-49.812		6.008e-03		10.464
6		0.00		6.40		2.182e-02		-51.849		5.010e-03		9.824
6		0.00		6.00		2.113e-02		-50.968		3.903e-03		12.676
6		0.00		5.60		2.012e-02		-50.631		4.323e-03		11.896
6		0.00		5.20		1.815e-02		-48.735		4.749e-03		15.469
6		0.00		4.80		1.844e-02		-50.296		5.273e-03		20.386
6		0.00		4.40		1.787e-02		-50.447		5.086e-03		13.052
6		0.00		4.00		1.802e-02		-52.087		4.103e-03		11.619
6		0.00		3.60		1.816e-02		-49.398		3.048e-03		12.090
6		0.00		3.20		1.710e-02		-51.008		3.089e-03		13.598
6		0.00		2.80		1.680e-02		-48.071		3.505e-03		14.456
6		0.00		2.40		1.547e-02		-51.554		4.048e-03		15.775
6		0.00		2.00		1.563e-02		-48.579		4.113e-03		15.079
6		0.00		1.60		1.636e-02		-52.062		3.678e-03		11.034
6		0.00		1.20		1.680e-02		-48.412		2.978e-03		10.765
6		0.00		0.80		1.655e-02		-52.202		2.902e-03		12.998
6		0.00		0.40		1.564e-02		-48.059		2.675e-03		12.559
6		0.00		0.00		1.461e-02		-51.533		3.122e-03		13.097
6		0.00		-0.40		1.343e-02		-48.799		3.377e-03		17.231
6		0.00		-0.80		1.235e-02		-51.543		3.332e-03		15.081
6		0.00		-1.20		1.066e-02		-51.390		2.392e-03		13.195
6		0.00		-1.60		7.840e-03		-54.217		2.069e-03		18.431
6		0.00		-2.00		4.803e-03		-50.664		1.731e-03		25.899
6		0.00		-2.40		2.655e-03		-11.669		1.149e-03		69.108
6		0.00		-2.80		3.390e-03		62.090		1.449e-03		64.799
6		0.00		-3.20		5.673e-03		101.442		2.271e-03		51.565
6		0.00		-3.60		8.085e-03		119.758		3.056e-03		32.418
6		0.00		-4.00		9.853e-03		123.117		3.364e-03		31.507
6		0.00		-4.40		1.259e-02		124.390		4.062e-03		21.627
6		0.00		-4.80		1.529e-02		128.472		4.159e-03		13.745
6		0.00		-5.20		1.842e-02		129.131		5.012e-03		12.126
6		0.00		-5.60		2.193e-02		125.605		5.875e-03		16.108
6		0.00		-6.00		2.386e-02		128.671		6.595e-03		9.262
6		0.00		-6.40		2.705e-02		127.287		6.291e-03		8.686
6		0.00		-6.80		2.989e-02		127.261		6.259e-03		8.079
6		0.00		-7.20		3.141e-02		127.575		6.656e-03		8.974
6		0.00		-7.60		3.162e-02		128.546		6.825e-03		9.736
6		0.00		-8.00		3.167e-02		128.153		7.366e-03		12.842
6		0.00		-8.40		3.446e-02		126.336		8.606e-03		16.526
6		0.00		-8.80		3.485e-02		127.864		8.967e-03		9.822
6		0.00		-9.20		3.695e-02		128.853		7.802e-03		7.676
6		0.00		-9.60		3.726e-02		127.267		6.983e-03		7.511
6		0.00		-10.00		3.564e-02		127.486		7.344e-03		8.564
6		0.00		-9.60		3.601e-02		127.290		8.650e-03		9.560
6		0.00		-9.20		3.481e-02		125.195		9.791e-03		18.577
6		0.00		-8.80		3.404e-02		123.623		1.014e-02		19.244
6		0.00		-8.40		3.557e-02		127.752		1.048e-02		8.690
6		0.00		-8.00		3.561e-02		127.226		8.292e-03		6.826
6		0.00		-7.60		3.420e-02		127.249		7.304e-03		8.014
6		0.00		-7.20		3.450e-02		127.492		7.547e-03		8.737
6		0.00		-6.80		3.315e-02		127.726		7.734e-03		9.105
6		0.00		-6.40		3.140e-02		126.004		8.121e-03		12.898
6		0.00		-6.00		3.022e-02		126.712		7.822e-03		16.643
6		0.00		-5.60		2.908e-02		127.890		7.620e-03		8.243
6		0.00		-5.20		2.780e-02		128.137		6.130e-03		7.761
6		0.00		-4.80		2.688e-02		126.726		5.228e-03		8.120
6		0.00		-4.40		2.522e-02		126.931		5.101e-03		9.306
6		0.00		-4.00		2.398e-02		128.660		4.907e-03		7.861
6		0.00		-3.60		2.238e-02		127.907		5.011e-03		13.107
6		0.00		-3.20		2.035e-02		125.891		5.068e-03		18.553
6		0.00		-2.80		1.931e-02		126.397		4.660e-03		15.785
6		0.00		-2.40		1.846e-02		127.783		4.569e-03		9.671
6		0.00		-2.00		1.700e-02		127.331		3.800e-03		8.877
6		0.00		-1.60		1.556e-02		127.396		3.237e-03		9.799
6		0.00		-1.20		1.435e-02		127.536		2.870e-03		10.908
6		0.00		-0.80		1.333e-02		128.631		2.905e-03		8.607
6		0.00		-0.40		1.224e-02		127.889		3.245e-03		15.819
7		0.00		0.00		1.128e-02		123.170		3.099e-03		18.976
7		0.00		0.40		1.024e-02		126.104		3.045e-03		18.617
7		0.00		0.80		8.929e-03		124.994		2.777e-03		15.988
7		0.00		1.20		8.006e-03		127.731		2.156e-03		14.980
7		0.00		1.60		7.160e-03		124.746		1.866e-03		24.221
7		0.00		2.00		5.817e-03		127.636		1.648e-03		25.671
7		0.00		2.40		5.688e-03		129.229		1.631e-03		17.775
7		0.00		2.80		3.594e-03		103.512		1.383e-03		54.949
7		0.00		3.20		2.913e-03		62.965		1.158e-03		82.524
7		0.00		3.60		2.115e-03		-29.053		7.902e-04		68.434
7		0.00		4.00		4.772e-03		-63.377		1.799e-03		26.020
7		0.00		4.40		7.210e-03		-62.206		1.571e-03		16.464
7		0.00		4.80		1.121e-02		-57.124		2.084e-03		13.328
7		0.00		5.20		1.284e-02		-53.329		2.313e-03		13.244
7		0.00		5.60		1.587e-02		-50.766		3.137e-03		13.227
7		0.00		6.00		1.879e-02		-51.136		4.248e-03		13.257
7		0.00		6.40		1.983e-02		-52.644		5.230e-03		15.478
7		0.00		6.80		2.166e-02		-53.772		6.217e-03		14.608
7		0.00		7.20		2.402e-02		-53.343		6.630e-03		9.350
7		0.00		7.60		2.759e-02		-52.688		6.929e-03		9.047
7		0.00		8.00		2.977e-02		-53.672		5.875e-03		8.249
7		0.00		8.40		2.915e-02		-51.866		5.811e-03		10.645
7		0.00		8.80		2.886e-02		-50.679		6.110e-03		11.556
7		0.00		9.20		2.964e-02		-49.889		6.699e-03		11.626
7		0.00		9.60		2.789e-02		-49.042		6.900e-03		13.988
7		0.00		10.00		2.824e-02		-47.417		7.921e-03		15.555
7		0.00		9.60		2.801e-02		-49.995		7.990e-03		14.037
7		0.00		9.20		2.765e-02		-50.009		7.049e-03		10.193
7		0.00		8.80		2.772e-02		-49.411		5.872e-03		10.252
7		0.00		8.40		2.777e-02		-51.042		5.256e-03		10.492
7		0.00		8.00		2.609e-02		-50.977		4.578e-03		11.191
7		0.00		7.60		2.517e-02		-48.598		4.525e-03		11.643
7		0.00		7.20		2.398e-02		-50.110		4.778e-03		11.232
7		0.00		6.80		2.293e-02		-49.115		5.366e-03		12.136
7		0.00		6.40		2.232e-02		-51.484		5.867e-03		16.030
7		0.00		6.00		2.125e-02		-47.267		5.580e-03		15.248
7		0.00		5.60		2.059e-02		-51.795		5.571e-03		10.360
7		0.00		5.20		2.037e-02		-51.474		4.759e-03		9.980
7		0.00		4.80		2.019e-02		-48.673		3.667e-03		10.756
7		0.00		4.40		1.984e-02		-52.275		3.611e-03		11.653
7		0.00		4.00		1.937e-02		-49.204		3.332e-03		12.710
7		0.00		3.60		1.819e-02		-50.493		3.712e-03		12.413
7		0.00		3.20		1.746e-02		-49.521		3.972e-03		11.618
7		0.00		2.80		1.692e-02		-50.249		4.458e-03		14.783
7		0.00		2.40		1.685e-02		-51.152		4.657e-03		14.120
7		0.00		2.00		1.639e-02		-49.928		4.347e-03		13.394
7		0.00		1.60		1.663e-02		-49.107		3.882e-03		11.717
7		0.00		1.20		1.744e-02		-50.732		2.885e-03		10.560
7		0.00		0.80		1.753e-02		-51.455		2.755e-03		11.714
7		0.00		0.40		1.705e-02		-50.909		2.911e-03		10.974
7		0.00		0.00		1.585e-02		-48.071		2.991e-03		11.728
7		0.00		-0.40		1.454e-02		-50.870		3.328e-03		14.258
7		0.00		-0.80		1.232e-02		-51.388		3.001e-03		16.767
7		0.00		-1.20		1.073e-02		-52.867		2.983e-03		16.506
7		0.00		-1.60		9.104e-03		-52.199		2.764e-03		13.956
7		0.00		-2.00		6.407e-03		-54.975		2.250e-03		19.139
7		0.00		-2.40		4.516e-03		-47.972		2.118e-03		37.413
7		0.00		-2.80		2.950e-03		-0.284		1.202e-03		73.841
7		0.00		-3.20		4.265e-03		88.844		2.031e-03		65.908
7		0.00		-3.60		6.292e-03		115.819		2.525e-03		40.775
7		0.00		-4.00		9.832e-03		120.506		3.604e-03		29.371
7		0.00		-4.40		1.259e-02		123.091		4.109e-03		25.438
7		0.00		-4.80		1.443e-02		122.821		4.836e-03		23.484
7		0.00		-5.20		1.728e-02		126.019		5.226e-03		14.293
7		0.00		-5.60		2.020e-02		127.216		5.534e-03		11.120
7		0.00		-6.00		2.345e-02		127.831		5.962e-03		8.766
7		0.00		-6.40		2.496e-02		127.176		5.700e-03		8.868
7		0.00		-6.80		2.774e-02		127.050		6.673e-03		8.832
7		0.00		-7.20		2.934e-02		128.125		7.127e-03		9.062
7		0.00		-7.60		2.996e-02		127.127		7.199e-03		13.065
7		0.00		-8.00		3.201e-02		126.573		8.055e-03		15.771
7		0.00		-8.40		3.430e-02		126.974		8.736e-03		11.333
7		0.00		-8.80		3.538e-02		126.806		9.093e-03		8.015
7		0.00		-9.20		3.539e-02		127.844		7.563e-03		6.575
7		0.00		-9.60		3.918e-02		128.416		7.285e-03		6.202
7		0.00		-10.00		3.944e-02		127.561		7.450e-03		7.665
7		0.00		-9.60		3.835e-02		127.816		7.383e-03		8.200
7		0.00		-9.20		3.840e-02		130.169		7.679e-03		7.789
7		0.00		-8.80		3.818e-02		128.536		8.466e-03		11.090
7		0.00		-8.40		3.631e-02		127.560		9.225e-03		15.211
7		0.00		-8.00		3.588e-02		126.765		9.389e-03		15.386
7		0.00		-7.60		3.569e-02		127.015		9.666e-03		10.787
7		0.00		-7.20		3.447e-02		127.371		8.944e-03		9.285
7		0.00		-6.80		3.347e-02		128.330		7.627e-03		7.428
7		0.00		-6.40		3.205e-02		128.441		6.342e-03		7.072
7		0.00		-6.00		3.127e-02		127.460		5.978e-03		7.896
7		0.00		-5.60		2.996e-02		128.196		5.606e-03		7.921
7		0.00		-5.20		2.787e-02		129.240		5.173e-03		8.590
7		0.00		-4.80		2.620e-02		128.836		5.565e-03		8.252
7		0.00		-4.40		2.454e-02		128.127		5.112e-03		11.002
7		0.00		-4.00		2.362e-02		129.372		5.223e-03		13.905
7		0.00		-3.60		2.183e-02		128.168		5.497e-03		17.168
7		0.00		-3.20		2.100e-02		128.438		5.104e-03		10.556
7		0.00		-2.80		2.002e-02		128.384		4.701e-03		9.327
7		0.00		-2.40		1.905e-02		129.040		4.039e-03		9.311
7		0.00		-2.00		1.796e-02		128.591		3.625e-03		7.961
7		0.00		-1.60		1.676e-02		127.966		3.305e-03		10.010
7		0.00		-1.20		1.530e-02		128.616		2.845e-03		10.420
7		0.00		-0.80		1.461e-02		127.859		2.919e-03		9.861
7		0.00		-0.40		1.306e-02		128.028		2.961e-03		9.979
8		0.00		0.00		1.231e-02		128.306		3.396e-03		15.684
8		0.00		0.40		1.100e-02		125.120		2.914e-03		17.173
8		0.00		0.80		9.790e-03		125.548		2.949e-03		20.005
8		0.00		1.20		8.925e-03		124.189		2.757e-03		18.497
8		0.00		1.60		7.962e-03		127.851		2.388e-03		15.319
8		0.00		2.00		6.946e-03		129.451		1.901e-03		15.916
8		0.00		2.40		5.716e-03		125.976		1.929e-03		35.523
8		0.00		2.80		4.217e-03		103.248		1.601e-03		59.412
8		0.00		3.20		3.032e-03		87.022		1.149e-03		73.263
8		0.00		3.60		1.898e-03		-15.010		7.749e-04		76.183
8		0.00		4.00		2.247e-03		-40.392		8.653e-04		68.349
8		0.00		4.40		3.571e-03		-53.581		1.423e-03		33.595
8		0.00		4.80		6.211e-03		-47.963		2.006e-03		27.652
8		0.00		5.20		7.895e-03		-52.596		2.379e-03		17.029
8		0.00		5.60		1.220e-02		-54.383		3.169e-03		12.673
8		0.00		6.00		1.392e-02		-52.153		3.601e-03		11.603
8		0.00		6.40		1.693e-02		-50.276		4.178e-03		11.261
8		0.00		6.80		2.288e-02		-51.945		4.385e-03		9.892
8		0.00		7.20		2.465e-02		-53.688		4.295e-03		9.787
8		0.00		7.60		2.829e-02		-52.674		4.628e-03		9.937
8		0.00		8.00		2.812e-02		-52.028		5.317e-03		9.676
8		0.00		8.40		2.914e-02		-51.947		5.747e-03		10.505
8		0.00		8.80		2.809e-02		-48.828		6.309e-03		10.825
8		0.00		9.20		2.990e-02		-49.322		7.320e-03		11.142
8		0.00		9.60		3.000e-02		-49.329		7.880e-03		13.738
8		0.00		10.00		3.042e-02		-51.549		8.117e-03		15.810
8		0.00		9.60		2.937e-02		-50.139		8.081e-03		15.411
8		0.00		9.20		2.891e-02		-49.891		7.961e-03		11.063
8		0.00		8.80		2.816e-02		-49.728		7.575e-03		8.901
8		0.00		8.40		2.815e-02		-50.315		6.314e-03		9.107
8		0.00		8.00		2.856e-02		-51.185		5.846e-03		9.299
8		0.00		7.60		2.730e-02		-52.923		4.921e-03		8.240
8		0.00		7.20		2.607e-02		-49.807		4.574e-03		9.484
8		0.00		6.80		2.540e-02		-50.266		4.249e-03		10.209
8		0.00		6.40		2.381e-02		-50.874		3.914e-03		10.631
8		0.00		6.00		2.320e-02		-49.043		3.759e-03		10.859
8		0.00		5.60		2.189e-02		-48.247		4.023e-03		10.766
8		0.00		5.20		2.088e-02		-47.208		4.537e-03		12.431
8		0.00		4.80		2.003e-02		-50.249		4.692e-03		13.660
8		0.00		4.40		1.957e-02		-52.208		5.137e-03		18.882
8		0.00		4.00		1.920e-02		-53.318		5.257e-03		15.580
8		0.00		3.60		1.837e-02		-49.488		4.965e-03		12.587
8		0.00		3.20		1.766e-02		-50.639		4.698e-03		11.079
8		0.00		2.80		1.806e-02		-51.268		4.259e-03		10.112
8		0.00		2.40		1.815e-02		-50.628		3.628e-03		9.851
8		0.00		2.00		1.815e-02		-52.112		3.239e-03		9.812
8		0.00		1.60		1.821e-02		-49.140		2.984e-03		11.000
8		0.00		1.20		1.832e-02		-49.593		3.175e-03		10.684
8		0.00		0.80		1.757e-02		-51.028		3.093e-03		12.213
8		0.00		0.40		1.744e-02		-48.193		3.030e-03		11.641
8		0.00		0.00		1.646e-02		-47.585		3.172e-03		12.705
8		0.00		-0.40		1.539e-02		-51.942		3.311e-03		15.392
8		0.00		-0.80		1.358e-02		-47.244		3.096e-03		17.225
8		0.00		-1.20		1.137e-02		-48.205		2.932e-03		14.015
8		0.00		-1.60		8.940e-03		-49.999		2.595e-03		14.903
8		0.00		-2.00		6.557e-03		-55.828		2.409e-03		17.951
8		0.00		-2.40		4.437e-03		-53.344		2.214e-03		42.317
8		0.00		-2.80		3.251e-03		-2.131		1.419e-03		85.951
8		0.00		-3.20		3.861e-03		70.506		1.690e-03		73.948
8		0.00		-3.60		6.381e-03		117.073		2.521e-03		32.419
8		0.00		-4.00		9.225e-03		126.284		2.788e-03		16.970
8		0.00		-4.40		1.238e-02		126.071		3.782e-03		13.774
8		0.00		-4.80		1.642e-02		127.378		4.564e-03		18.157
8		0.00		-5.20		1.883e-02		124.355		5.398e-03		22.882
8		0.00		-5.60		2.174e-02		126.068		6.215e-03		16.203
8		0.00		-6.00		2.400e-02		128.362		6.644e-03		11.549
8		0.00		-6.40		2.845e-02		129.051		6.731e-03		7.528
8		0.00		-6.80		3.021e-02		127.364		6.806e-03		6.766
8		0.00		-7.20		3.119e-02		126.364		6.016e-03		8.472
8		0.00		-7.60		3.347e-02		127.863		6.671e-03		8.419
8		0.00		-8.00		3.386e-02		128.627		6.990e-03		7.802
8		0.00		-8.40		3.436e-02		129.086		7.834e-03		10.936
8		0.00		-8.80		3.409e-02		127.952		8.540e-03		14.145
8		0.00		-9.20		3.573e-02		127.152		9.364e-03		13.098
8		0.00		-9.60		3.615e-02		128.491		8.898e-03		8.156
8		0.00		-10.00		3.690e-02		128.154		7.758e-03		6.768
8		0.00		-9.60		3.957e-02		127.821		7.103e-03		6.170
8		0.00		-9.20		3.777e-02		128.051		6.550e-03		7.787
8		0.00		-8.80		3.803e-02		128.696		6.418e-03		6.632
8		0.00		-8.40		3.620e-02		128.794		7.951e-03		9.164
8		0.00		-8.00		3.516e-02		126.733		9.063e-03		12.771
8		0.00		-7.60		3.403e-02		124.402		9.300e-03		15.788
8		0.00		-7.20		3.433e-02		127.146		1.002e-02		11.996
8		0.00		-6.80		3.299e-02		127.949		8.758e-03		7.190
8		0.00		-6.40		3.191e-02		128.211		7.028e-03		6.967
8		0.00		-6.00		3.097e-02		128.161		6.363e-03		7.068
8		0.00		-5.60		2.961e-02		126.927		5.668e-03		8.302
8		0.00		-5.20		2.782e-02		127.302		6.002e-03		8.918
8		0.00		-4.80		2.591e-02		130.041		6.294e-03		10.042
8		0.00		-4.40		2.461e-02		128.617		6.211e-03		16.139
8		0.00		-4.00		2.317e-02		126.526		5.666e-03		17.098
8		0.00		-3.60		2.232e-02		126.990		5.502e-03		10.234
8		0.00		-3.20		2.166e-02		129.994		4.759e-03		8.190
8		0.00		-2.80		2.032e-02		129.738		4.060e-03		8.954
8		0.00		-2.40		1.950e-02		129.081		3.650e-03		7.728
8		0.00		-2.00		1.867e-02		128.767		3.204e-03		9.498
8		0.00		-1.60		1.670e-02		127.020		3.159e-03		8.969
8		0.00		-1.20		1.610e-02		129.831		3.386e-03		12.734
8		0.00		-0.80		1.473e-02		127.042		3.496e-03		17.040
8		0.00		-0.40		1.324e-02		130.166		3.326e-03		15.714
