# Date of analysis: 2024-03-08 10;58
# Segment other properties: height: -50.07944341971973, diff height: 536.2204833858846, deflection: 35.14504952275293, deflection error: 2.999545177723022, adhesion: 35.899124146134845, phase offset: 0
# 
# Loop index	Read Volt (V)	Write Volt (V)	Amplitude (a.u)	Phase (deg)	Sigma Amp (a.u)	Sigma Pha (deg)	
1		0.00		0.00		5.393e-02		-54.158		8.724e-03		9.214
1		0.00		0.40		5.339e-02		-52.883		8.591e-03		10.051
1		0.00		0.80		5.198e-02		-53.863		8.793e-03		10.304
1		0.00		1.20		5.103e-02		-53.729		9.782e-03		12.074
1		0.00		1.60		5.043e-02		-52.381		9.631e-03		12.034
1		0.00		2.00		5.019e-02		-54.683		1.025e-02		14.014
1		0.00		2.40		5.061e-02		-52.042		8.917e-03		11.779
1		0.00		2.80		5.002e-02		-51.169		9.571e-03		7.761
1		0.00		3.20		5.074e-02		-52.321		9.680e-03		13.098
1		0.00		3.60		4.934e-02		-51.058		1.035e-02		9.981
1		0.00		4.00		4.919e-02		-51.517		1.028e-02		11.735
1		0.00		4.40		4.928e-02		-52.279		1.009e-02		9.304
1		0.00		4.80		4.927e-02		-51.912		1.016e-02		9.333
1		0.00		5.20		4.962e-02		-53.191		1.045e-02		10.443
1		0.00		5.60		4.999e-02		-54.051		1.019e-02		10.648
1		0.00		6.00		5.080e-02		-53.925		1.019e-02		10.060
1		0.00		6.40		5.203e-02		-54.407		1.015e-02		10.359
1		0.00		6.80		5.118e-02		-53.729		9.888e-03		11.307
1		0.00		7.20		5.299e-02		-53.642		9.227e-03		10.120
1		0.00		7.60		5.479e-02		-53.457		1.006e-02		11.017
1		0.00		8.00		5.702e-02		-55.112		1.038e-02		11.102
1		0.00		8.40		5.725e-02		-55.440		1.082e-02		12.245
1		0.00		8.80		5.996e-02		-54.255		1.046e-02		10.754
1		0.00		9.20		6.000e-02		-54.634		1.203e-02		13.642
1		0.00		9.60		6.211e-02		-52.670		1.259e-02		12.243
1		0.00		10.00		6.395e-02		-51.283		1.361e-02		11.029
1		0.00		9.60		6.011e-02		-52.051		1.177e-02		14.353
1		0.00		9.20		6.033e-02		-50.591		1.185e-02		11.447
1		0.00		8.80		5.909e-02		-49.870		1.139e-02		8.107
1		0.00		8.40		5.817e-02		-49.032		1.173e-02		9.861
1		0.00		8.00		5.734e-02		-49.051		1.244e-02		10.656
1		0.00		7.60		5.714e-02		-50.540		1.310e-02		10.703
1		0.00		7.20		5.580e-02		-51.176		1.278e-02		9.461
1		0.00		6.80		5.539e-02		-52.808		1.316e-02		10.496
1		0.00		6.40		5.467e-02		-53.015		1.234e-02		10.195
1		0.00		6.00		5.480e-02		-54.849		1.251e-02		11.292
1		0.00		5.60		5.488e-02		-54.604		1.156e-02		10.699
1		0.00		5.20		5.453e-02		-56.522		1.142e-02		11.035
1		0.00		4.80		5.343e-02		-55.569		1.027e-02		10.131
1		0.00		4.40		5.313e-02		-55.074		9.923e-03		10.255
1		0.00		4.00		5.328e-02		-55.378		9.704e-03		10.075
1		0.00		3.60		5.219e-02		-53.092		9.325e-03		9.110
1		0.00		3.20		5.202e-02		-54.442		9.592e-03		9.822
1		0.00		2.80		5.171e-02		-53.667		9.568e-03		9.887
1		0.00		2.40		5.055e-02		-53.468		9.984e-03		10.098
1		0.00		2.00		4.911e-02		-53.316		9.818e-03		11.408
1		0.00		1.60		5.008e-02		-52.144		9.365e-03		10.536
1		0.00		1.20		4.927e-02		-51.908		1.012e-02		11.083
1		0.00		0.80		4.832e-02		-50.149		1.088e-02		10.054
1		0.00		0.40		4.815e-02		-51.843		1.115e-02		10.068
1		0.00		0.00		4.852e-02		-53.264		1.152e-02		10.246
1		0.00		-0.40		4.868e-02		-53.834		1.111e-02		10.334
1		0.00		-0.80		4.753e-02		-56.022		1.054e-02		11.470
1		0.00		-1.20		4.626e-02		-55.116		9.049e-03		11.795
1		0.00		-1.60		4.522e-02		-54.494		7.984e-03		11.528
1		0.00		-2.00		4.373e-02		-53.743		7.040e-03		10.914
1		0.00		-2.40		4.244e-02		-54.867		6.904e-03		11.440
1		0.00		-2.80		3.983e-02		-54.592		6.449e-03		10.589
1		0.00		-3.20		3.803e-02		-53.909		6.090e-03		10.498
1		0.00		-3.60		3.627e-02		-54.209		5.815e-03		10.678
1		0.00		-4.00		3.213e-02		-53.989		5.352e-03		11.370
1		0.00		-4.40		2.935e-02		-52.520		5.268e-03		10.798
1		0.00		-4.80		2.549e-02		-53.537		5.156e-03		14.817
1		0.00		-5.20		2.232e-02		-48.956		4.991e-03		13.750
1		0.00		-5.60		1.954e-02		-52.133		4.656e-03		12.861
1		0.00		-6.00		1.693e-02		-50.787		4.121e-03		13.124
1		0.00		-6.40		1.409e-02		-51.769		3.548e-03		15.227
1		0.00		-6.80		1.218e-02		-47.153		3.344e-03		15.329
1		0.00		-7.20		9.484e-03		-48.681		2.641e-03		16.007
1		0.00		-7.60		7.255e-03		-52.146		2.275e-03		19.404
1		0.00		-8.00		5.013e-03		-56.063		1.914e-03		25.056
1		0.00		-8.40		3.622e-03		-51.079		1.736e-03		44.439
1		0.00		-8.80		2.470e-03		-27.096		1.115e-03		68.394
1		0.00		-9.20		2.519e-03		34.358		1.381e-03		77.735
1		0.00		-9.60		3.800e-03		93.555		1.832e-03		61.411
1		0.00		-10.00		4.514e-03		98.607		2.041e-03		46.886
1		0.00		-9.60		5.160e-03		105.993		2.262e-03		53.071
1		0.00		-9.20		5.253e-03		111.304		2.194e-03		37.344
1		0.00		-8.80		5.191e-03		111.713		2.240e-03		36.510
1		0.00		-8.40		5.011e-03		107.576		2.460e-03		45.879
1		0.00		-8.00		4.412e-03		101.409		2.156e-03		45.313
1		0.00		-7.60		3.764e-03		93.089		1.688e-03		54.525
1		0.00		-7.20		3.079e-03		76.077		1.646e-03		62.836
1		0.00		-6.80		2.361e-03		44.991		1.342e-03		72.948
1		0.00		-6.40		2.226e-03		17.683		1.115e-03		78.424
1		0.00		-6.00		2.053e-03		-10.897		9.144e-04		73.945
1		0.00		-5.60		2.174e-03		-17.160		1.127e-03		60.603
1		0.00		-5.20		2.822e-03		-43.231		1.263e-03		63.637
1		0.00		-4.80		3.778e-03		-62.016		1.670e-03		28.263
1		0.00		-4.40		4.469e-03		-49.859		1.623e-03		24.539
1		0.00		-4.00		5.475e-03		-52.801		1.837e-03		21.405
1		0.00		-3.60		6.490e-03		-51.442		1.979e-03		19.889
1		0.00		-3.20		6.686e-03		-48.924		1.790e-03		21.066
1		0.00		-2.80		7.752e-03		-44.234		2.021e-03		17.304
1		0.00		-2.40		8.538e-03		-51.502		2.161e-03		22.290
1		0.00		-2.00		9.062e-03		-50.365		2.234e-03		16.924
1		0.00		-1.60		9.667e-03		-46.036		2.573e-03		19.412
1		0.00		-1.20		1.043e-02		-50.127		2.563e-03		16.428
1		0.00		-0.80		1.057e-02		-51.946		2.596e-03		12.752
1		0.00		-0.40		1.115e-02		-48.983		2.991e-03		15.694
2		0.00		0.00		1.136e-02		-50.103		2.754e-03		13.449
2		0.00		0.40		1.174e-02		-53.025		2.890e-03		13.007
2		0.00		0.80		1.195e-02		-49.117		2.680e-03		13.692
2		0.00		1.20		1.240e-02		-52.767		2.881e-03		14.628
2		0.00		1.60		1.348e-02		-54.846		2.966e-03		13.033
2		0.00		2.00		1.438e-02		-52.062		2.711e-03		11.749
2		0.00		2.40		1.449e-02		-53.419		2.660e-03		12.422
2		0.00		2.80		1.558e-02		-51.803		2.967e-03		13.395
2		0.00		3.20		1.631e-02		-55.265		3.029e-03		13.650
2		0.00		3.60		1.673e-02		-55.500		2.862e-03		13.497
2		0.00		4.00		1.794e-02		-52.904		3.005e-03		13.566
2		0.00		4.40		1.946e-02		-54.887		3.060e-03		13.256
2		0.00		4.80		2.106e-02		-56.624		3.175e-03		12.114
2		0.00		5.20		2.275e-02		-56.736		3.586e-03		12.194
2		0.00		5.60		2.543e-02		-55.729		3.848e-03		12.085
2		0.00		6.00		2.783e-02		-55.904		4.089e-03		11.904
2		0.00		6.40		3.225e-02		-55.089		5.761e-03		12.012
2		0.00		6.80		3.568e-02		-55.906		6.146e-03		11.073
2		0.00		7.20		3.997e-02		-57.581		7.132e-03		11.259
2		0.00		7.60		4.320e-02		-55.876		8.423e-03		12.099
2		0.00		8.00		4.654e-02		-55.272		8.750e-03		11.455
2		0.00		8.40		4.752e-02		-54.678		9.179e-03		11.539
2		0.00		8.80		5.023e-02		-55.332		1.024e-02		12.384
2		0.00		9.20		5.360e-02		-55.077		1.153e-02		13.172
2		0.00		9.60		5.466e-02		-53.897		1.002e-02		10.977
2		0.00		10.00		5.410e-02		-54.298		1.073e-02		12.384
2		0.00		9.60		5.512e-02		-52.732		1.023e-02		11.285
2		0.00		9.20		5.419e-02		-53.529		1.056e-02		13.177
2		0.00		8.80		5.288e-02		-52.213		9.767e-03		12.060
2		0.00		8.40		5.079e-02		-52.717		9.396e-03		11.625
2		0.00		8.00		4.891e-02		-53.654		9.704e-03		14.923
2		0.00		7.60		4.912e-02		-53.409		8.611e-03		11.524
2		0.00		7.20		4.711e-02		-53.251		8.723e-03		13.554
2		0.00		6.80		4.678e-02		-52.079		9.285e-03		12.146
2		0.00		6.40		4.630e-02		-53.601		9.044e-03		13.317
2		0.00		6.00		4.460e-02		-52.471		9.229e-03		9.165
2		0.00		5.60		4.377e-02		-51.739		9.536e-03		11.281
2		0.00		5.20		4.343e-02		-51.394		9.241e-03		11.458
2		0.00		4.80		4.369e-02		-51.525		9.735e-03		12.606
2		0.00		4.40		4.330e-02		-50.924		9.807e-03		11.869
2		0.00		4.00		4.264e-02		-51.377		1.012e-02		12.365
2		0.00		3.60		4.241e-02		-50.703		9.867e-03		11.517
2		0.00		3.20		4.164e-02		-50.569		9.571e-03		9.009
2		0.00		2.80		4.221e-02		-50.981		9.380e-03		9.108
2		0.00		2.40		4.243e-02		-51.403		9.307e-03		8.128
2		0.00		2.00		4.196e-02		-49.449		9.059e-03		7.640
2		0.00		1.60		4.209e-02		-52.516		9.083e-03		12.003
2		0.00		1.20		4.086e-02		-51.112		9.357e-03		8.907
2		0.00		0.80		4.079e-02		-51.584		9.254e-03		8.290
2		0.00		0.40		3.988e-02		-51.294		9.088e-03		9.471
2		0.00		0.00		3.924e-02		-52.361		8.952e-03		9.978
2		0.00		-0.40		3.906e-02		-52.541		8.667e-03		10.894
2		0.00		-0.80		3.754e-02		-53.908		8.278e-03		9.764
2		0.00		-1.20		3.658e-02		-53.318		7.810e-03		10.616
2		0.00		-1.60		3.451e-02		-53.729		8.201e-03		10.360
2		0.00		-2.00		3.242e-02		-54.570		7.898e-03		12.056
2		0.00		-2.40		3.054e-02		-55.883		7.748e-03		10.572
2		0.00		-2.80		2.819e-02		-53.318		6.648e-03		11.521
2		0.00		-3.20		2.651e-02		-54.425		6.003e-03		10.740
2		0.00		-3.60		2.401e-02		-56.231		5.746e-03		11.311
2		0.00		-4.00		2.200e-02		-55.722		5.477e-03		12.211
2		0.00		-4.40		2.016e-02		-53.058		4.600e-03		12.371
2		0.00		-4.80		1.753e-02		-52.751		3.964e-03		10.841
2		0.00		-5.20		1.598e-02		-54.197		3.548e-03		13.889
2		0.00		-5.60		1.455e-02		-53.740		3.363e-03		12.128
2		0.00		-6.00		1.223e-02		-56.232		2.652e-03		14.918
2		0.00		-6.40		8.203e-03		-52.695		2.210e-03		13.466
2		0.00		-6.80		6.363e-03		-53.914		2.118e-03		23.245
2		0.00		-7.20		4.232e-03		-52.899		1.682e-03		33.401
2		0.00		-7.60		2.754e-03		-44.339		1.337e-03		62.528
2		0.00		-8.00		2.890e-03		-30.843		1.297e-03		80.928
2		0.00		-8.40		2.700e-03		65.947		1.438e-03		70.832
2		0.00		-8.80		3.366e-03		85.578		1.590e-03		67.215
2		0.00		-9.20		4.028e-03		101.158		1.898e-03		51.803
2		0.00		-9.60		5.138e-03		113.073		2.331e-03		43.086
2		0.00		-10.00		6.282e-03		118.391		2.458e-03		27.478
2		0.00		-9.60		6.844e-03		118.558		2.525e-03		27.572
2		0.00		-9.20		7.272e-03		126.017		2.436e-03		23.145
2		0.00		-8.80		6.263e-03		119.460		2.434e-03		21.996
2		0.00		-8.40		5.678e-03		116.889		2.445e-03		31.553
2		0.00		-8.00		5.381e-03		118.890		2.272e-03		35.803
2		0.00		-7.60		4.397e-03		111.519		1.800e-03		50.035
2		0.00		-7.20		4.041e-03		105.333		1.910e-03		49.530
2		0.00		-6.80		3.064e-03		89.115		1.507e-03		58.449
2		0.00		-6.40		2.548e-03		34.984		1.176e-03		78.465
2		0.00		-6.00		2.307e-03		34.001		1.137e-03		80.056
2		0.00		-5.60		2.271e-03		-19.627		9.617e-04		73.869
2		0.00		-5.20		2.509e-03		-42.610		1.138e-03		62.866
2		0.00		-4.80		3.169e-03		-63.034		1.361e-03		46.334
2		0.00		-4.40		3.693e-03		-35.369		1.629e-03		37.147
2		0.00		-4.00		4.313e-03		-49.556		1.651e-03		25.482
2		0.00		-3.60		5.421e-03		-45.516		1.957e-03		24.847
2		0.00		-3.20		6.578e-03		-54.363		2.034e-03		16.587
2		0.00		-2.80		7.054e-03		-53.421		2.054e-03		18.215
2		0.00		-2.40		7.833e-03		-52.524		1.996e-03		15.426
2		0.00		-2.00		9.095e-03		-54.503		1.910e-03		15.862
2		0.00		-1.60		9.468e-03		-54.156		1.889e-03		16.871
2		0.00		-1.20		1.062e-02		-55.819		2.091e-03		15.610
2		0.00		-0.80		1.099e-02		-56.247		2.036e-03		17.282
2		0.00		-0.40		1.155e-02		-56.354		2.193e-03		14.828
3		0.00		0.00		1.222e-02		-55.357		2.026e-03		15.484
3		0.00		0.40		1.255e-02		-53.641		2.128e-03		15.543
3		0.00		0.80		1.302e-02		-54.851		2.166e-03		12.265
3		0.00		1.20		1.362e-02		-48.380		2.147e-03		13.506
3		0.00		1.60		1.380e-02		-52.184		2.473e-03		13.611
3		0.00		2.00		1.465e-02		-53.591		2.320e-03		13.115
3		0.00		2.40		1.544e-02		-52.536		2.416e-03		13.391
3		0.00		2.80		1.595e-02		-51.646		2.947e-03		13.003
3		0.00		3.20		1.617e-02		-47.922		3.093e-03		13.359
3		0.00		3.60		1.704e-02		-53.397		3.425e-03		14.998
3		0.00		4.00		1.793e-02		-54.865		3.749e-03		15.463
3		0.00		4.40		1.859e-02		-53.555		3.808e-03		12.002
3		0.00		4.80		2.003e-02		-53.026		4.399e-03		13.832
3		0.00		5.20		2.303e-02		-54.608		5.243e-03		13.386
3		0.00		5.60		2.608e-02		-54.050		6.284e-03		11.556
3		0.00		6.00		3.056e-02		-55.031		7.560e-03		11.982
3		0.00		6.40		3.425e-02		-54.186		8.020e-03		11.154
3		0.00		6.80		3.665e-02		-55.882		8.745e-03		11.508
3		0.00		7.20		3.990e-02		-55.930		9.357e-03		11.108
3		0.00		7.60		4.337e-02		-55.603		9.921e-03		10.966
3		0.00		8.00		4.369e-02		-56.049		9.400e-03		11.109
3		0.00		8.40		4.883e-02		-56.239		9.617e-03		10.054
3		0.00		8.80		5.120e-02		-55.199		9.483e-03		9.637
3		0.00		9.20		5.325e-02		-54.654		9.126e-03		9.217
3		0.00		9.60		5.505e-02		-54.221		9.631e-03		9.695
3		0.00		10.00		5.680e-02		-54.976		9.319e-03		9.205
3		0.00		9.60		5.572e-02		-53.602		8.973e-03		8.924
3		0.00		9.20		5.434e-02		-53.752		9.428e-03		10.261
3		0.00		8.80		5.296e-02		-54.867		1.028e-02		12.876
3		0.00		8.40		5.098e-02		-54.038		9.288e-03		11.697
3		0.00		8.00		4.480e-02		-55.976		1.236e-02		18.025
3		0.00		7.60		4.387e-02		-56.716		1.266e-02		19.463
3		0.00		7.20		4.518e-02		-55.047		1.114e-02		15.470
3		0.00		6.80		4.459e-02		-53.358		1.171e-02		15.126
3		0.00		6.40		4.370e-02		-54.455		1.170e-02		17.396
3		0.00		6.00		4.170e-02		-51.154		1.215e-02		17.040
3		0.00		5.60		4.155e-02		-50.813		1.199e-02		17.164
3		0.00		5.20		4.124e-02		-49.511		1.180e-02		16.524
3		0.00		4.80		4.152e-02		-52.192		1.206e-02		14.794
3		0.00		4.40		4.099e-02		-52.510		1.199e-02		16.156
3		0.00		4.00		4.090e-02		-54.271		1.188e-02		13.231
3		0.00		3.60		4.105e-02		-56.009		1.127e-02		13.840
3		0.00		3.20		4.128e-02		-55.281		1.051e-02		12.812
3		0.00		2.80		4.188e-02		-55.342		9.944e-03		12.853
3		0.00		2.40		4.161e-02		-55.695		9.155e-03		13.606
3		0.00		2.00		4.199e-02		-56.246		8.898e-03		12.428
3		0.00		1.60		4.245e-02		-55.696		8.474e-03		11.880
3		0.00		1.20		4.184e-02		-56.004		7.777e-03		11.688
3		0.00		0.80		4.168e-02		-55.491		7.111e-03		11.704
3		0.00		0.40		4.172e-02		-54.697		7.263e-03		12.015
3		0.00		0.00		4.120e-02		-53.785		6.812e-03		12.519
3		0.00		-0.40		3.992e-02		-53.840		6.791e-03		11.592
3		0.00		-0.80		3.874e-02		-53.226		6.862e-03		12.861
3		0.00		-1.20		3.853e-02		-53.891		7.613e-03		12.263
3		0.00		-1.60		3.617e-02		-55.165		7.569e-03		14.295
3		0.00		-2.00		3.437e-02		-54.321		7.923e-03		15.280
3		0.00		-2.40		3.290e-02		-54.010		7.824e-03		15.315
3		0.00		-2.80		3.090e-02		-51.885		7.872e-03		15.817
3		0.00		-3.20		2.876e-02		-52.845		7.463e-03		18.166
3		0.00		-3.60		2.670e-02		-53.037		7.367e-03		20.361
3		0.00		-4.00		2.459e-02		-54.188		6.689e-03		14.141
3		0.00		-4.40		2.245e-02		-54.295		5.205e-03		12.745
3		0.00		-4.80		1.951e-02		-55.584		4.281e-03		13.209
3		0.00		-5.20		1.748e-02		-55.566		3.519e-03		14.016
3		0.00		-5.60		1.430e-02		-52.880		2.677e-03		15.597
3		0.00		-6.00		1.179e-02		-52.229		2.436e-03		15.694
3		0.00		-6.40		9.647e-03		-53.871		2.119e-03		17.525
3		0.00		-6.80		7.605e-03		-51.291		1.821e-03		20.950
3		0.00		-7.20		6.384e-03		-48.025		1.668e-03		20.081
3		0.00		-7.60		4.455e-03		-48.914		1.718e-03		25.324
3		0.00		-8.00		2.748e-03		-44.828		1.234e-03		53.787
3		0.00		-8.40		2.510e-03		-16.397		1.101e-03		66.819
3		0.00		-8.80		2.235e-03		37.070		1.144e-03		78.991
3		0.00		-9.20		3.104e-03		80.978		1.496e-03		65.026
3		0.00		-9.60		3.399e-03		83.976		1.883e-03		66.304
3		0.00		-10.00		4.679e-03		107.631		2.019e-03		43.902
3		0.00		-9.60		3.805e-03		96.764		1.716e-03		60.212
3		0.00		-9.20		3.652e-03		94.800		1.754e-03		56.972
3		0.00		-8.80		3.920e-03		105.362		2.023e-03		48.439
3		0.00		-8.40		3.744e-03		93.750		1.996e-03		51.796
3		0.00		-8.00		3.386e-03		86.540		1.703e-03		56.663
3		0.00		-7.60		2.797e-03		52.377		1.372e-03		84.095
3		0.00		-7.20		2.475e-03		39.134		1.110e-03		84.365
3		0.00		-6.80		2.182e-03		3.642		1.100e-03		85.388
3		0.00		-6.40		2.548e-03		-39.577		1.074e-03		70.355
3		0.00		-6.00		3.134e-03		-51.469		1.264e-03		49.932
3		0.00		-5.60		3.483e-03		-49.433		1.510e-03		32.471
3		0.00		-5.20		4.322e-03		-51.776		1.758e-03		28.052
3		0.00		-4.80		5.423e-03		-45.764		1.933e-03		22.142
3		0.00		-4.40		6.422e-03		-55.360		1.776e-03		20.959
3		0.00		-4.00		7.212e-03		-43.405		2.035e-03		22.084
3		0.00		-3.60		8.460e-03		-47.245		2.207e-03		18.531
3		0.00		-3.20		9.240e-03		-47.584		2.448e-03		15.324
3		0.00		-2.80		1.051e-02		-50.840		2.697e-03		14.116
3		0.00		-2.40		1.076e-02		-52.854		2.407e-03		15.686
3		0.00		-2.00		1.185e-02		-53.802		2.210e-03		14.270
3		0.00		-1.60		1.276e-02		-55.060		2.036e-03		14.857
3		0.00		-1.20		1.347e-02		-52.986		2.108e-03		14.683
3		0.00		-0.80		1.450e-02		-52.756		2.338e-03		13.505
3		0.00		-0.40		1.469e-02		-51.448		2.451e-03		14.246
4		0.00		0.00		1.490e-02		-53.129		2.834e-03		13.732
4		0.00		0.40		1.500e-02		-54.349		3.141e-03		15.562
4		0.00		0.80		1.552e-02		-50.115		3.422e-03		15.316
4		0.00		1.20		1.587e-02		-51.454		3.675e-03		14.524
4		0.00		1.60		1.642e-02		-53.330		3.719e-03		15.824
4		0.00		2.00		1.716e-02		-53.794		3.665e-03		15.563
4		0.00		2.40		1.797e-02		-54.259		3.155e-03		12.617
4		0.00		2.80		1.866e-02		-55.138		2.761e-03		13.328
4		0.00		3.20		1.950e-02		-54.621		3.130e-03		14.463
4		0.00		3.60		1.995e-02		-54.073		3.349e-03		14.395
4		0.00		4.00		1.987e-02		-52.101		3.503e-03		12.974
4		0.00		4.40		2.054e-02		-53.374		4.134e-03		13.301
4		0.00		4.80		2.140e-02		-50.727		5.118e-03		12.916
4		0.00		5.20		2.377e-02		-53.724		6.201e-03		13.450
4		0.00		5.60		2.708e-02		-56.072		6.913e-03		11.622
4		0.00		6.00		3.360e-02		-57.067		7.289e-03		13.597
4		0.00		6.40		3.587e-02		-56.654		6.724e-03		12.301
4		0.00		6.80		4.009e-02		-55.493		7.758e-03		11.273
4		0.00		7.20		4.083e-02		-54.733		8.408e-03		12.206
4		0.00		7.60		4.394e-02		-54.954		9.833e-03		14.425
4		0.00		8.00		4.627e-02		-51.311		1.172e-02		14.645
4		0.00		8.40		4.742e-02		-52.128		1.258e-02		13.982
4		0.00		8.80		4.824e-02		-54.710		1.169e-02		12.303
4		0.00		9.20		5.194e-02		-55.103		1.114e-02		11.379
4		0.00		9.60		5.456e-02		-54.903		9.677e-03		8.636
4		0.00		10.00		5.519e-02		-54.391		9.531e-03		9.364
4		0.00		9.60		5.329e-02		-54.162		9.523e-03		11.050
4		0.00		9.20		5.130e-02		-53.223		1.040e-02		14.510
4		0.00		8.80		4.975e-02		-50.970		1.148e-02		14.509
4		0.00		8.40		4.967e-02		-53.281		1.243e-02		12.318
4		0.00		8.00		4.852e-02		-55.296		1.125e-02		12.111
4		0.00		7.60		4.832e-02		-54.017		8.877e-03		10.792
4		0.00		7.20		4.799e-02		-53.990		7.635e-03		10.008
4		0.00		6.80		4.655e-02		-53.321		7.911e-03		10.262
4		0.00		6.40		4.538e-02		-53.625		8.945e-03		10.548
4		0.00		6.00		4.290e-02		-51.801		1.054e-02		13.798
4		0.00		5.60		4.281e-02		-51.751		1.088e-02		10.670
4		0.00		5.20		4.238e-02		-54.667		1.077e-02		11.016
4		0.00		4.80		4.303e-02		-55.331		8.446e-03		9.968
4		0.00		4.40		4.406e-02		-54.635		6.905e-03		9.082
4		0.00		4.00		4.354e-02		-53.605		6.747e-03		9.897
4		0.00		3.60		4.264e-02		-53.626		7.626e-03		10.982
4		0.00		3.20		4.140e-02		-51.882		8.421e-03		12.458
4		0.00		2.80		4.089e-02		-50.675		9.273e-03		10.796
4		0.00		2.40		4.145e-02		-52.765		9.234e-03		10.319
4		0.00		2.00		4.239e-02		-55.234		7.964e-03		9.724
4		0.00		1.60		4.182e-02		-54.068		6.514e-03		9.914
4		0.00		1.20		4.134e-02		-53.962		5.817e-03		9.505
4		0.00		0.80		4.069e-02		-52.595		6.023e-03		9.007
4		0.00		0.40		3.847e-02		-52.538		7.229e-03		12.825
4		0.00		0.00		3.757e-02		-51.951		8.024e-03		12.353
4		0.00		-0.40		3.711e-02		-53.349		8.368e-03		10.425
4		0.00		-0.80		3.669e-02		-55.068		7.505e-03		10.734
4		0.00		-1.20		3.706e-02		-54.994		5.938e-03		9.895
4		0.00		-1.60		3.609e-02		-54.334		5.576e-03		10.662
4		0.00		-2.00		3.273e-02		-54.050		6.169e-03		11.368
4		0.00		-2.40		3.080e-02		-52.535		6.985e-03		13.063
4		0.00		-2.80		2.983e-02		-51.169		7.660e-03		14.881
4		0.00		-3.20		2.869e-02		-53.433		7.373e-03		11.713
4		0.00		-3.60		2.712e-02		-55.138		6.096e-03		11.082
4		0.00		-4.00		2.535e-02		-54.909		4.450e-03		11.269
4		0.00		-4.40		2.292e-02		-53.835		3.751e-03		12.601
4		0.00		-4.80		2.087e-02		-53.670		3.948e-03		13.589
4		0.00		-5.20		1.850e-02		-51.925		3.740e-03		12.873
4		0.00		-5.60		1.524e-02		-51.245		3.288e-03		11.877
4		0.00		-6.00		1.191e-02		-50.414		2.850e-03		13.308
4		0.00		-6.40		1.010e-02		-55.395		2.474e-03		16.207
4		0.00		-6.80		8.779e-03		-51.656		1.918e-03		15.935
4		0.00		-7.20		6.719e-03		-55.283		1.955e-03		20.190
4		0.00		-7.60		5.246e-03		-66.000		1.956e-03		25.227
4		0.00		-8.00		3.682e-03		-37.733		1.969e-03		39.960
4		0.00		-8.40		2.547e-03		-44.302		1.356e-03		64.012
4		0.00		-8.80		2.309e-03		13.951		1.167e-03		78.877
4		0.00		-9.20		3.092e-03		76.615		1.347e-03		59.496
4		0.00		-9.60		3.756e-03		82.123		1.900e-03		56.058
4		0.00		-10.00		5.381e-03		108.820		2.186e-03		35.007
4		0.00		-9.60		6.473e-03		120.491		2.715e-03		20.734
4		0.00		-9.20		5.731e-03		109.524		2.176e-03		22.395
4		0.00		-8.80		4.948e-03		103.812		2.143e-03		43.550
4		0.00		-8.40		5.126e-03		109.546		2.095e-03		36.081
4		0.00		-8.00		4.112e-03		105.573		1.709e-03		42.632
4		0.00		-7.60		3.601e-03		93.365		1.572e-03		44.980
4		0.00		-7.20		2.377e-03		49.354		1.218e-03		76.971
4		0.00		-6.80		2.015e-03		10.587		9.348e-04		77.029
4		0.00		-6.40		2.028e-03		2.517		8.737e-04		66.679
4		0.00		-6.00		2.198e-03		-39.786		9.713e-04		58.768
4		0.00		-5.60		3.208e-03		-40.882		1.296e-03		42.671
4		0.00		-5.20		3.552e-03		-54.942		1.281e-03		35.757
4		0.00		-4.80		4.991e-03		-40.449		1.280e-03		21.577
4		0.00		-4.40		6.295e-03		-48.608		1.638e-03		19.246
4		0.00		-4.00		7.694e-03		-49.064		1.767e-03		19.831
4		0.00		-3.60		8.656e-03		-48.656		1.966e-03		14.864
4		0.00		-3.20		9.510e-03		-46.871		2.051e-03		14.187
4		0.00		-2.80		1.071e-02		-46.268		2.562e-03		12.347
4		0.00		-2.40		1.165e-02		-50.375		2.459e-03		12.638
4		0.00		-2.00		1.300e-02		-51.306		2.343e-03		11.368
4		0.00		-1.60		1.374e-02		-52.285		2.142e-03		10.702
4		0.00		-1.20		1.450e-02		-50.427		2.523e-03		13.104
4		0.00		-0.80		1.527e-02		-51.822		2.995e-03		12.952
4		0.00		-0.40		1.519e-02		-50.156		3.415e-03		15.469
5		0.00		0.00		1.579e-02		-52.889		3.886e-03		13.727
5		0.00		0.40		1.721e-02		-51.964		3.794e-03		10.910
5		0.00		0.80		1.781e-02		-54.056		3.622e-03		11.674
5		0.00		1.20		1.851e-02		-54.021		3.006e-03		11.582
5		0.00		1.60		1.900e-02		-53.463		3.194e-03		12.703
5		0.00		2.00		1.951e-02		-52.728		3.301e-03		10.978
5		0.00		2.40		2.013e-02		-51.793		3.553e-03		11.538
5		0.00		2.80		2.043e-02		-54.441		4.172e-03		13.589
5		0.00		3.20		2.098e-02		-51.341		4.523e-03		10.356
5		0.00		3.60		2.184e-02		-53.799		3.841e-03		11.125
5		0.00		4.00		2.255e-02		-54.487		3.143e-03		9.863
5		0.00		4.40		2.294e-02		-53.433		2.974e-03		10.663
5		0.00		4.80		2.394e-02		-53.162		3.362e-03		10.167
5		0.00		5.20		2.546e-02		-51.223		4.324e-03		12.016
5		0.00		5.60		2.909e-02		-53.761		5.578e-03		14.343
5		0.00		6.00		3.259e-02		-52.751		7.331e-03		11.058
5		0.00		6.40		3.687e-02		-53.545		7.831e-03		9.815
5		0.00		6.80		3.939e-02		-54.786		7.411e-03		9.556
5		0.00		7.20		4.166e-02		-53.736		6.740e-03		9.711
5		0.00		7.60		4.427e-02		-53.899		6.728e-03		8.954
5		0.00		8.00		4.597e-02		-53.209		7.579e-03		9.279
5		0.00		8.40		4.682e-02		-52.232		8.444e-03		9.547
5		0.00		8.80		4.769e-02		-52.019		1.050e-02		7.951
5		0.00		9.20		4.754e-02		-51.317		1.141e-02		10.000
5		0.00		9.60		4.818e-02		-53.512		1.193e-02		10.831
5		0.00		10.00		5.148e-02		-54.490		1.110e-02		8.864
5		0.00		9.60		5.139e-02		-53.665		9.271e-03		8.474
5		0.00		9.20		5.236e-02		-53.777		7.923e-03		7.727
5		0.00		8.80		5.315e-02		-53.269		7.733e-03		7.583
5		0.00		8.40		5.044e-02		-52.517		8.036e-03		10.082
5		0.00		8.00		4.993e-02		-52.713		8.734e-03		12.920
5		0.00		7.60		4.688e-02		-51.006		9.710e-03		10.850
5		0.00		7.20		4.527e-02		-52.034		1.036e-02		10.148
5		0.00		6.80		4.361e-02		-53.937		9.531e-03		10.277
5		0.00		6.40		4.518e-02		-56.302		8.279e-03		9.418
5		0.00		6.00		4.485e-02		-53.785		6.262e-03		9.144
5		0.00		5.60		4.513e-02		-54.315		6.652e-03		8.684
5		0.00		5.20		4.388e-02		-52.547		7.265e-03		8.846
5		0.00		4.80		4.386e-02		-52.819		8.771e-03		12.660
5		0.00		4.40		4.243e-02		-50.113		1.022e-02		8.653
5		0.00		4.00		4.177e-02		-54.132		1.092e-02		11.372
5		0.00		3.60		4.197e-02		-53.690		9.919e-03		8.989
5		0.00		3.20		4.188e-02		-55.727		8.535e-03		10.026
5		0.00		2.80		4.263e-02		-54.869		7.040e-03		9.167
5		0.00		2.40		4.286e-02		-54.237		7.017e-03		8.563
5		0.00		2.00		4.115e-02		-54.203		7.586e-03		10.244
5		0.00		1.60		3.948e-02		-53.958		7.989e-03		11.977
5		0.00		1.20		3.888e-02		-51.008		8.373e-03		9.266
5		0.00		0.80		3.889e-02		-52.242		8.835e-03		9.261
5		0.00		0.40		3.960e-02		-52.900		8.183e-03		9.078
5		0.00		0.00		4.045e-02		-54.985		6.881e-03		8.480
5		0.00		-0.40		4.098e-02		-54.033		5.756e-03		8.522
5		0.00		-0.80		3.986e-02		-53.232		5.516e-03		8.832
5		0.00		-1.20		3.751e-02		-52.912		5.726e-03		9.457
5		0.00		-1.60		3.404e-02		-50.875		5.362e-03		12.155
5		0.00		-2.00		3.204e-02		-52.224		6.106e-03		9.780
5		0.00		-2.40		3.035e-02		-50.920		6.606e-03		12.709
5		0.00		-2.80		2.984e-02		-53.006		6.286e-03		8.725
5		0.00		-3.20		2.796e-02		-55.573		4.933e-03		10.450
5		0.00		-3.60		2.617e-02		-53.216		3.894e-03		9.942
5		0.00		-4.00		2.376e-02		-53.417		3.431e-03		10.594
5		0.00		-4.40		2.106e-02		-52.143		3.204e-03		10.674
5		0.00		-4.80		1.784e-02		-52.059		3.214e-03		10.672
5		0.00		-5.20		1.519e-02		-50.774		3.060e-03		10.872
5		0.00		-5.60		1.303e-02		-49.334		3.350e-03		11.545
5		0.00		-6.00		1.074e-02		-47.625		2.857e-03		14.885
5		0.00		-6.40		8.709e-03		-51.049		2.371e-03		15.047
5		0.00		-6.80		6.427e-03		-44.164		1.868e-03		18.475
5		0.00		-7.20		4.637e-03		-53.574		1.754e-03		24.326
5		0.00		-7.60		2.586e-03		-29.320		1.310e-03		51.581
5		0.00		-8.00		2.278e-03		7.669		1.011e-03		68.826
5		0.00		-8.40		2.430e-03		41.780		1.099e-03		76.814
5		0.00		-8.80		3.384e-03		90.705		1.627e-03		45.901
5		0.00		-9.20		4.802e-03		111.551		2.174e-03		43.301
5		0.00		-9.60		5.253e-03		114.464		1.873e-03		36.592
5		0.00		-10.00		6.569e-03		115.542		2.349e-03		26.802
5		0.00		-9.60		6.293e-03		117.067		2.207e-03		24.996
5		0.00		-9.20		5.555e-03		111.839		2.056e-03		17.475
5		0.00		-8.80		5.039e-03		114.527		2.010e-03		29.063
5		0.00		-8.40		4.560e-03		116.281		1.771e-03		32.912
5		0.00		-8.00		3.906e-03		104.171		1.689e-03		32.961
5		0.00		-7.60		3.641e-03		101.452		1.728e-03		50.981
5		0.00		-7.20		3.044e-03		73.587		1.360e-03		67.528
5		0.00		-6.80		2.257e-03		42.593		1.003e-03		72.138
5		0.00		-6.40		2.133e-03		23.135		9.937e-04		70.537
5		0.00		-6.00		2.241e-03		-30.353		9.612e-04		66.641
5		0.00		-5.60		2.595e-03		-50.400		1.264e-03		52.684
5		0.00		-5.20		3.939e-03		-53.830		1.503e-03		35.119
5		0.00		-4.80		5.446e-03		-45.962		1.562e-03		19.662
5		0.00		-4.40		6.523e-03		-46.201		1.586e-03		19.049
5		0.00		-4.00		7.565e-03		-51.208		1.724e-03		14.257
5		0.00		-3.60		8.394e-03		-47.955		1.756e-03		15.302
5		0.00		-3.20		9.347e-03		-46.444		1.827e-03		12.405
5		0.00		-2.80		1.041e-02		-47.532		2.368e-03		15.415
5		0.00		-2.40		1.132e-02		-50.506		2.547e-03		14.812
5		0.00		-2.00		1.246e-02		-51.105		2.528e-03		13.078
5		0.00		-1.60		1.325e-02		-52.578		2.273e-03		10.490
5		0.00		-1.20		1.398e-02		-48.543		2.323e-03		12.453
5		0.00		-0.80		1.496e-02		-50.462		2.338e-03		13.169
5		0.00		-0.40		1.581e-02		-49.695		2.153e-03		10.755
6		0.00		0.00		1.656e-02		-50.083		2.383e-03		11.422
6		0.00		0.40		1.678e-02		-50.632		2.465e-03		10.251
6		0.00		0.80		1.672e-02		-52.628		2.958e-03		11.781
6		0.00		1.20		1.737e-02		-52.650		3.135e-03		10.709
6		0.00		1.60		1.758e-02		-50.281		3.269e-03		12.924
6		0.00		2.00		1.782e-02		-53.082		3.706e-03		10.385
6		0.00		2.40		1.875e-02		-53.906		3.974e-03		10.975
6		0.00		2.80		1.909e-02		-51.223		3.972e-03		10.181
6		0.00		3.20		1.961e-02		-51.532		3.768e-03		9.408
6		0.00		3.60		2.058e-02		-53.764		3.508e-03		11.105
6		0.00		4.00		2.176e-02		-53.465		3.177e-03		10.398
6		0.00		4.40		2.266e-02		-53.574		3.131e-03		10.541
6		0.00		4.80		2.353e-02		-54.196		3.206e-03		10.023
6		0.00		5.20		2.655e-02		-52.808		3.832e-03		9.735
6		0.00		5.60		2.885e-02		-51.353		4.056e-03		9.288
6		0.00		6.00		3.394e-02		-52.760		5.653e-03		9.057
6		0.00		6.40		3.648e-02		-52.224		6.094e-03		8.933
6		0.00		6.80		3.792e-02		-52.893		7.151e-03		12.004
6		0.00		7.20		4.116e-02		-50.301		8.734e-03		7.381
6		0.00		7.60		4.314e-02		-50.420		9.657e-03		7.869
6		0.00		8.00		4.378e-02		-52.229		1.109e-02		10.399
6		0.00		8.40		4.672e-02		-53.866		1.198e-02		10.239
6		0.00		8.80		4.913e-02		-54.828		1.195e-02		11.133
6		0.00		9.20		4.980e-02		-55.496		1.079e-02		10.020
6		0.00		9.60		5.133e-02		-55.629		1.050e-02		10.975
6		0.00		10.00		5.120e-02		-54.921		9.062e-03		8.821
6		0.00		9.60		5.202e-02		-53.474		9.184e-03		9.646
6		0.00		9.20		5.192e-02		-53.502		9.215e-03		9.554
6		0.00		8.80		5.096e-02		-53.842		9.613e-03		10.021
6		0.00		8.40		5.002e-02		-52.712		8.886e-03		9.551
6		0.00		8.00		4.885e-02		-52.954		8.382e-03		9.636
6		0.00		7.60		4.586e-02		-51.978		8.791e-03		10.872
6		0.00		7.20		4.540e-02		-50.358		8.996e-03		9.104
6		0.00		6.80		4.410e-02		-49.967		9.313e-03		8.852
6		0.00		6.40		4.363e-02		-51.785		9.791e-03		9.864
6		0.00		6.00		4.254e-02		-52.683		9.519e-03		9.310
6		0.00		5.60		4.242e-02		-53.391		8.997e-03		9.124
6		0.00		5.20		4.212e-02		-53.765		8.285e-03		9.330
6		0.00		4.80		4.238e-02		-52.997		7.188e-03		9.036
6		0.00		4.40		4.252e-02		-54.117		6.687e-03		9.042
6		0.00		4.00		4.286e-02		-53.078		5.832e-03		8.087
6		0.00		3.60		4.250e-02		-53.410		5.821e-03		8.754
6		0.00		3.20		4.227e-02		-53.339		5.766e-03		8.062
6		0.00		2.80		4.191e-02		-53.600		6.260e-03		8.495
6		0.00		2.40		4.109e-02		-52.075		6.486e-03		8.570
6		0.00		2.00		4.100e-02		-53.923		6.973e-03		9.566
6		0.00		1.60		4.064e-02		-52.292		7.518e-03		12.599
6		0.00		1.20		3.913e-02		-50.825		8.601e-03		9.409
6		0.00		0.80		3.903e-02		-51.453		8.649e-03		9.314
6		0.00		0.40		3.921e-02		-51.555		9.115e-03		9.457
6		0.00		0.00		3.909e-02		-51.696		8.447e-03		9.519
6		0.00		-0.40		3.925e-02		-52.470		8.015e-03		9.182
6		0.00		-0.80		3.884e-02		-53.571		7.122e-03		9.983
6		0.00		-1.20		3.802e-02		-53.551		6.488e-03		9.789
6		0.00		-1.60		3.776e-02		-53.322		5.900e-03		9.447
6		0.00		-2.00		3.629e-02		-52.898		4.950e-03		9.272
6		0.00		-2.40		3.566e-02		-52.337		5.087e-03		9.185
6		0.00		-2.80		3.362e-02		-51.860		4.804e-03		9.658
6		0.00		-3.20		3.162e-02		-50.932		4.427e-03		9.293
6		0.00		-3.60		2.848e-02		-50.313		4.296e-03		9.151
6		0.00		-4.00		2.601e-02		-52.081		4.493e-03		10.691
6		0.00		-4.40		2.424e-02		-50.858		4.564e-03		11.792
6		0.00		-4.80		2.102e-02		-50.938		4.544e-03		13.928
6		0.00		-5.20		1.927e-02		-51.323		4.360e-03		11.257
6		0.00		-5.60		1.724e-02		-51.465		4.437e-03		13.141
6		0.00		-6.00		1.503e-02		-51.053		3.937e-03		12.601
6		0.00		-6.40		1.246e-02		-51.741		3.609e-03		11.609
6		0.00		-6.80		9.607e-03		-52.636		2.780e-03		17.195
6		0.00		-7.20		7.938e-03		-44.421		2.387e-03		17.501
6		0.00		-7.60		5.859e-03		-54.012		2.003e-03		23.327
6		0.00		-8.00		3.910e-03		-35.761		1.768e-03		38.136
6		0.00		-8.40		2.755e-03		-29.458		1.205e-03		69.609
6		0.00		-8.80		2.414e-03		14.419		1.059e-03		71.940
6		0.00		-9.20		3.179e-03		76.413		1.547e-03		65.213
6		0.00		-9.60		4.086e-03		98.124		1.907e-03		49.849
6		0.00		-10.00		5.414e-03		113.756		2.260e-03		34.270
6		0.00		-9.60		5.705e-03		111.724		2.273e-03		32.898
6		0.00		-9.20		4.765e-03		107.381		2.289e-03		38.520
6		0.00		-8.80		4.371e-03		90.857		2.099e-03		48.419
6		0.00		-8.40		3.779e-03		95.206		1.804e-03		55.404
6		0.00		-8.00		2.946e-03		62.441		1.485e-03		65.148
6		0.00		-7.60		2.942e-03		69.676		1.531e-03		63.413
6		0.00		-7.20		2.291e-03		43.332		1.038e-03		75.742
6		0.00		-6.80		2.247e-03		16.896		9.153e-04		71.179
6		0.00		-6.40		2.650e-03		-7.895		1.197e-03		65.128
6		0.00		-6.00		3.068e-03		-31.218		1.354e-03		40.822
6		0.00		-5.60		4.017e-03		-50.657		1.647e-03		33.578
6		0.00		-5.20		5.328e-03		-44.856		1.828e-03		22.568
6		0.00		-4.80		6.294e-03		-49.390		1.761e-03		17.571
6		0.00		-4.40		7.982e-03		-44.329		1.919e-03		16.072
6		0.00		-4.00		9.080e-03		-47.069		1.861e-03		17.832
6		0.00		-3.60		1.028e-02		-43.096		2.104e-03		15.665
6		0.00		-3.20		1.120e-02		-49.217		2.023e-03		14.494
6		0.00		-2.80		1.208e-02		-50.265		2.388e-03		12.233
6		0.00		-2.40		1.336e-02		-49.942		2.558e-03		13.580
6		0.00		-2.00		1.393e-02		-49.773		2.923e-03		14.493
6		0.00		-1.60		1.427e-02		-48.586		3.077e-03		15.095
6		0.00		-1.20		1.503e-02		-51.354		3.452e-03		13.024
6		0.00		-0.80		1.607e-02		-50.445		3.806e-03		12.739
6		0.00		-0.40		1.646e-02		-49.945		4.001e-03		11.502
7		0.00		0.00		1.709e-02		-51.228		4.128e-03		11.469
7		0.00		0.40		1.751e-02		-55.801		4.077e-03		12.516
7		0.00		0.80		1.813e-02		-54.023		4.116e-03		10.868
7		0.00		1.20		1.932e-02		-51.861		3.700e-03		12.130
7		0.00		1.60		1.976e-02		-54.724		3.502e-03		10.335
7		0.00		2.00		2.052e-02		-52.947		3.449e-03		10.376
7		0.00		2.40		2.038e-02		-52.404		3.343e-03		11.477
7		0.00		2.80		2.083e-02		-52.497		3.387e-03		11.134
7		0.00		3.20		2.117e-02		-51.576		3.362e-03		11.249
7		0.00		3.60		2.159e-02		-51.964		3.277e-03		11.192
7		0.00		4.00		2.247e-02		-52.267		3.239e-03		10.278
7		0.00		4.40		2.333e-02		-51.758		3.292e-03		10.673
7		0.00		4.80		2.450e-02		-51.458		3.367e-03		10.538
7		0.00		5.20		2.642e-02		-53.389		3.732e-03		9.679
7		0.00		5.60		3.047e-02		-50.743		4.460e-03		10.257
7		0.00		6.00		3.409e-02		-51.396		4.793e-03		9.229
7		0.00		6.40		3.552e-02		-53.119		5.719e-03		10.466
7		0.00		6.80		3.803e-02		-51.233		5.980e-03		9.908
7		0.00		7.20		4.024e-02		-50.611		6.714e-03		9.895
7		0.00		7.60		4.300e-02		-51.651		8.137e-03		12.909
7		0.00		8.00		4.450e-02		-51.936		8.691e-03		12.689
7		0.00		8.40		4.557e-02		-52.500		9.436e-03		11.472
7		0.00		8.80		4.702e-02		-51.495		1.031e-02		11.138
7		0.00		9.20		4.955e-02		-51.523		1.111e-02		11.143
7		0.00		9.60		5.158e-02		-50.515		1.270e-02		13.893
7		0.00		10.00		5.313e-02		-50.013		1.321e-02		12.037
7		0.00		9.60		5.188e-02		-50.605		1.302e-02		13.995
7		0.00		9.20		5.108e-02		-49.625		1.242e-02		14.727
7		0.00		8.80		4.610e-02		-50.439		1.067e-02		11.461
7		0.00		8.40		4.902e-02		-49.476		1.103e-02		14.119
7		0.00		8.00		4.804e-02		-50.282		1.100e-02		11.006
7		0.00		7.60		4.695e-02		-49.571		1.112e-02		9.929
7		0.00		7.20		4.618e-02		-51.071		1.104e-02		11.518
7		0.00		6.80		4.508e-02		-52.202		1.082e-02		10.233
7		0.00		6.40		4.552e-02		-52.618		1.031e-02		11.597
7		0.00		6.00		4.395e-02		-53.139		1.050e-02		12.634
7		0.00		5.60		4.395e-02		-53.145		1.057e-02		10.887
7		0.00		5.20		4.351e-02		-54.113		1.044e-02		11.620
7		0.00		4.80		4.281e-02		-53.483		1.009e-02		11.600
7		0.00		4.40		4.326e-02		-54.293		1.056e-02		10.027
7		0.00		4.00		4.260e-02		-55.037		1.055e-02		11.293
7		0.00		3.60		4.191e-02		-54.630		1.005e-02		11.122
7		0.00		3.20		4.151e-02		-54.503		9.545e-03		11.014
7		0.00		2.80		4.215e-02		-54.472		9.432e-03		11.351
7		0.00		2.40		4.198e-02		-55.208		9.154e-03		11.587
7		0.00		2.00		4.285e-02		-54.118		8.532e-03		10.129
7		0.00		1.60		4.251e-02		-53.908		8.158e-03		11.023
7		0.00		1.20		4.278e-02		-55.037		7.928e-03		10.549
7		0.00		0.80		4.237e-02		-53.972		7.375e-03		9.836
7		0.00		0.40		4.249e-02		-53.783		6.620e-03		8.342
7		0.00		0.00		4.169e-02		-52.935		6.457e-03		8.424
7		0.00		-0.40		4.156e-02		-52.165		6.462e-03		8.982
7		0.00		-0.80		3.977e-02		-52.906		5.872e-03		9.105
7		0.00		-1.20		3.930e-02		-52.138		5.869e-03		8.798
7		0.00		-1.60		3.712e-02		-53.645		5.871e-03		9.562
7		0.00		-2.00		3.554e-02		-53.290		5.534e-03		10.166
7		0.00		-2.40		3.444e-02		-52.263		5.433e-03		10.779
7		0.00		-2.80		3.368e-02		-52.615		5.082e-03		10.889
7		0.00		-3.20		3.065e-02		-50.912		4.830e-03		10.819
7		0.00		-3.60		2.895e-02		-52.806		5.070e-03		11.529
7		0.00		-4.00		2.708e-02		-52.078		4.704e-03		10.827
7		0.00		-4.40		2.360e-02		-51.975		4.313e-03		11.652
7		0.00		-4.80		2.100e-02		-50.617		3.916e-03		11.238
7		0.00		-5.20		1.877e-02		-52.004		3.777e-03		12.082
7		0.00		-5.60		1.580e-02		-51.246		3.416e-03		13.433
7		0.00		-6.00		1.394e-02		-51.078		3.144e-03		13.593
7		0.00		-6.40		1.272e-02		-50.281		2.818e-03		12.237
7		0.00		-6.80		9.645e-03		-48.666		2.484e-03		14.113
7		0.00		-7.20		6.894e-03		-48.900		2.204e-03		19.123
7		0.00		-7.60		5.734e-03		-49.471		2.219e-03		20.723
7		0.00		-8.00		2.729e-03		-19.630		1.350e-03		70.016
7		0.00		-8.40		2.526e-03		-5.429		1.156e-03		65.310
7		0.00		-8.80		2.534e-03		34.404		1.378e-03		78.921
7		0.00		-9.20		2.779e-03		71.442		1.327e-03		59.876
7		0.00		-9.60		3.054e-03		66.964		1.516e-03		58.594
7		0.00		-10.00		4.578e-03		92.510		1.998e-03		47.573
7		0.00		-9.60		4.098e-03		92.799		1.768e-03		56.097
7		0.00		-9.20		4.070e-03		93.975		1.847e-03		53.015
7		0.00		-8.80		3.611e-03		83.314		1.612e-03		56.839
7		0.00		-8.40		2.992e-03		76.273		1.493e-03		55.959
7		0.00		-8.00		2.748e-03		76.849		1.343e-03		53.766
7		0.00		-7.60		2.041e-03		19.607		9.260e-04		66.750
7		0.00		-7.20		2.246e-03		-27.546		1.136e-03		59.960
7		0.00		-6.80		2.740e-03		-12.822		1.247e-03		59.484
7		0.00		-6.40		3.833e-03		-40.117		1.691e-03		38.885
7		0.00		-6.00		4.151e-03		-45.382		1.777e-03		30.938
7		0.00		-5.60		5.727e-03		-49.895		1.689e-03		17.916
7		0.00		-5.20		7.249e-03		-47.226		2.014e-03		17.472
7		0.00		-4.80		9.112e-03		-49.133		2.253e-03		16.181
7		0.00		-4.40		9.912e-03		-49.613		2.356e-03		12.593
7		0.00		-4.00		1.115e-02		-48.668		2.571e-03		15.658
7		0.00		-3.60		1.273e-02		-52.514		2.863e-03		14.066
7		0.00		-3.20		1.411e-02		-51.842		2.926e-03		12.208
7		0.00		-2.80		1.477e-02		-55.062		2.902e-03		11.973
7		0.00		-2.40		1.571e-02		-51.775		2.911e-03		13.593
7		0.00		-2.00		1.702e-02		-50.428		3.077e-03		12.182
7		0.00		-1.60		1.750e-02		-49.240		3.053e-03		11.717
7		0.00		-1.20		1.815e-02		-50.015		3.432e-03		12.537
7		0.00		-0.80		1.873e-02		-51.577		3.509e-03		11.945
7		0.00		-0.40		1.930e-02		-52.180		3.664e-03		11.710
8		0.00		0.00		2.037e-02		-52.165		3.855e-03		12.106
8		0.00		0.40		2.086e-02		-53.303		3.902e-03		13.087
8		0.00		0.80		2.158e-02		-51.228		4.134e-03		12.968
8		0.00		1.20		2.171e-02		-49.444		4.246e-03		12.453
8		0.00		1.60		2.244e-02		-53.387		4.226e-03		12.853
8		0.00		2.00		2.294e-02		-55.438		4.365e-03		11.705
8		0.00		2.40		2.373e-02		-51.844		4.288e-03		12.367
8		0.00		2.80		2.386e-02		-53.691		4.404e-03		12.576
8		0.00		3.20		2.419e-02		-52.058		4.274e-03		13.152
8		0.00		3.60		2.454e-02		-51.431		4.350e-03		12.675
8		0.00		4.00		2.471e-02		-52.469		4.435e-03		12.153
8		0.00		4.40		2.589e-02		-52.386		5.161e-03		12.453
8		0.00		4.80		2.828e-02		-52.822		6.254e-03		15.556
8		0.00		5.20		3.116e-02		-52.601		6.546e-03		13.623
8		0.00		5.60		3.305e-02		-53.001		7.652e-03		15.205
8		0.00		6.00		3.495e-02		-51.008		8.146e-03		13.773
8		0.00		6.40		3.736e-02		-50.124		8.994e-03		18.929
8		0.00		6.80		3.915e-02		-49.168		1.028e-02		19.298
8		0.00		7.20		3.964e-02		-49.066		1.069e-02		19.305
8		0.00		7.60		4.251e-02		-50.120		1.200e-02		22.493
8		0.00		8.00		4.358e-02		-49.655		1.218e-02		20.197
8		0.00		8.40		4.589e-02		-50.317		1.336e-02		17.476
8		0.00		8.80		4.808e-02		-50.823		1.383e-02		15.335
8		0.00		9.20		4.977e-02		-53.550		1.434e-02		13.229
8		0.00		9.60		5.006e-02		-52.678		1.427e-02		11.990
8		0.00		10.00		5.183e-02		-53.775		1.426e-02		12.009
8		0.00		9.60		5.194e-02		-54.089		1.370e-02		12.045
8		0.00		9.20		5.131e-02		-53.645		1.277e-02		12.849
8		0.00		8.80		5.064e-02		-54.613		1.300e-02		13.087
8		0.00		8.40		4.892e-02		-54.675		1.216e-02		12.128
8		0.00		8.00		4.689e-02		-54.518		1.089e-02		11.416
8		0.00		7.60		4.524e-02		-54.913		1.015e-02		11.341
8		0.00		7.20		4.534e-02		-55.179		1.014e-02		11.294
8		0.00		6.80		4.473e-02		-54.928		9.697e-03		10.919
8		0.00		6.40		4.509e-02		-54.493		9.975e-03		11.351
8		0.00		6.00		4.470e-02		-53.811		9.345e-03		10.947
8		0.00		5.60		4.411e-02		-54.040		9.070e-03		11.252
8		0.00		5.20		4.349e-02		-54.000		8.887e-03		10.756
8		0.00		4.80		4.366e-02		-54.469		8.814e-03		10.727
8		0.00		4.40		4.365e-02		-53.832		8.559e-03		10.294
8		0.00		4.00		4.348e-02		-53.210		8.273e-03		10.423
8		0.00		3.60		4.313e-02		-53.103		7.732e-03		10.110
8		0.00		3.20		4.297e-02		-53.907		7.552e-03		10.133
8		0.00		2.80		4.333e-02		-53.863		7.211e-03		8.849
8		0.00		2.40		4.321e-02		-52.908		6.977e-03		8.601
8		0.00		2.00		4.364e-02		-52.420		6.908e-03		8.812
8		0.00		1.60		4.389e-02		-53.306		6.603e-03		8.822
8		0.00		1.20		4.294e-02		-52.235		6.492e-03		7.982
8		0.00		0.80		4.328e-02		-52.790		6.998e-03		8.534
8		0.00		0.40		4.250e-02		-52.069		6.721e-03		8.589
8		0.00		0.00		4.196e-02		-51.939		7.206e-03		10.021
8		0.00		-0.40		4.133e-02		-52.406		7.234e-03		9.625
8		0.00		-0.80		4.073e-02		-50.949		6.843e-03		9.801
8		0.00		-1.20		3.939e-02		-51.496		6.830e-03		10.639
8		0.00		-1.60		3.877e-02		-51.019		7.087e-03		11.663
8		0.00		-2.00		3.618e-02		-51.989		7.145e-03		12.835
8		0.00		-2.40		3.386e-02		-51.994		7.230e-03		16.337
8		0.00		-2.80		3.235e-02		-52.555		7.453e-03		13.327
8		0.00		-3.20		3.067e-02		-51.745		7.463e-03		13.796
8		0.00		-3.60		2.690e-02		-49.873		6.732e-03		13.446
8		0.00		-4.00		2.531e-02		-50.493		6.112e-03		11.393
8		0.00		-4.40		2.400e-02		-51.554		5.945e-03		15.873
8		0.00		-4.80		2.220e-02		-51.766		5.643e-03		13.976
8		0.00		-5.20		2.042e-02		-50.882		5.225e-03		20.097
8		0.00		-5.60		1.803e-02		-50.756		4.740e-03		14.029
8		0.00		-6.00		1.566e-02		-49.770		3.853e-03		12.419
8		0.00		-6.40		1.380e-02		-52.196		3.421e-03		17.914
8		0.00		-6.80		1.142e-02		-45.609		2.892e-03		15.575
8		0.00		-7.20		9.828e-03		-46.795		2.808e-03		16.383
8		0.00		-7.60		7.517e-03		-46.390		2.379e-03		18.088
8		0.00		-8.00		5.910e-03		-46.413		2.237e-03		22.971
8		0.00		-8.40		4.220e-03		-44.203		1.920e-03		30.147
8		0.00		-8.80		3.125e-03		-18.915		1.725e-03		62.579
8		0.00		-9.20		2.529e-03		20.800		1.287e-03		73.171
8		0.00		-9.60		2.911e-03		54.713		1.449e-03		71.902
8		0.00		-10.00		3.497e-03		81.773		1.862e-03		55.846
8		0.00		-9.60		3.575e-03		86.651		1.898e-03		52.453
8		0.00		-9.20		3.407e-03		81.234		1.668e-03		51.771
8		0.00		-8.80		3.470e-03		83.107		1.788e-03		52.866
8		0.00		-8.40		3.105e-03		68.232		1.548e-03		58.770
8		0.00		-8.00		3.377e-03		77.473		1.571e-03		55.497
8		0.00		-7.60		2.751e-03		45.745		1.264e-03		64.149
8		0.00		-7.20		2.390e-03		22.684		1.044e-03		76.128
8		0.00		-6.80		2.334e-03		-10.332		9.539e-04		71.761
8		0.00		-6.40		2.655e-03		-16.080		1.304e-03		55.301
8		0.00		-6.00		3.519e-03		-32.735		1.580e-03		42.966
8		0.00		-5.60		4.889e-03		-38.131		1.681e-03		23.983
8		0.00		-5.20		6.408e-03		-43.156		1.754e-03		19.092
8		0.00		-4.80		7.791e-03		-50.041		1.997e-03		16.390
8		0.00		-4.40		9.278e-03		-46.824		2.249e-03		12.093
8		0.00		-4.00		1.037e-02		-45.921		2.579e-03		15.762
8		0.00		-3.60		1.177e-02		-45.353		2.688e-03		14.222
8		0.00		-3.20		1.236e-02		-48.321		2.740e-03		15.612
8		0.00		-2.80		1.356e-02		-51.074		3.161e-03		13.399
8		0.00		-2.40		1.435e-02		-48.059		3.396e-03		10.768
8		0.00		-2.00		1.540e-02		-49.128		4.005e-03		14.441
8		0.00		-1.60		1.613e-02		-48.999		4.375e-03		13.775
8		0.00		-1.20		1.692e-02		-50.810		4.299e-03		11.612
8		0.00		-0.80		1.799e-02		-52.080		4.264e-03		10.883
8		0.00		-0.40		1.835e-02		-52.741		4.196e-03		11.240
