# Date of analysis: 2023-11-20 16;15
# 
# Loop index	Read Volt (V)	Write Volt (V)	Amplitude (a.u)	Phase (deg)	Sigma Amp (a.u)	Sigma Pha (deg)	
1		0.00		0.00		3.518e-02		-54.235		1.093e-02		15.019
1		0.00		0.40		3.317e-02		-53.331		9.419e-03		16.760
1		0.00		0.80		3.301e-02		-53.173		8.932e-03		15.304
1		0.00		1.20		3.252e-02		-51.767		8.131e-03		13.349
1		0.00		1.60		3.239e-02		-51.863		8.089e-03		12.278
1		0.00		2.00		3.222e-02		-51.383		7.780e-03		11.002
1		0.00		2.40		3.245e-02		-51.309		7.830e-03		10.523
1		0.00		2.80		3.264e-02		-53.089		7.492e-03		10.516
1		0.00		3.20		3.312e-02		-54.207		7.146e-03		10.027
1		0.00		3.60		3.298e-02		-50.307		6.914e-03		8.605
1		0.00		4.00		3.372e-02		-52.986		6.862e-03		8.515
1		0.00		4.40		3.326e-02		-51.107		7.012e-03		8.031
1		0.00		4.80		3.413e-02		-51.941		7.480e-03		8.395
1		0.00		5.20		3.477e-02		-51.530		7.905e-03		7.093
1		0.00		5.60		3.555e-02		-51.524		8.557e-03		7.279
1		0.00		6.00		3.557e-02		-51.102		8.683e-03		6.123
1		0.00		6.40		3.655e-02		-51.988		9.664e-03		7.459
1		0.00		6.80		3.742e-02		-53.090		1.071e-02		8.113
1		0.00		7.20		3.967e-02		-51.048		1.197e-02		14.424
1		0.00		7.60		4.144e-02		-53.358		1.235e-02		13.161
1		0.00		8.00		4.452e-02		-52.846		1.256e-02		14.363
1		0.00		8.40		4.720e-02		-53.032		1.301e-02		14.793
1		0.00		8.80		4.926e-02		-49.963		1.362e-02		9.661
1		0.00		9.20		5.155e-02		-51.892		1.381e-02		10.374
1		0.00		9.60		5.306e-02		-52.319		1.369e-02		10.108
1		0.00		10.00		5.419e-02		-52.972		1.357e-02		11.596
1		0.00		9.60		5.296e-02		-52.263		1.277e-02		10.972
1		0.00		9.20		5.345e-02		-51.663		1.143e-02		9.645
1		0.00		8.80		5.208e-02		-51.234		1.123e-02		8.723
1		0.00		8.40		5.247e-02		-51.760		1.126e-02		6.554
1		0.00		8.00		5.029e-02		-51.253		1.183e-02		4.826
1		0.00		7.60		4.926e-02		-50.944		1.239e-02		5.578
1		0.00		7.20		4.735e-02		-51.943		1.302e-02		6.416
1		0.00		6.80		4.563e-02		-52.642		1.306e-02		6.159
1		0.00		6.40		4.469e-02		-53.591		1.348e-02		9.317
1		0.00		6.00		4.198e-02		-54.071		1.295e-02		11.511
1		0.00		5.60		4.110e-02		-54.338		1.266e-02		15.376
1		0.00		5.20		4.029e-02		-52.085		1.200e-02		11.721
1		0.00		4.80		4.013e-02		-52.544		1.112e-02		11.928
1		0.00		4.40		3.931e-02		-51.078		1.033e-02		10.104
1		0.00		4.00		3.862e-02		-52.311		9.482e-03		9.764
1		0.00		3.60		3.859e-02		-50.203		8.928e-03		8.232
1		0.00		3.20		3.799e-02		-50.315		8.216e-03		8.587
1		0.00		2.80		3.746e-02		-51.263		7.350e-03		8.464
1		0.00		2.40		3.745e-02		-51.918		7.457e-03		7.821
1		0.00		2.00		3.762e-02		-51.414		7.348e-03		7.432
1		0.00		1.60		3.743e-02		-51.001		7.316e-03		6.653
1		0.00		1.20		3.684e-02		-51.618		7.269e-03		6.994
1		0.00		0.80		3.604e-02		-51.112		8.068e-03		6.158
1		0.00		0.40		3.472e-02		-50.921		8.247e-03		7.113
1		0.00		0.00		3.335e-02		-52.593		8.657e-03		7.582
1		0.00		-0.40		3.179e-02		-51.822		8.562e-03		7.952
1		0.00		-0.80		3.053e-02		-51.208		8.641e-03		10.410
1		0.00		-1.20		2.709e-02		-52.807		7.803e-03		12.785
1		0.00		-1.60		2.375e-02		-52.124		6.807e-03		14.286
1		0.00		-2.00		2.101e-02		-51.474		5.971e-03		17.195
1		0.00		-2.40		1.768e-02		-51.853		4.937e-03		15.265
1		0.00		-2.80		1.511e-02		-49.308		4.585e-03		15.188
1		0.00		-3.20		1.156e-02		-52.238		3.211e-03		12.985
1		0.00		-3.60		8.858e-03		-48.321		2.755e-03		15.593
1		0.00		-4.00		5.660e-03		-52.213		2.129e-03		19.088
1		0.00		-4.40		2.791e-03		-26.202		1.298e-03		64.765
1		0.00		-4.80		2.542e-03		48.924		1.407e-03		70.536
1		0.00		-5.20		5.729e-03		122.539		2.281e-03		19.747
1		0.00		-5.60		8.029e-03		124.163		2.989e-03		15.783
1		0.00		-6.00		9.594e-03		121.468		2.844e-03		12.839
1		0.00		-6.40		1.178e-02		125.318		3.221e-03		8.364
1		0.00		-6.80		1.347e-02		127.074		3.746e-03		8.741
1		0.00		-7.20		1.581e-02		126.876		4.551e-03		10.074
1		0.00		-7.60		1.717e-02		125.650		4.849e-03		8.513
1		0.00		-8.00		1.905e-02		125.404		5.316e-03		8.964
1		0.00		-8.40		2.050e-02		125.241		6.054e-03		9.875
1		0.00		-8.80		2.025e-02		128.067		5.893e-03		9.125
1		0.00		-9.20		2.241e-02		125.765		6.464e-03		7.893
1		0.00		-9.60		2.178e-02		123.490		6.781e-03		11.023
1		0.00		-10.00		2.292e-02		126.418		6.785e-03		10.101
1		0.00		-9.60		2.245e-02		124.235		6.552e-03		14.758
1		0.00		-9.20		2.220e-02		123.096		6.313e-03		15.917
1		0.00		-8.80		2.264e-02		124.663		6.579e-03		16.791
1		0.00		-8.40		2.202e-02		122.666		6.008e-03		18.536
1		0.00		-8.00		2.108e-02		123.628		5.839e-03		19.021
1		0.00		-7.60		1.899e-02		123.736		5.619e-03		17.982
1		0.00		-7.20		1.904e-02		126.275		5.247e-03		15.165
1		0.00		-6.80		1.945e-02		128.061		5.395e-03		13.321
1		0.00		-6.40		1.903e-02		125.140		4.962e-03		11.048
1		0.00		-6.00		1.805e-02		126.508		4.785e-03		9.478
1		0.00		-5.60		1.652e-02		128.541		4.201e-03		7.310
1		0.00		-5.20		1.625e-02		126.877		3.918e-03		9.764
1		0.00		-4.80		1.512e-02		125.528		3.590e-03		9.494
1		0.00		-4.40		1.449e-02		125.712		3.450e-03		8.952
1		0.00		-4.00		1.357e-02		129.239		3.499e-03		9.326
1		0.00		-3.60		1.252e-02		125.725		3.104e-03		7.770
1		0.00		-3.20		1.166e-02		128.129		3.199e-03		11.104
1		0.00		-2.80		1.071e-02		125.312		2.990e-03		12.393
1		0.00		-2.40		1.053e-02		126.540		2.937e-03		13.323
1		0.00		-2.00		9.756e-03		124.718		2.799e-03		12.349
1		0.00		-1.60		8.790e-03		122.968		2.720e-03		13.593
1		0.00		-1.20		7.818e-03		124.529		2.367e-03		10.895
1		0.00		-0.80		7.360e-03		120.970		2.270e-03		17.370
1		0.00		-0.40		6.196e-03		122.104		1.961e-03		20.263
2		0.00		0.00		5.793e-03		115.565		1.904e-03		25.745
2		0.00		0.40		5.201e-03		122.567		1.900e-03		32.958
2		0.00		0.80		4.362e-03		107.305		1.635e-03		37.937
2		0.00		1.20		3.608e-03		101.247		1.429e-03		45.294
2		0.00		1.60		2.723e-03		83.804		1.304e-03		62.505
2		0.00		2.00		2.081e-03		51.410		9.216e-04		74.782
2		0.00		2.40		1.942e-03		19.677		8.169e-04		86.788
2		0.00		2.80		1.678e-03		3.441		7.154e-04		69.790
2		0.00		3.20		2.287e-03		-44.067		9.890e-04		54.226
2		0.00		3.60		3.125e-03		-46.317		1.133e-03		35.827
2		0.00		4.00		4.665e-03		-54.143		1.554e-03		25.592
2		0.00		4.40		6.523e-03		-49.640		1.876e-03		20.826
2		0.00		4.80		8.580e-03		-53.505		2.162e-03		16.609
2		0.00		5.20		1.089e-02		-52.152		2.505e-03		12.288
2		0.00		5.60		1.246e-02		-53.744		2.854e-03		12.470
2		0.00		6.00		1.567e-02		-51.620		3.635e-03		11.668
2		0.00		6.40		1.814e-02		-51.246		4.238e-03		11.012
2		0.00		6.80		2.077e-02		-50.524		4.961e-03		9.378
2		0.00		7.20		2.406e-02		-52.777		6.020e-03		9.311
2		0.00		7.60		2.681e-02		-53.021		6.977e-03		10.308
2		0.00		8.00		3.118e-02		-52.678		8.387e-03		11.748
2		0.00		8.40		3.525e-02		-51.679		9.718e-03		12.094
2		0.00		8.80		3.800e-02		-54.073		1.132e-02		14.111
2		0.00		9.20		4.181e-02		-49.480		1.302e-02		21.884
2		0.00		9.60		4.296e-02		-54.935		1.342e-02		18.607
2		0.00		10.00		4.468e-02		-54.231		1.434e-02		16.604
2		0.00		9.60		4.448e-02		-54.158		1.407e-02		19.084
2		0.00		9.20		4.341e-02		-51.219		1.273e-02		13.473
2		0.00		8.80		4.208e-02		-50.436		1.242e-02		12.389
2		0.00		8.40		4.058e-02		-51.233		1.174e-02		9.817
2		0.00		8.00		3.973e-02		-50.613		1.117e-02		8.981
2		0.00		7.60		3.912e-02		-49.936		1.035e-02		8.585
2		0.00		7.20		3.862e-02		-49.857		9.416e-03		8.152
2		0.00		6.80		3.803e-02		-51.106		8.705e-03		8.879
2		0.00		6.40		3.671e-02		-50.632		8.059e-03		8.049
2		0.00		6.00		3.553e-02		-49.583		7.613e-03		8.015
2		0.00		5.60		3.512e-02		-49.563		7.448e-03		8.038
2		0.00		5.20		3.478e-02		-49.873		7.042e-03		8.047
2		0.00		4.80		3.368e-02		-50.423		6.834e-03		7.953
2		0.00		4.40		3.287e-02		-50.372		6.696e-03		7.989
2		0.00		4.00		3.225e-02		-50.579		6.410e-03		7.267
2		0.00		3.60		3.112e-02		-49.255		6.521e-03		8.122
2		0.00		3.20		3.090e-02		-50.403		6.747e-03		8.431
2		0.00		2.80		3.065e-02		-49.086		6.668e-03		7.337
2		0.00		2.40		2.959e-02		-50.421		6.514e-03		7.614
2		0.00		2.00		3.008e-02		-50.260		6.486e-03		7.321
2		0.00		1.60		2.937e-02		-50.418		6.215e-03		7.439
2		0.00		1.20		2.889e-02		-49.517		5.949e-03		7.050
2		0.00		0.80		2.861e-02		-50.730		6.151e-03		7.718
2		0.00		0.40		2.830e-02		-49.934		6.414e-03		6.570
2		0.00		0.00		2.764e-02		-50.036		5.945e-03		8.237
2		0.00		-0.40		2.715e-02		-49.272		5.610e-03		7.530
2		0.00		-0.80		2.509e-02		-50.496		5.171e-03		7.365
2		0.00		-1.20		2.324e-02		-49.363		4.777e-03		8.197
2		0.00		-1.60		2.057e-02		-49.823		4.392e-03		8.583
2		0.00		-2.00		1.782e-02		-50.108		3.908e-03		9.428
2		0.00		-2.40		1.490e-02		-49.458		3.844e-03		9.472
2		0.00		-2.80		1.086e-02		-51.398		3.012e-03		12.111
2		0.00		-3.20		8.408e-03		-47.926		2.801e-03		16.567
2		0.00		-3.60		5.429e-03		-42.571		2.519e-03		22.783
2		0.00		-4.00		3.306e-03		-24.823		1.830e-03		43.554
2		0.00		-4.40		2.577e-03		3.578		1.230e-03		60.203
2		0.00		-4.80		3.398e-03		74.967		1.861e-03		59.387
2		0.00		-5.20		4.923e-03		99.603		2.384e-03		45.923
2		0.00		-5.60		6.666e-03		114.348		2.746e-03		27.071
2		0.00		-6.00		8.828e-03		118.738		3.401e-03		16.805
2		0.00		-6.40		1.027e-02		115.634		3.699e-03		21.606
2		0.00		-6.80		1.211e-02		123.450		4.422e-03		18.867
2		0.00		-7.20		1.355e-02		121.448		4.709e-03		19.458
2		0.00		-7.60		1.506e-02		123.015		4.598e-03		15.012
2		0.00		-8.00		1.768e-02		123.819		5.155e-03		14.320
2		0.00		-8.40		1.896e-02		125.092		5.413e-03		15.735
2		0.00		-8.80		1.995e-02		123.322		5.452e-03		19.259
2		0.00		-9.20		2.053e-02		123.925		5.680e-03		15.127
2		0.00		-9.60		2.145e-02		124.388		5.872e-03		16.449
2		0.00		-10.00		2.247e-02		124.635		5.885e-03		16.708
2		0.00		-9.60		2.284e-02		125.583		5.938e-03		13.288
2		0.00		-9.20		2.202e-02		122.061		5.732e-03		17.186
2		0.00		-8.80		2.161e-02		124.501		5.839e-03		14.976
2		0.00		-8.40		2.102e-02		124.410		5.923e-03		15.055
2		0.00		-8.00		2.120e-02		122.335		6.079e-03		16.411
2		0.00		-7.60		2.017e-02		123.710		5.869e-03		16.584
2		0.00		-7.20		2.012e-02		123.120		6.040e-03		13.506
2		0.00		-6.80		1.887e-02		126.437		5.451e-03		11.356
2		0.00		-6.40		1.782e-02		126.046		5.050e-03		8.485
2		0.00		-6.00		1.641e-02		126.020		4.588e-03		10.896
2		0.00		-5.60		1.542e-02		126.231		4.565e-03		9.885
2		0.00		-5.20		1.441e-02		127.891		4.129e-03		9.631
2		0.00		-4.80		1.335e-02		124.729		3.557e-03		11.989
2		0.00		-4.40		1.261e-02		125.818		3.324e-03		9.654
2		0.00		-4.00		1.195e-02		125.560		2.985e-03		9.788
2		0.00		-3.60		1.088e-02		127.741		2.854e-03		10.466
2		0.00		-3.20		1.017e-02		126.731		2.536e-03		10.160
2		0.00		-2.80		9.111e-03		126.186		2.515e-03		12.528
2		0.00		-2.40		8.133e-03		126.980		2.108e-03		13.361
2		0.00		-2.00		7.189e-03		125.442		1.958e-03		14.605
2		0.00		-1.60		6.644e-03		127.701		1.904e-03		14.420
2		0.00		-1.20		6.023e-03		118.639		1.904e-03		17.184
2		0.00		-0.80		5.376e-03		126.183		1.749e-03		17.784
2		0.00		-0.40		4.545e-03		116.623		1.573e-03		29.820
3		0.00		0.00		3.625e-03		114.001		1.426e-03		30.812
3		0.00		0.40		3.350e-03		105.360		1.391e-03		33.662
3		0.00		0.80		2.825e-03		96.409		1.222e-03		56.031
3		0.00		1.20		2.368e-03		63.296		1.174e-03		72.457
3		0.00		1.60		2.080e-03		36.750		7.723e-04		73.156
3		0.00		2.00		1.804e-03		15.173		7.710e-04		73.849
3		0.00		2.40		1.743e-03		-15.266		8.493e-04		63.586
3		0.00		2.80		2.385e-03		-42.913		9.918e-04		51.010
3		0.00		3.20		3.080e-03		-44.368		1.262e-03		32.297
3		0.00		3.60		3.755e-03		-50.237		1.435e-03		26.908
3		0.00		4.00		5.171e-03		-47.194		1.674e-03		19.975
3		0.00		4.40		7.039e-03		-43.562		2.092e-03		20.987
3		0.00		4.80		8.216e-03		-45.410		2.304e-03		15.830
3		0.00		5.20		9.742e-03		-49.726		2.744e-03		15.110
3		0.00		5.60		1.191e-02		-47.712		3.210e-03		12.766
3		0.00		6.00		1.486e-02		-50.683		3.730e-03		10.318
3		0.00		6.40		1.613e-02		-49.751		3.820e-03		9.833
3		0.00		6.80		1.958e-02		-51.101		4.547e-03		8.191
3		0.00		7.20		2.114e-02		-50.111		5.072e-03		7.988
3		0.00		7.60		2.404e-02		-50.278		5.358e-03		7.924
3		0.00		8.00		2.590e-02		-53.283		5.489e-03		7.360
3		0.00		8.40		2.980e-02		-51.633		6.092e-03		6.707
3		0.00		8.80		3.330e-02		-51.462		7.118e-03		6.880
3		0.00		9.20		3.583e-02		-50.028		7.731e-03		7.283
3		0.00		9.60		3.868e-02		-50.800		8.100e-03		8.128
3		0.00		10.00		4.060e-02		-51.856		9.077e-03		7.661
3		0.00		9.60		4.063e-02		-50.652		9.166e-03		8.060
3		0.00		9.20		3.960e-02		-51.478		9.228e-03		7.722
3		0.00		8.80		3.839e-02		-50.203		8.751e-03		7.982
3		0.00		8.40		3.761e-02		-49.978		8.418e-03		8.576
3		0.00		8.00		3.621e-02		-49.547		8.609e-03		10.436
3		0.00		7.60		3.495e-02		-50.763		8.403e-03		10.008
3		0.00		7.20		3.350e-02		-51.368		8.391e-03		12.007
3		0.00		6.80		3.247e-02		-49.975		8.374e-03		12.825
3		0.00		6.40		3.178e-02		-52.368		8.040e-03		14.266
3		0.00		6.00		3.059e-02		-52.598		7.897e-03		14.408
3		0.00		5.60		3.066e-02		-52.699		7.887e-03		13.721
3		0.00		5.20		3.008e-02		-52.006		7.888e-03		7.737
3		0.00		4.80		2.856e-02		-52.193		7.555e-03		7.844
3		0.00		4.40		2.798e-02		-49.952		7.353e-03		8.019
3		0.00		4.00		2.747e-02		-51.300		6.868e-03		6.977
3		0.00		3.60		2.699e-02		-50.603		6.151e-03		7.686
3		0.00		3.20		2.640e-02		-50.506		5.515e-03		6.996
3		0.00		2.80		2.592e-02		-50.323		5.215e-03		6.874
3		0.00		2.40		2.558e-02		-49.959		4.765e-03		7.896
3		0.00		2.00		2.549e-02		-50.943		4.910e-03		6.703
3		0.00		1.60		2.473e-02		-49.767		4.866e-03		8.867
3		0.00		1.20		2.445e-02		-51.419		5.143e-03		8.226
3		0.00		0.80		2.419e-02		-49.141		4.709e-03		8.581
3		0.00		0.40		2.394e-02		-48.838		4.852e-03		9.048
3		0.00		0.00		2.339e-02		-47.388		5.007e-03		9.108
3		0.00		-0.40		2.235e-02		-49.001		4.829e-03		8.298
3		0.00		-0.80		2.074e-02		-48.418		4.847e-03		10.898
3		0.00		-1.20		1.895e-02		-46.158		4.280e-03		11.499
3		0.00		-1.60		1.674e-02		-47.945		3.960e-03		10.875
3		0.00		-2.00		1.475e-02		-48.246		3.813e-03		10.075
3		0.00		-2.40		1.218e-02		-48.683		3.265e-03		11.152
3		0.00		-2.80		1.012e-02		-48.974		3.044e-03		12.299
3		0.00		-3.20		7.746e-03		-47.768		2.584e-03		15.897
3		0.00		-3.60		5.449e-03		-47.292		2.223e-03		24.573
3		0.00		-4.00		3.150e-03		-20.956		1.521e-03		44.704
3		0.00		-4.40		2.185e-03		10.713		9.786e-04		70.917
3		0.00		-4.80		3.540e-03		81.634		1.834e-03		61.044
3		0.00		-5.20		5.865e-03		112.338		2.321e-03		26.103
3		0.00		-5.60		7.542e-03		118.412		2.926e-03		28.122
3		0.00		-6.00		9.323e-03		123.016		3.360e-03		14.817
3		0.00		-6.40		1.117e-02		123.714		3.803e-03		10.684
3		0.00		-6.80		1.368e-02		126.119		4.205e-03		9.015
3		0.00		-7.20		1.521e-02		126.589		4.171e-03		10.662
3		0.00		-7.60		1.723e-02		127.131		4.373e-03		10.141
3		0.00		-8.00		1.793e-02		127.546		4.562e-03		9.433
3		0.00		-8.40		1.993e-02		126.395		4.856e-03		7.860
3		0.00		-8.80		2.022e-02		126.353		4.834e-03		8.926
3		0.00		-9.20		2.058e-02		127.906		4.792e-03		8.668
3		0.00		-9.60		2.177e-02		128.138		4.798e-03		7.809
3		0.00		-10.00		2.238e-02		128.648		4.877e-03		7.581
3		0.00		-9.60		2.363e-02		127.317		5.179e-03		7.540
3		0.00		-9.20		2.228e-02		128.329		5.025e-03		6.922
3		0.00		-8.80		2.160e-02		127.336		5.219e-03		7.542
3		0.00		-8.40		2.240e-02		129.400		5.075e-03		6.687
3		0.00		-8.00		2.144e-02		127.426		4.951e-03		7.055
3		0.00		-7.60		2.026e-02		126.346		4.735e-03		6.967
3		0.00		-7.20		1.964e-02		127.326		4.481e-03		7.266
3		0.00		-6.80		1.876e-02		128.259		4.274e-03		7.205
3		0.00		-6.40		1.737e-02		127.246		4.050e-03		7.923
3		0.00		-6.00		1.620e-02		128.185		3.809e-03		8.368
3		0.00		-5.60		1.540e-02		126.291		3.907e-03		8.817
3		0.00		-5.20		1.428e-02		124.634		3.340e-03		8.375
3		0.00		-4.80		1.356e-02		126.386		2.976e-03		8.993
3		0.00		-4.40		1.229e-02		127.774		2.960e-03		9.048
3		0.00		-4.00		1.152e-02		124.967		2.767e-03		8.662
3		0.00		-3.60		1.037e-02		126.586		2.316e-03		11.121
3		0.00		-3.20		9.620e-03		124.107		2.357e-03		11.374
3		0.00		-2.80		9.208e-03		122.833		2.193e-03		9.497
3		0.00		-2.40		8.134e-03		128.035		1.915e-03		13.740
3		0.00		-2.00		7.661e-03		120.825		2.133e-03		17.587
3		0.00		-1.60		6.465e-03		121.659		1.861e-03		14.136
3		0.00		-1.20		5.875e-03		126.238		1.996e-03		14.879
3		0.00		-0.80		4.961e-03		121.935		1.761e-03		21.933
3		0.00		-0.40		4.258e-03		114.589		1.622e-03		31.835
4		0.00		0.00		3.439e-03		104.887		1.618e-03		37.243
4		0.00		0.40		2.902e-03		90.175		1.206e-03		45.834
4		0.00		0.80		2.752e-03		90.522		1.142e-03		50.807
4		0.00		1.20		2.348e-03		57.094		9.028e-04		69.483
4		0.00		1.60		1.824e-03		26.720		7.397e-04		74.792
4		0.00		2.00		1.654e-03		5.071		6.749e-04		77.644
4		0.00		2.40		2.128e-03		-38.350		8.353e-04		61.501
4		0.00		2.80		2.481e-03		-47.214		9.921e-04		44.104
4		0.00		3.20		3.118e-03		-38.623		1.177e-03		30.268
4		0.00		3.60		3.817e-03		-56.194		1.320e-03		25.227
4		0.00		4.00		4.979e-03		-42.922		1.477e-03		21.339
4		0.00		4.40		6.159e-03		-41.743		1.674e-03		18.660
4		0.00		4.80		7.589e-03		-40.775		1.610e-03		14.793
4		0.00		5.20		9.265e-03		-45.266		1.936e-03		13.412
4		0.00		5.60		1.116e-02		-45.595		2.249e-03		12.554
4		0.00		6.00		1.352e-02		-47.168		2.684e-03		10.746
4		0.00		6.40		1.599e-02		-46.349		3.165e-03		10.993
4		0.00		6.80		1.830e-02		-49.943		3.597e-03		10.157
4		0.00		7.20		2.140e-02		-51.813		3.994e-03		7.799
4		0.00		7.60		2.277e-02		-49.729		4.429e-03		8.404
4		0.00		8.00		2.579e-02		-51.485		5.203e-03		7.346
4		0.00		8.40		2.833e-02		-51.284		5.392e-03		7.514
4		0.00		8.80		3.101e-02		-49.641		5.990e-03		6.597
4		0.00		9.20		3.495e-02		-51.022		7.031e-03		6.944
4		0.00		9.60		3.648e-02		-49.255		7.100e-03		6.579
4		0.00		10.00		3.849e-02		-49.375		7.496e-03		6.951
4		0.00		9.60		3.941e-02		-51.682		7.607e-03		6.284
4		0.00		9.20		3.836e-02		-50.647		7.178e-03		7.278
4		0.00		8.80		3.712e-02		-50.491		6.627e-03		6.467
4		0.00		8.40		3.553e-02		-51.287		6.333e-03		7.279
4		0.00		8.00		3.489e-02		-50.453		6.233e-03		6.898
4		0.00		7.60		3.361e-02		-50.568		5.912e-03		6.853
4		0.00		7.20		3.198e-02		-50.818		5.456e-03		7.836
4		0.00		6.80		3.121e-02		-51.379		5.520e-03		6.725
4		0.00		6.40		3.055e-02		-50.876		5.806e-03		7.196
4		0.00		6.00		2.985e-02		-48.874		5.592e-03		8.174
4		0.00		5.60		2.942e-02		-50.455		5.534e-03		6.933
4		0.00		5.20		2.842e-02		-51.524		5.535e-03		7.851
4		0.00		4.80		2.764e-02		-49.364		5.039e-03		7.226
4		0.00		4.40		2.671e-02		-49.018		5.233e-03		7.348
4		0.00		4.00		2.679e-02		-47.863		5.035e-03		7.310
4		0.00		3.60		2.580e-02		-49.712		4.751e-03		7.358
4		0.00		3.20		2.561e-02		-51.833		4.585e-03		8.510
4		0.00		2.80		2.495e-02		-51.658		4.615e-03		8.308
4		0.00		2.40		2.522e-02		-50.338		4.531e-03		7.311
4		0.00		2.00		2.517e-02		-50.843		4.457e-03		8.162
4		0.00		1.60		2.447e-02		-48.760		4.276e-03		9.053
4		0.00		1.20		2.510e-02		-49.622		4.157e-03		8.110
4		0.00		0.80		2.467e-02		-48.746		4.221e-03		8.002
4		0.00		0.40		2.499e-02		-50.153		4.191e-03		8.607
4		0.00		0.00		2.373e-02		-50.622		4.117e-03		7.136
4		0.00		-0.40		2.298e-02		-48.699		3.969e-03		7.849
4		0.00		-0.80		2.223e-02		-49.958		3.772e-03		7.946
4		0.00		-1.20		2.078e-02		-49.621		3.689e-03		8.845
4		0.00		-1.60		1.737e-02		-48.828		3.185e-03		7.978
4		0.00		-2.00		1.520e-02		-47.506		2.920e-03		8.460
4		0.00		-2.40		1.271e-02		-46.223		2.695e-03		10.001
4		0.00		-2.80		1.080e-02		-45.880		2.366e-03		11.862
4		0.00		-3.20		7.070e-03		-50.736		2.125e-03		12.715
4		0.00		-3.60		5.180e-03		-45.138		1.919e-03		22.949
4		0.00		-4.00		3.160e-03		-23.482		1.501e-03		44.962
4		0.00		-4.40		2.942e-03		71.682		1.466e-03		64.310
4		0.00		-4.80		5.107e-03		106.621		2.311e-03		37.518
4		0.00		-5.20		6.584e-03		118.825		2.842e-03		17.859
4		0.00		-5.60		7.845e-03		125.799		2.617e-03		13.133
4		0.00		-6.00		9.850e-03		127.519		2.954e-03		11.816
4		0.00		-6.40		1.218e-02		125.054		3.295e-03		8.225
4		0.00		-6.80		1.450e-02		127.776		3.462e-03		7.886
4		0.00		-7.20		1.562e-02		128.283		3.653e-03		8.637
4		0.00		-7.60		1.708e-02		130.383		3.802e-03		8.006
4		0.00		-8.00		1.839e-02		127.139		4.171e-03		7.771
4		0.00		-8.40		1.926e-02		127.079		3.925e-03		7.542
4		0.00		-8.80		2.073e-02		126.294		4.821e-03		7.416
4		0.00		-9.20		2.073e-02		128.991		4.384e-03		7.007
4		0.00		-9.60		2.170e-02		128.464		4.964e-03		7.417
4		0.00		-10.00		2.230e-02		126.986		5.161e-03		6.982
4		0.00		-9.60		2.163e-02		126.551		5.202e-03		6.253
4		0.00		-9.20		2.132e-02		126.763		5.006e-03		7.706
4		0.00		-8.80		2.192e-02		127.522		4.893e-03		6.307
4		0.00		-8.40		2.048e-02		126.681		4.916e-03		7.010
4		0.00		-8.00		2.062e-02		126.307		5.010e-03		7.003
4		0.00		-7.60		1.950e-02		125.355		4.807e-03		6.957
4		0.00		-7.20		1.942e-02		125.851		4.421e-03		7.354
4		0.00		-6.80		1.795e-02		128.192		3.895e-03		8.622
4		0.00		-6.40		1.704e-02		126.018		3.546e-03		7.867
4		0.00		-6.00		1.594e-02		125.375		3.401e-03		8.418
4		0.00		-5.60		1.544e-02		129.821		3.235e-03		8.183
4		0.00		-5.20		1.486e-02		129.914		3.041e-03		7.684
4		0.00		-4.80		1.351e-02		124.345		2.731e-03		9.005
4		0.00		-4.40		1.252e-02		127.500		2.666e-03		9.935
4		0.00		-4.00		1.178e-02		126.784		2.612e-03		10.824
4		0.00		-3.60		1.081e-02		123.415		2.396e-03		9.962
4		0.00		-3.20		9.685e-03		126.847		2.188e-03		10.806
4		0.00		-2.80		8.861e-03		125.766		1.841e-03		9.787
4		0.00		-2.40		7.608e-03		127.591		2.089e-03		10.847
4		0.00		-2.00		7.481e-03		121.661		2.124e-03		13.025
4		0.00		-1.60		6.538e-03		129.232		1.825e-03		13.234
4		0.00		-1.20		5.847e-03		122.560		1.626e-03		15.186
4		0.00		-0.80		4.879e-03		117.327		1.531e-03		24.780
4		0.00		-0.40		4.375e-03		124.025		1.485e-03		19.934
5		0.00		0.00		3.395e-03		117.283		1.239e-03		25.734
5		0.00		0.40		3.269e-03		101.493		1.367e-03		45.930
5		0.00		0.80		2.284e-03		75.107		9.397e-04		65.517
5		0.00		1.20		2.049e-03		57.040		1.012e-03		64.749
5		0.00		1.60		1.886e-03		15.544		7.293e-04		73.120
5		0.00		2.00		1.754e-03		0.582		8.413e-04		60.897
5		0.00		2.40		2.327e-03		-48.083		9.112e-04		54.725
5		0.00		2.80		2.477e-03		-32.962		1.062e-03		43.462
5		0.00		3.20		3.445e-03		-46.827		1.280e-03		29.347
5		0.00		3.60		4.465e-03		-46.767		1.343e-03		22.370
5		0.00		4.00		5.463e-03		-50.681		1.409e-03		15.853
5		0.00		4.40		5.998e-03		-46.527		1.449e-03		17.761
5		0.00		4.80		7.397e-03		-57.343		1.722e-03		13.316
5		0.00		5.20		9.041e-03		-48.824		1.844e-03		13.123
5		0.00		5.60		1.051e-02		-47.384		2.211e-03		13.361
5		0.00		6.00		1.211e-02		-50.063		2.324e-03		11.275
5		0.00		6.40		1.522e-02		-46.806		2.985e-03		9.875
5		0.00		6.80		1.726e-02		-50.483		3.477e-03		9.863
5		0.00		7.20		1.932e-02		-49.183		3.861e-03		8.733
5		0.00		7.60		2.242e-02		-49.648		4.286e-03		8.321
5		0.00		8.00		2.503e-02		-49.768		4.643e-03		8.525
5		0.00		8.40		2.736e-02		-49.334		4.822e-03		7.879
5		0.00		8.80		2.960e-02		-50.636		4.963e-03		7.910
5		0.00		9.20		3.288e-02		-50.407		5.701e-03		6.683
5		0.00		9.60		3.445e-02		-50.571		5.698e-03		7.009
5		0.00		10.00		3.735e-02		-50.771		6.198e-03		7.060
5		0.00		9.60		3.773e-02		-49.905		6.559e-03		6.840
5		0.00		9.20		3.696e-02		-50.548		6.432e-03		6.930
5		0.00		8.80		3.645e-02		-49.336		6.356e-03		6.914
5		0.00		8.40		3.533e-02		-49.579		5.941e-03		6.921
5		0.00		8.00		3.455e-02		-50.216		5.922e-03		6.371
5		0.00		7.60		3.371e-02		-50.184		6.123e-03		6.343
5		0.00		7.20		3.241e-02		-49.110		5.806e-03		6.436
5		0.00		6.80		3.023e-02		-50.092		5.545e-03		6.049
5		0.00		6.40		2.991e-02		-48.556		5.252e-03		6.897
5		0.00		6.00		2.940e-02		-50.343		5.125e-03		6.316
5		0.00		5.60		2.879e-02		-49.163		5.152e-03		6.309
5		0.00		5.20		2.805e-02		-49.353		5.404e-03		6.023
5		0.00		4.80		2.734e-02		-48.763		5.120e-03		5.724
5		0.00		4.40		2.694e-02		-50.286		5.232e-03		6.112
5		0.00		4.00		2.611e-02		-49.673		4.893e-03		5.882
5		0.00		3.60		2.580e-02		-49.803		4.945e-03		6.260
5		0.00		3.20		2.595e-02		-50.090		5.090e-03		6.487
5		0.00		2.80		2.543e-02		-50.503		5.232e-03		6.719
5		0.00		2.40		2.534e-02		-49.779		4.945e-03		6.576
5		0.00		2.00		2.476e-02		-49.286		5.222e-03		5.640
5		0.00		1.60		2.428e-02		-49.558		5.362e-03		6.616
5		0.00		1.20		2.427e-02		-51.028		5.535e-03		7.969
5		0.00		0.80		2.395e-02		-50.939		5.586e-03		8.380
5		0.00		0.40		2.380e-02		-50.782		5.996e-03		8.637
5		0.00		0.00		2.258e-02		-49.318		6.134e-03		7.654
5		0.00		-0.40		2.169e-02		-51.737		5.706e-03		9.604
5		0.00		-0.80		2.031e-02		-49.610		5.566e-03		10.212
5		0.00		-1.20		1.821e-02		-48.720		5.013e-03		11.976
5		0.00		-1.60		1.647e-02		-50.756		4.531e-03		12.020
5		0.00		-2.00		1.516e-02		-49.858		4.189e-03		11.902
5		0.00		-2.40		1.234e-02		-48.913		3.718e-03		13.563
5		0.00		-2.80		1.006e-02		-49.131		2.956e-03		12.246
5		0.00		-3.20		7.774e-03		-52.330		2.491e-03		14.495
5		0.00		-3.60		5.571e-03		-39.950		2.374e-03		21.834
5		0.00		-4.00		3.490e-03		-38.935		1.499e-03		42.207
5		0.00		-4.40		2.293e-03		1.944		9.710e-04		65.754
5		0.00		-4.80		2.908e-03		64.685		1.580e-03		69.997
5		0.00		-5.20		4.458e-03		101.006		2.230e-03		54.763
5		0.00		-5.60		5.961e-03		118.885		2.237e-03		26.270
5		0.00		-6.00		8.196e-03		122.045		2.823e-03		21.951
5		0.00		-6.40		1.002e-02		123.700		2.884e-03		17.568
5		0.00		-6.80		1.247e-02		127.596		3.535e-03		14.781
5		0.00		-7.20		1.377e-02		125.045		3.934e-03		12.440
5		0.00		-7.60		1.490e-02		127.021		4.245e-03		11.216
5		0.00		-8.00		1.631e-02		127.691		4.248e-03		8.400
5		0.00		-8.40		1.758e-02		126.551		4.474e-03		8.206
5		0.00		-8.80		1.937e-02		127.550		5.022e-03		7.155
5		0.00		-9.20		2.105e-02		126.952		5.050e-03		6.869
5		0.00		-9.60		2.086e-02		128.515		4.997e-03		7.729
5		0.00		-10.00		2.199e-02		127.461		5.176e-03		6.818
5		0.00		-9.60		2.124e-02		126.746		5.375e-03		6.750
5		0.00		-9.20		2.109e-02		127.275		4.820e-03		7.749
5		0.00		-8.80		2.083e-02		126.426		4.510e-03		7.464
5		0.00		-8.40		2.071e-02		126.585		4.647e-03		8.058
5		0.00		-8.00		2.045e-02		127.531		4.315e-03		7.197
5		0.00		-7.60		1.970e-02		125.791		4.242e-03		6.965
5		0.00		-7.20		1.893e-02		127.241		4.349e-03		8.063
5		0.00		-6.80		1.798e-02		126.821		3.785e-03		7.696
5		0.00		-6.40		1.680e-02		125.978		3.596e-03		7.829
5		0.00		-6.00		1.605e-02		126.379		3.253e-03		9.172
5		0.00		-5.60		1.469e-02		127.304		3.274e-03		9.063
5		0.00		-5.20		1.405e-02		127.639		3.014e-03		9.328
5		0.00		-4.80		1.271e-02		125.831		2.915e-03		9.537
5		0.00		-4.40		1.203e-02		124.631		2.865e-03		9.744
5		0.00		-4.00		1.087e-02		125.357		2.668e-03		11.202
5		0.00		-3.60		1.044e-02		125.418		2.619e-03		12.044
5		0.00		-3.20		1.027e-02		126.201		2.951e-03		10.529
5		0.00		-2.80		8.848e-03		122.830		2.467e-03		12.459
5		0.00		-2.40		8.173e-03		124.611		2.126e-03		11.223
5		0.00		-2.00		7.155e-03		128.085		1.978e-03		14.135
5		0.00		-1.60		6.548e-03		121.328		2.257e-03		18.309
5		0.00		-1.20		5.852e-03		120.960		1.978e-03		15.731
5		0.00		-0.80		5.573e-03		121.773		1.901e-03		20.654
5		0.00		-0.40		4.643e-03		112.021		1.613e-03		27.336
6		0.00		0.00		3.755e-03		106.032		1.440e-03		42.402
6		0.00		0.40		3.312e-03		99.108		1.246e-03		41.244
6		0.00		0.80		2.832e-03		91.434		1.221e-03		48.204
6		0.00		1.20		2.196e-03		72.420		9.615e-04		61.467
6		0.00		1.60		1.933e-03		27.374		8.097e-04		77.824
6		0.00		2.00		2.056e-03		-2.198		9.011e-04		69.284
6		0.00		2.40		2.105e-03		-14.650		9.172e-04		58.790
6		0.00		2.80		2.551e-03		-33.023		1.019e-03		42.320
6		0.00		3.20		3.025e-03		-24.922		1.280e-03		35.952
6		0.00		3.60		3.953e-03		-51.619		1.406e-03		25.873
6		0.00		4.00		4.932e-03		-52.597		1.365e-03		20.447
6		0.00		4.40		5.882e-03		-47.454		1.593e-03		19.200
6		0.00		4.80		7.086e-03		-50.007		1.786e-03		14.935
6		0.00		5.20		8.566e-03		-51.562		1.735e-03		12.424
6		0.00		5.60		1.039e-02		-50.528		2.091e-03		11.678
6		0.00		6.00		1.198e-02		-49.994		2.047e-03		10.250
6		0.00		6.40		1.482e-02		-47.268		2.579e-03		9.930
6		0.00		6.80		1.803e-02		-49.985		3.120e-03		7.834
6		0.00		7.20		1.963e-02		-47.008		3.244e-03		7.704
6		0.00		7.60		2.267e-02		-50.038		3.585e-03		7.456
6		0.00		8.00		2.715e-02		-49.157		4.642e-03		6.807
6		0.00		8.40		2.976e-02		-50.251		5.431e-03		6.570
6		0.00		8.80		3.082e-02		-50.309		6.045e-03		5.905
6		0.00		9.20		3.335e-02		-51.046		7.194e-03		6.495
6		0.00		9.60		3.561e-02		-50.845		8.260e-03		6.071
6		0.00		10.00		3.615e-02		-51.415		9.454e-03		6.102
6		0.00		9.60		3.598e-02		-52.026		1.030e-02		10.182
6		0.00		9.20		3.473e-02		-52.563		9.879e-03		10.548
6		0.00		8.80		3.322e-02		-52.250		9.360e-03		12.496
6		0.00		8.40		3.192e-02		-52.746		9.101e-03		14.693
6		0.00		8.00		3.170e-02		-51.267		8.498e-03		11.770
6		0.00		7.60		3.126e-02		-50.443		8.392e-03		12.208
6		0.00		7.20		3.138e-02		-50.530		7.964e-03		8.719
6		0.00		6.80		3.053e-02		-48.883		7.294e-03		8.257
6		0.00		6.40		2.970e-02		-49.065		6.419e-03		8.288
6		0.00		6.00		2.999e-02		-50.352		5.567e-03		8.286
6		0.00		5.60		2.937e-02		-50.622		5.316e-03		8.102
6		0.00		5.20		2.919e-02		-49.041		4.886e-03		7.274
6		0.00		4.80		2.870e-02		-49.953		4.713e-03		7.574
6		0.00		4.40		2.833e-02		-48.944		4.708e-03		6.956
6		0.00		4.00		2.786e-02		-49.846		4.594e-03		6.859
6		0.00		3.60		2.783e-02		-48.041		4.571e-03		6.800
6		0.00		3.20		2.712e-02		-49.015		4.378e-03		6.882
6		0.00		2.80		2.611e-02		-48.710		4.521e-03		7.202
6		0.00		2.40		2.540e-02		-48.355		4.856e-03		6.602
6		0.00		2.00		2.482e-02		-49.135		4.862e-03		6.809
6		0.00		1.60		2.434e-02		-49.854		5.211e-03		7.124
6		0.00		1.20		2.417e-02		-50.397		5.296e-03		6.974
6		0.00		0.80		2.400e-02		-51.129		5.568e-03		7.388
6		0.00		0.40		2.347e-02		-50.007		5.469e-03		7.694
6		0.00		0.00		2.268e-02		-51.253		5.577e-03		9.586
6		0.00		-0.40		2.246e-02		-51.240		5.572e-03		9.051
6		0.00		-0.80		2.133e-02		-49.840		5.505e-03		9.246
6		0.00		-1.20		1.979e-02		-48.117		4.748e-03		9.716
6		0.00		-1.60		1.758e-02		-48.927		4.271e-03		10.495
6		0.00		-2.00		1.557e-02		-47.878		4.038e-03		9.631
6		0.00		-2.40		1.312e-02		-46.799		3.235e-03		13.652
6		0.00		-2.80		1.052e-02		-47.799		3.043e-03		16.575
6		0.00		-3.20		8.346e-03		-43.733		2.724e-03		15.536
6		0.00		-3.60		5.113e-03		-44.052		1.987e-03		23.877
6		0.00		-4.00		3.078e-03		-25.151		1.507e-03		46.339
6		0.00		-4.40		2.192e-03		3.530		1.059e-03		71.194
6		0.00		-4.80		2.563e-03		63.106		1.327e-03		64.435
6		0.00		-5.20		3.841e-03		89.084		2.163e-03		44.166
6		0.00		-5.60		7.215e-03		118.294		2.810e-03		21.703
6		0.00		-6.00		8.569e-03		124.323		2.968e-03		15.985
6		0.00		-6.40		1.012e-02		122.385		3.215e-03		14.063
6		0.00		-6.80		1.249e-02		125.243		3.510e-03		12.853
6		0.00		-7.20		1.321e-02		129.718		3.605e-03		10.943
6		0.00		-7.60		1.624e-02		127.506		4.446e-03		9.762
6		0.00		-8.00		1.690e-02		127.206		4.700e-03		8.889
6		0.00		-8.40		1.805e-02		127.481		4.834e-03		8.570
6		0.00		-8.80		1.932e-02		127.000		4.474e-03		7.612
6		0.00		-9.20		1.994e-02		126.125		4.599e-03		8.340
6		0.00		-9.60		2.116e-02		128.999		4.489e-03		8.067
6		0.00		-10.00		2.167e-02		128.846		4.585e-03		7.418
6		0.00		-9.60		2.222e-02		127.250		4.466e-03		6.887
6		0.00		-9.20		2.088e-02		129.246		4.353e-03		7.739
6		0.00		-8.80		2.143e-02		126.350		4.246e-03		6.826
6		0.00		-8.40		2.113e-02		127.614		4.228e-03		7.383
6		0.00		-8.00		2.064e-02		126.486		4.177e-03		6.977
6		0.00		-7.60		1.988e-02		129.078		4.315e-03		8.054
6		0.00		-7.20		1.865e-02		127.279		3.971e-03		7.056
6		0.00		-6.80		1.734e-02		129.037		3.986e-03		7.467
6		0.00		-6.40		1.655e-02		127.133		4.104e-03		7.360
6		0.00		-6.00		1.530e-02		125.900		3.817e-03		8.435
6		0.00		-5.60		1.428e-02		125.651		3.662e-03		9.702
6		0.00		-5.20		1.335e-02		127.826		3.861e-03		10.307
6		0.00		-4.80		1.256e-02		124.944		3.576e-03		10.812
6		0.00		-4.40		1.175e-02		123.434		3.559e-03		13.956
6		0.00		-4.00		1.058e-02		123.535		3.226e-03		18.845
6		0.00		-3.60		9.941e-03		123.608		3.022e-03		18.497
6		0.00		-3.20		9.097e-03		123.182		2.747e-03		13.376
6		0.00		-2.80		7.876e-03		118.366		2.228e-03		20.122
6		0.00		-2.40		7.330e-03		117.958		2.187e-03		17.711
6		0.00		-2.00		6.618e-03		122.789		1.969e-03		18.403
6		0.00		-1.60		6.094e-03		119.974		1.768e-03		15.676
6		0.00		-1.20		5.138e-03		117.054		1.580e-03		21.552
6		0.00		-0.80		4.414e-03		116.454		1.702e-03		29.499
6		0.00		-0.40		3.103e-03		98.611		1.243e-03		44.780
7		0.00		0.00		3.166e-03		104.574		1.382e-03		36.909
7		0.00		0.40		2.677e-03		74.394		1.203e-03		54.428
7		0.00		0.80		2.126e-03		62.324		1.031e-03		76.970
7		0.00		1.20		1.787e-03		15.724		8.042e-04		66.449
7		0.00		1.60		1.977e-03		9.283		8.545e-04		66.960
7		0.00		2.00		2.064e-03		-22.109		8.942e-04		68.347
7		0.00		2.40		2.193e-03		-29.883		1.043e-03		47.169
7		0.00		2.80		2.905e-03		-48.744		1.268e-03		34.447
7		0.00		3.20		3.831e-03		-46.695		1.395e-03		29.391
7		0.00		3.60		4.400e-03		-51.908		1.320e-03		25.557
7		0.00		4.00		5.600e-03		-50.747		1.581e-03		17.970
7		0.00		4.40		6.338e-03		-43.880		1.778e-03		16.424
7		0.00		4.80		7.979e-03		-45.949		1.824e-03		15.669
7		0.00		5.20		8.626e-03		-50.823		1.823e-03		13.909
7		0.00		5.60		1.022e-02		-47.142		2.115e-03		10.235
7		0.00		6.00		1.175e-02		-51.029		2.339e-03		11.860
7		0.00		6.40		1.383e-02		-47.776		2.602e-03		9.240
7		0.00		6.80		1.648e-02		-49.933		3.592e-03		8.037
7		0.00		7.20		1.865e-02		-48.479		4.651e-03		8.888
7		0.00		7.60		2.219e-02		-49.716		5.997e-03		8.232
7		0.00		8.00		2.397e-02		-50.998		6.699e-03		10.153
7		0.00		8.40		2.622e-02		-50.428		7.277e-03		13.760
7		0.00		8.80		2.747e-02		-52.621		7.848e-03		17.025
7		0.00		9.20		3.052e-02		-48.875		8.231e-03		11.324
7		0.00		9.60		3.200e-02		-49.487		8.158e-03		10.000
7		0.00		10.00		3.412e-02		-49.629		8.227e-03		7.469
7		0.00		9.60		3.449e-02		-49.711		7.574e-03		5.706
7		0.00		9.20		3.489e-02		-50.030		7.073e-03		6.843
7		0.00		8.80		3.434e-02		-50.474		6.092e-03		8.056
7		0.00		8.40		3.361e-02		-49.221		5.964e-03		6.665
7		0.00		8.00		3.223e-02		-48.870		5.724e-03		7.071
7		0.00		7.60		3.173e-02		-48.726		6.023e-03		6.183
7		0.00		7.20		3.169e-02		-50.329		6.758e-03		6.371
7		0.00		6.80		3.050e-02		-50.153		7.135e-03		7.433
7		0.00		6.40		2.989e-02		-50.275		7.482e-03		8.187
7		0.00		6.00		2.855e-02		-50.981		7.077e-03		11.013
7		0.00		5.60		2.772e-02		-52.925		7.349e-03		13.567
7		0.00		5.20		2.634e-02		-49.970		6.982e-03		10.169
7		0.00		4.80		2.517e-02		-49.218		6.730e-03		10.231
7		0.00		4.40		2.511e-02		-49.772		6.158e-03		7.893
7		0.00		4.00		2.460e-02		-49.838		5.553e-03		8.906
7		0.00		3.60		2.401e-02		-50.319		5.025e-03		7.827
7		0.00		3.20		2.420e-02		-50.214		4.679e-03		7.408
7		0.00		2.80		2.357e-02		-50.704		4.454e-03		7.456
7		0.00		2.40		2.328e-02		-50.171		4.597e-03		7.810
7		0.00		2.00		2.297e-02		-48.753		4.799e-03		7.525
7		0.00		1.60		2.310e-02		-49.008		4.883e-03		7.385
7		0.00		1.20		2.272e-02		-51.247		5.320e-03		7.732
7		0.00		0.80		2.235e-02		-49.874		5.194e-03		8.980
7		0.00		0.40		2.251e-02		-50.334		5.522e-03		11.725
7		0.00		0.00		2.244e-02		-49.438		5.340e-03		10.839
7		0.00		-0.40		2.179e-02		-48.313		4.936e-03		8.577
7		0.00		-0.80		2.085e-02		-47.672		4.272e-03		8.442
7		0.00		-1.20		2.026e-02		-46.486		3.720e-03		7.980
7		0.00		-1.60		1.815e-02		-48.319		3.003e-03		8.342
7		0.00		-2.00		1.653e-02		-48.978		3.183e-03		8.658
7		0.00		-2.40		1.381e-02		-45.810		2.600e-03		8.545
7		0.00		-2.80		1.149e-02		-47.492		2.705e-03		11.511
7		0.00		-3.20		8.258e-03		-46.200		2.709e-03		12.907
7		0.00		-3.60		6.450e-03		-44.112		2.474e-03		16.715
7		0.00		-4.00		3.981e-03		-41.897		1.700e-03		30.289
7		0.00		-4.40		2.846e-03		-9.298		1.399e-03		59.288
7		0.00		-4.80		2.605e-03		52.958		1.334e-03		56.969
7		0.00		-5.20		4.126e-03		95.478		2.391e-03		46.835
7		0.00		-5.60		6.496e-03		120.445		2.554e-03		25.784
7		0.00		-6.00		8.091e-03		122.050		2.626e-03		12.665
7		0.00		-6.40		1.017e-02		124.580		3.342e-03		9.555
7		0.00		-6.80		1.217e-02		130.055		3.675e-03		8.569
7		0.00		-7.20		1.352e-02		128.486		3.691e-03		8.554
7		0.00		-7.60		1.524e-02		127.481		4.176e-03		7.774
7		0.00		-8.00		1.678e-02		126.973		4.585e-03		10.014
7		0.00		-8.40		1.706e-02		124.835		4.872e-03		18.354
7		0.00		-8.80		1.858e-02		125.264		4.903e-03		18.282
7		0.00		-9.20		2.033e-02		124.530		5.435e-03		11.511
7		0.00		-9.60		2.018e-02		128.169		5.624e-03		9.549
7		0.00		-10.00		2.112e-02		127.459		5.470e-03		6.189
7		0.00		-9.60		2.061e-02		127.398		4.994e-03		7.502
7		0.00		-9.20		2.081e-02		126.296		4.853e-03		7.826
7		0.00		-8.80		2.079e-02		128.076		5.251e-03		7.909
7		0.00		-8.40		2.030e-02		127.112		5.265e-03		8.384
7		0.00		-8.00		1.979e-02		129.092		5.580e-03		7.076
7		0.00		-7.60		1.877e-02		124.227		5.686e-03		14.818
7		0.00		-7.20		1.772e-02		125.370		5.026e-03		15.638
7		0.00		-6.80		1.697e-02		123.082		4.596e-03		18.547
7		0.00		-6.40		1.614e-02		126.152		4.170e-03		11.655
7		0.00		-6.00		1.512e-02		126.929		3.791e-03		8.660
7		0.00		-5.60		1.453e-02		126.845		3.608e-03		8.230
7		0.00		-5.20		1.386e-02		126.356		3.040e-03		8.342
7		0.00		-4.80		1.271e-02		126.175		2.969e-03		9.090
7		0.00		-4.40		1.160e-02		128.816		2.587e-03		8.531
7		0.00		-4.00		1.110e-02		127.782		2.772e-03		11.005
7		0.00		-3.60		9.713e-03		124.285		2.690e-03		12.305
7		0.00		-3.20		8.750e-03		121.175		2.735e-03		16.375
7		0.00		-2.80		7.935e-03		118.718		2.530e-03		22.922
7		0.00		-2.40		6.990e-03		116.371		2.246e-03		24.982
7		0.00		-2.00		6.247e-03		117.980		2.039e-03		23.914
7		0.00		-1.60		5.788e-03		116.189		2.021e-03		31.594
7		0.00		-1.20		5.007e-03		121.428		1.719e-03		21.041
7		0.00		-0.80		4.241e-03		110.624		1.556e-03		31.860
7		0.00		-0.40		3.724e-03		108.722		1.479e-03		28.315
8		0.00		0.00		3.066e-03		104.043		9.742e-04		46.853
8		0.00		0.40		2.712e-03		85.558		1.125e-03		70.423
8		0.00		0.80		2.167e-03		63.079		1.085e-03		67.636
8		0.00		1.20		1.916e-03		27.920		8.309e-04		76.222
8		0.00		1.60		1.881e-03		20.998		6.409e-04		75.677
8		0.00		2.00		1.911e-03		-8.713		8.146e-04		63.244
8		0.00		2.40		2.208e-03		-41.148		9.041e-04		48.272
8		0.00		2.80		2.913e-03		-54.334		1.219e-03		35.708
8		0.00		3.20		3.687e-03		-44.232		1.347e-03		29.809
8		0.00		3.60		4.160e-03		-49.086		1.536e-03		23.556
8		0.00		4.00		5.214e-03		-47.666		1.706e-03		22.625
8		0.00		4.40		5.937e-03		-43.261		1.647e-03		14.498
8		0.00		4.80		7.434e-03		-44.946		2.034e-03		17.429
8		0.00		5.20		9.173e-03		-48.064		1.966e-03		12.164
8		0.00		5.60		1.018e-02		-46.799		2.111e-03		11.746
8		0.00		6.00		1.225e-02		-46.055		2.513e-03		13.545
8		0.00		6.40		1.383e-02		-49.113		2.953e-03		9.732
8		0.00		6.80		1.619e-02		-48.670		3.591e-03		8.469
8		0.00		7.20		1.768e-02		-49.376		4.018e-03		8.065
8		0.00		7.60		2.023e-02		-47.722		4.841e-03		9.653
8		0.00		8.00		2.301e-02		-50.599		5.658e-03		8.806
8		0.00		8.40		2.573e-02		-50.318		6.333e-03		9.334
8		0.00		8.80		2.800e-02		-50.710		7.203e-03		10.594
8		0.00		9.20		3.069e-02		-52.283		7.660e-03		13.444
8		0.00		9.60		3.186e-02		-52.091		8.501e-03		14.244
8		0.00		10.00		3.326e-02		-51.407		8.951e-03		15.510
8		0.00		9.60		3.472e-02		-50.862		9.000e-03		10.896
8		0.00		9.20		3.325e-02		-51.057		8.367e-03		10.166
8		0.00		8.80		3.283e-02		-49.648		8.494e-03		9.837
8		0.00		8.40		3.172e-02		-48.453		7.755e-03		7.116
8		0.00		8.00		3.211e-02		-49.338		7.359e-03		8.280
8		0.00		7.60		3.111e-02		-49.324		7.087e-03		7.047
8		0.00		7.20		3.122e-02		-49.166		6.552e-03		6.590
8		0.00		6.80		3.060e-02		-51.040		6.097e-03		6.067
8		0.00		6.40		3.042e-02		-50.034		6.069e-03		6.373
8		0.00		6.00		2.976e-02		-48.995		5.685e-03		6.782
8		0.00		5.60		2.958e-02		-49.560		5.537e-03		6.779
8		0.00		5.20		2.938e-02		-48.653		5.289e-03		6.659
8		0.00		4.80		2.898e-02		-48.598		5.043e-03		6.803
8		0.00		4.40		2.887e-02		-50.063		5.337e-03		7.313
8		0.00		4.00		2.810e-02		-49.570		5.197e-03		6.293
8		0.00		3.60		2.736e-02		-49.487		5.563e-03		6.541
8		0.00		3.20		2.687e-02		-48.531		5.673e-03		6.432
8		0.00		2.80		2.611e-02		-49.454		6.033e-03		7.967
8		0.00		2.40		2.650e-02		-49.321		6.463e-03		6.585
8		0.00		2.00		2.597e-02		-49.754		6.235e-03		6.983
8		0.00		1.60		2.545e-02		-50.866		6.703e-03		10.585
8		0.00		1.20		2.543e-02		-52.149		6.910e-03		11.158
8		0.00		0.80		2.433e-02		-52.312		6.889e-03		13.656
8		0.00		0.40		2.418e-02		-52.568		6.816e-03		12.694
8		0.00		0.00		2.372e-02		-50.324		6.600e-03		13.186
8		0.00		-0.40		2.322e-02		-50.244		6.179e-03		9.330
8		0.00		-0.80		2.276e-02		-49.793		6.149e-03		8.680
8		0.00		-1.20		2.052e-02		-46.998		5.586e-03		11.297
8		0.00		-1.60		1.888e-02		-49.387		5.025e-03		8.939
8		0.00		-2.00		1.734e-02		-48.293		4.378e-03		9.530
8		0.00		-2.40		1.528e-02		-46.148		3.416e-03		9.165
8		0.00		-2.80		1.245e-02		-46.175		2.995e-03		11.319
8		0.00		-3.20		9.261e-03		-46.308		2.312e-03		12.956
8		0.00		-3.60		6.748e-03		-40.794		2.247e-03		18.621
8		0.00		-4.00		4.187e-03		-44.094		1.555e-03		27.489
8		0.00		-4.40		2.497e-03		-13.609		1.054e-03		65.725
8		0.00		-4.80		2.890e-03		71.144		1.545e-03		66.846
8		0.00		-5.20		4.364e-03		106.637		2.063e-03		36.694
8		0.00		-5.60		5.831e-03		117.562		2.582e-03		26.806
8		0.00		-6.00		7.846e-03		122.755		2.556e-03		17.706
8		0.00		-6.40		9.517e-03		126.627		3.118e-03		12.331
8		0.00		-6.80		1.150e-02		125.465		3.651e-03		13.185
8		0.00		-7.20		1.348e-02		126.221		3.893e-03		8.328
8		0.00		-7.60		1.393e-02		127.161		3.709e-03		8.578
8		0.00		-8.00		1.604e-02		128.187		4.363e-03		8.962
8		0.00		-8.40		1.806e-02		127.484		4.719e-03		7.766
8		0.00		-8.80		1.909e-02		127.496		5.237e-03		7.641
8		0.00		-9.20		1.934e-02		128.036		5.159e-03		8.931
8		0.00		-9.60		1.969e-02		127.207		5.144e-03		9.587
8		0.00		-10.00		2.078e-02		126.800		5.497e-03		9.320
8		0.00		-9.60		1.995e-02		126.484		5.413e-03		7.764
8		0.00		-9.20		2.045e-02		126.896		5.318e-03		9.038
8		0.00		-8.80		2.077e-02		125.806		5.389e-03		11.117
8		0.00		-8.40		2.017e-02		125.284		5.234e-03		13.937
8		0.00		-8.00		1.996e-02		126.440		5.162e-03		14.749
8		0.00		-7.60		1.914e-02		124.821		5.041e-03		15.856
8		0.00		-7.20		1.786e-02		125.668		4.568e-03		16.294
8		0.00		-6.80		1.706e-02		123.261		4.538e-03		17.383
8		0.00		-6.40		1.616e-02		122.965		4.602e-03		16.233
8		0.00		-6.00		1.498e-02		126.753		4.427e-03		16.480
8		0.00		-5.60		1.360e-02		121.901		4.093e-03		14.609
8		0.00		-5.20		1.267e-02		123.497		3.916e-03		12.053
8		0.00		-4.80		1.235e-02		122.016		3.652e-03		12.816
8		0.00		-4.40		1.183e-02		125.662		3.612e-03		10.290
8		0.00		-4.00		1.060e-02		125.635		3.203e-03		8.939
8		0.00		-3.60		9.992e-03		127.591		2.980e-03		10.710
8		0.00		-3.20		8.867e-03		124.661		2.710e-03		12.388
8		0.00		-2.80		8.085e-03		123.631		2.387e-03		13.979
8		0.00		-2.40		7.887e-03		127.478		2.066e-03		12.274
8		0.00		-2.00		6.936e-03		120.529		1.897e-03		19.757
8		0.00		-1.60		6.112e-03		120.775		1.932e-03		16.082
8		0.00		-1.20		5.371e-03		124.271		1.795e-03		19.226
8		0.00		-0.80		4.854e-03		124.791		1.619e-03		19.217
8		0.00		-0.40		4.617e-03		116.809		1.600e-03		23.048
