# Date of analysis: 2024-03-08 10;58
# Segment other properties: height: -21.045419110954178, diff height: 240.68140458164584, deflection: 35.87590830375909, deflection error: 7.207983956627508, adhesion: 27.419009375820227, phase offset: 0
# 
# Loop index	Read Volt (V)	Write Volt (V)	Amplitude (a.u)	Phase (deg)	Sigma Amp (a.u)	Sigma Pha (deg)	
1		0.00		0.00		7.020e-03		-51.072		3.099e-03		32.373
1		0.00		0.40		7.005e-03		-54.523		2.996e-03		27.807
1		0.00		0.80		7.178e-03		-62.101		2.688e-03		23.037
1		0.00		1.20		6.954e-03		-56.760		2.470e-03		25.030
1		0.00		1.60		8.016e-03		-58.224		2.826e-03		21.829
1		0.00		2.00		8.320e-03		-59.542		2.824e-03		17.207
1		0.00		2.40		8.814e-03		-57.385		3.468e-03		20.953
1		0.00		2.80		9.333e-03		-57.710		3.680e-03		18.723
1		0.00		3.20		1.013e-02		-53.485		3.972e-03		22.292
1		0.00		3.60		1.214e-02		-49.011		4.870e-03		30.964
1		0.00		4.00		1.341e-02		-44.290		5.408e-03		40.205
1		0.00		4.40		1.548e-02		-47.243		6.129e-03		35.299
1		0.00		4.80		1.805e-02		-56.033		7.115e-03		30.034
1		0.00		5.20		2.128e-02		-56.860		8.310e-03		28.313
1		0.00		5.60		2.381e-02		-56.660		9.242e-03		23.592
1		0.00		6.00		2.835e-02		-54.982		1.041e-02		21.058
1		0.00		6.40		3.188e-02		-56.594		1.098e-02		19.153
1		0.00		6.80		3.580e-02		-52.998		1.204e-02		19.406
1		0.00		7.20		3.949e-02		-53.538		1.312e-02		15.966
1		0.00		7.60		4.377e-02		-48.212		1.499e-02		12.594
1		0.00		8.00		4.488e-02		-44.890		1.606e-02		12.032
1		0.00		8.40		4.485e-02		-45.238		1.732e-02		15.697
1		0.00		8.80		4.739e-02		-47.547		1.929e-02		16.436
1		0.00		9.20		4.896e-02		-48.494		2.181e-02		27.393
1		0.00		9.60		5.106e-02		-42.097		2.291e-02		37.050
1		0.00		10.00		5.045e-02		-35.000		2.281e-02		40.666
1		0.00		9.60		5.195e-02		-30.375		2.167e-02		42.981
1		0.00		9.20		5.042e-02		-29.677		2.072e-02		46.350
1		0.00		8.80		4.877e-02		-37.450		1.917e-02		35.534
1		0.00		8.40		4.697e-02		-48.994		1.732e-02		25.973
1		0.00		8.00		4.665e-02		-46.626		1.605e-02		20.162
1		0.00		7.60		4.729e-02		-49.494		1.493e-02		18.089
1		0.00		7.20		4.637e-02		-48.618		1.375e-02		16.700
1		0.00		6.80		4.412e-02		-48.535		1.295e-02		18.321
1		0.00		6.40		4.389e-02		-48.976		1.208e-02		15.298
1		0.00		6.00		4.312e-02		-50.597		1.360e-02		13.138
1		0.00		5.60		4.231e-02		-48.874		1.390e-02		11.393
1		0.00		5.20		4.044e-02		-49.432		1.416e-02		12.451
1		0.00		4.80		3.940e-02		-48.190		1.476e-02		11.834
1		0.00		4.40		3.822e-02		-49.079		1.546e-02		13.056
1		0.00		4.00		3.628e-02		-48.601		1.515e-02		14.981
1		0.00		3.60		3.595e-02		-44.704		1.483e-02		18.675
1		0.00		3.20		3.431e-02		-42.413		1.427e-02		29.626
1		0.00		2.80		3.428e-02		-41.395		1.374e-02		37.248
1		0.00		2.40		3.397e-02		-44.147		1.311e-02		25.034
1		0.00		2.00		3.352e-02		-39.362		1.222e-02		33.472
1		0.00		1.60		3.330e-02		-41.339		1.158e-02		28.607
1		0.00		1.20		3.316e-02		-52.880		1.139e-02		28.675
1		0.00		0.80		3.257e-02		-49.995		1.111e-02		30.135
1		0.00		0.40		3.013e-02		-53.509		1.019e-02		30.196
1		0.00		0.00		2.924e-02		-52.547		9.811e-03		25.331
1		0.00		-0.40		2.675e-02		-51.797		8.935e-03		22.255
1		0.00		-0.80		2.423e-02		-51.437		8.112e-03		19.248
1		0.00		-1.20		2.149e-02		-50.737		7.263e-03		15.909
1		0.00		-1.60		1.706e-02		-51.278		6.660e-03		15.808
1		0.00		-2.00		1.379e-02		-52.647		6.659e-03		14.583
1		0.00		-2.40		8.885e-03		-42.682		5.693e-03		39.179
1		0.00		-2.80		6.746e-03		11.851		3.850e-03		66.592
1		0.00		-3.20		7.215e-03		46.297		3.081e-03		69.826
1		0.00		-3.60		7.988e-03		64.370		3.564e-03		73.192
1		0.00		-4.00		1.072e-02		79.843		5.336e-03		69.860
1		0.00		-4.40		1.295e-02		86.512		6.900e-03		67.867
1		0.00		-4.80		1.551e-02		102.715		8.095e-03		56.648
1		0.00		-5.20		1.905e-02		112.153		9.219e-03		42.653
1		0.00		-5.60		2.181e-02		118.695		9.844e-03		34.372
1		0.00		-6.00		2.476e-02		121.364		1.032e-02		34.127
1		0.00		-6.40		2.758e-02		125.557		1.128e-02		25.225
1		0.00		-6.80		2.850e-02		126.508		1.130e-02		18.570
1		0.00		-7.20		2.968e-02		130.222		1.123e-02		16.966
1		0.00		-7.60		3.072e-02		127.854		1.127e-02		15.075
1		0.00		-8.00		3.238e-02		129.131		1.162e-02		14.024
1		0.00		-8.40		3.458e-02		129.480		1.247e-02		11.645
1		0.00		-8.80		3.587e-02		130.314		1.309e-02		13.006
1		0.00		-9.20		3.444e-02		133.339		1.301e-02		13.270
1		0.00		-9.60		3.483e-02		130.994		1.323e-02		11.168
1		0.00		-10.00		3.452e-02		131.994		1.397e-02		11.520
1		0.00		-9.60		3.453e-02		132.326		1.423e-02		12.255
1		0.00		-9.20		3.393e-02		131.090		1.437e-02		13.082
1		0.00		-8.80		3.381e-02		129.817		1.423e-02		14.952
1		0.00		-8.40		3.365e-02		130.124		1.454e-02		14.595
1		0.00		-8.00		3.394e-02		129.727		1.476e-02		18.724
1		0.00		-7.60		3.186e-02		128.025		1.379e-02		21.153
1		0.00		-7.20		3.167e-02		127.635		1.372e-02		23.912
1		0.00		-6.80		3.110e-02		125.669		1.280e-02		22.675
1		0.00		-6.40		3.023e-02		127.243		1.224e-02		23.363
1		0.00		-6.00		2.943e-02		126.703		1.221e-02		24.991
1		0.00		-5.60		2.810e-02		121.125		1.139e-02		40.510
1		0.00		-5.20		2.643e-02		120.352		1.075e-02		42.458
1		0.00		-4.80		2.549e-02		115.663		1.067e-02		48.688
1		0.00		-4.40		2.404e-02		118.576		9.970e-03		44.059
1		0.00		-4.00		2.298e-02		118.564		9.392e-03		40.504
1		0.00		-3.60		2.222e-02		118.140		9.144e-03		39.976
1		0.00		-3.20		2.038e-02		118.727		8.693e-03		34.747
1		0.00		-2.80		1.969e-02		115.015		8.584e-03		38.306
1		0.00		-2.40		1.860e-02		108.124		8.094e-03		44.680
1		0.00		-2.00		1.723e-02		113.141		7.855e-03		39.016
1		0.00		-1.60		1.633e-02		110.294		7.335e-03		42.600
1		0.00		-1.20		1.552e-02		109.733		6.793e-03		38.420
1		0.00		-0.80		1.485e-02		111.527		6.319e-03		40.413
1		0.00		-0.40		1.410e-02		113.565		5.980e-03		36.408
2		0.00		0.00		1.319e-02		113.885		5.432e-03		33.114
2		0.00		0.40		1.257e-02		115.844		4.995e-03		32.028
2		0.00		0.80		1.173e-02		119.163		4.460e-03		30.286
2		0.00		1.20		1.058e-02		119.487		3.969e-03		31.329
2		0.00		1.60		9.198e-03		117.528		3.611e-03		27.708
2		0.00		2.00		7.073e-03		118.551		2.781e-03		32.428
2		0.00		2.40		4.845e-03		111.750		2.165e-03		28.362
2		0.00		2.80		2.495e-03		66.125		1.262e-03		68.221
2		0.00		3.20		3.126e-03		-29.229		1.427e-03		46.565
2		0.00		3.60		6.606e-03		-50.106		2.489e-03		24.435
2		0.00		4.00		1.097e-02		-51.086		3.914e-03		21.329
2		0.00		4.40		1.482e-02		-53.759		5.134e-03		17.919
2		0.00		4.80		1.889e-02		-55.611		6.995e-03		17.684
2		0.00		5.20		2.176e-02		-56.295		7.856e-03		19.110
2		0.00		5.60		2.529e-02		-54.251		8.578e-03		15.920
2		0.00		6.00		2.795e-02		-54.931		9.423e-03		16.227
2		0.00		6.40		3.051e-02		-54.837		1.050e-02		15.060
2		0.00		6.80		3.210e-02		-49.378		1.118e-02		14.638
2		0.00		7.20		3.434e-02		-50.376		1.256e-02		13.314
2		0.00		7.60		3.653e-02		-47.447		1.409e-02		12.701
2		0.00		8.00		3.773e-02		-47.797		1.486e-02		14.758
2		0.00		8.40		3.863e-02		-49.980		1.521e-02		16.893
2		0.00		8.80		4.156e-02		-47.071		1.648e-02		16.109
2		0.00		9.20		4.133e-02		-42.511		1.719e-02		27.724
2		0.00		9.60		4.371e-02		-40.011		1.775e-02		31.213
2		0.00		10.00		4.233e-02		-37.283		1.697e-02		33.537
2		0.00		9.60		4.174e-02		-35.840		1.595e-02		31.696
2		0.00		9.20		4.148e-02		-40.065		1.525e-02		28.610
2		0.00		8.80		4.099e-02		-43.111		1.526e-02		23.605
2		0.00		8.40		3.982e-02		-49.510		1.463e-02		25.983
2		0.00		8.00		3.886e-02		-49.771		1.425e-02		22.181
2		0.00		7.60		3.852e-02		-51.149		1.368e-02		17.159
2		0.00		7.20		3.679e-02		-53.411		1.256e-02		15.714
2		0.00		6.80		3.603e-02		-53.604		1.184e-02		16.048
2		0.00		6.40		3.445e-02		-53.709		1.132e-02		15.201
2		0.00		6.00		3.375e-02		-54.010		1.102e-02		13.902
2		0.00		5.60		3.222e-02		-52.176		1.046e-02		12.540
2		0.00		5.20		3.167e-02		-49.619		1.056e-02		11.025
2		0.00		4.80		3.137e-02		-49.898		1.110e-02		11.465
2		0.00		4.40		3.044e-02		-49.144		1.070e-02		11.895
2		0.00		4.00		3.039e-02		-48.987		1.117e-02		13.315
2		0.00		3.60		3.001e-02		-48.046		1.096e-02		14.434
2		0.00		3.20		2.920e-02		-44.293		1.111e-02		27.735
2		0.00		2.80		2.915e-02		-42.809		1.109e-02		34.627
2		0.00		2.40		2.883e-02		-39.541		1.089e-02		41.642
2		0.00		2.00		2.910e-02		-42.239		1.069e-02		39.056
2		0.00		1.60		2.856e-02		-43.760		1.046e-02		37.297
2		0.00		1.20		2.800e-02		-52.103		1.001e-02		26.061
2		0.00		0.80		2.695e-02		-53.122		9.771e-03		26.334
2		0.00		0.40		2.603e-02		-52.704		9.706e-03		21.514
2		0.00		0.00		2.483e-02		-52.805		9.093e-03		18.664
2		0.00		-0.40		2.305e-02		-55.910		8.158e-03		16.348
2		0.00		-0.80		2.080e-02		-54.521		7.338e-03		17.040
2		0.00		-1.20		1.692e-02		-54.482		5.552e-03		14.807
2		0.00		-1.60		1.364e-02		-53.338		5.477e-03		14.804
2		0.00		-2.00		9.975e-03		-54.854		4.491e-03		20.463
2		0.00		-2.40		6.560e-03		-51.176		4.110e-03		42.178
2		0.00		-2.80		5.311e-03		27.064		2.617e-03		68.690
2		0.00		-3.20		6.367e-03		60.940		2.257e-03		70.624
2		0.00		-3.60		7.826e-03		79.117		3.226e-03		68.998
2		0.00		-4.00		1.128e-02		92.961		5.087e-03		63.141
2		0.00		-4.40		1.454e-02		109.826		6.696e-03		45.931
2		0.00		-4.80		1.692e-02		114.072		7.571e-03		40.878
2		0.00		-5.20		1.887e-02		110.091		8.715e-03		44.416
2		0.00		-5.60		2.173e-02		112.082		9.785e-03		46.459
2		0.00		-6.00		2.470e-02		109.707		1.090e-02		42.880
2		0.00		-6.40		2.591e-02		112.918		1.126e-02		40.426
2		0.00		-6.80		2.840e-02		112.711		1.255e-02		39.993
2		0.00		-7.20		2.926e-02		114.063		1.308e-02		39.737
2		0.00		-7.60		2.964e-02		117.033		1.324e-02		39.239
2		0.00		-8.00		3.058e-02		118.247		1.325e-02		36.817
2		0.00		-8.40		3.252e-02		118.482		1.380e-02		35.213
2		0.00		-8.80		3.311e-02		124.161		1.356e-02		28.400
2		0.00		-9.20		3.413e-02		125.143		1.391e-02		25.094
2		0.00		-9.60		3.469e-02		126.083		1.384e-02		21.106
2		0.00		-10.00		3.461e-02		124.221		1.359e-02		19.562
2		0.00		-9.60		3.429e-02		125.623		1.297e-02		19.081
2		0.00		-9.20		3.469e-02		123.182		1.280e-02		19.811
2		0.00		-8.80		3.546e-02		124.076		1.298e-02		22.960
2		0.00		-8.40		3.547e-02		125.850		1.255e-02		16.921
2		0.00		-8.00		3.479e-02		127.949		1.222e-02		15.806
2		0.00		-7.60		3.534e-02		129.301		1.207e-02		12.987
2		0.00		-7.20		3.455e-02		130.299		1.233e-02		11.409
2		0.00		-6.80		3.291e-02		130.542		1.165e-02		11.788
2		0.00		-6.40		3.225e-02		131.765		1.201e-02		11.829
2		0.00		-6.00		2.986e-02		128.708		1.192e-02		20.918
2		0.00		-5.60		2.827e-02		127.996		1.177e-02		22.763
2		0.00		-5.20		2.609e-02		123.511		1.165e-02		35.223
2		0.00		-4.80		2.461e-02		117.202		1.143e-02		43.732
2		0.00		-4.40		2.330e-02		110.644		1.060e-02		45.229
2		0.00		-4.00		2.193e-02		112.300		9.991e-03		40.230
2		0.00		-3.60		2.081e-02		113.293		9.056e-03		36.746
2		0.00		-3.20		1.977e-02		116.052		8.426e-03		32.503
2		0.00		-2.80		1.839e-02		116.813		7.888e-03		32.737
2		0.00		-2.40		1.818e-02		121.011		7.098e-03		28.690
2		0.00		-2.00		1.702e-02		122.196		6.275e-03		25.205
2		0.00		-1.60		1.596e-02		123.436		5.859e-03		22.352
2		0.00		-1.20		1.510e-02		124.618		5.499e-03		18.452
2		0.00		-0.80		1.406e-02		126.140		5.257e-03		18.663
2		0.00		-0.40		1.327e-02		124.521		4.752e-03		18.556
3		0.00		0.00		1.233e-02		126.146		4.786e-03		19.261
3		0.00		0.40		1.157e-02		126.152		4.344e-03		21.270
3		0.00		0.80		1.034e-02		123.997		3.885e-03		25.211
3		0.00		1.20		9.568e-03		121.419		3.974e-03		25.800
3		0.00		1.60		8.084e-03		121.148		3.364e-03		32.450
3		0.00		2.00		6.727e-03		117.337		2.960e-03		46.099
3		0.00		2.40		5.143e-03		107.420		2.419e-03		52.422
3		0.00		2.80		3.518e-03		84.530		1.893e-03		63.785
3		0.00		3.20		2.245e-03		7.244		9.706e-04		75.297
3		0.00		3.60		3.564e-03		-44.777		1.559e-03		35.720
3		0.00		4.00		6.962e-03		-51.811		2.341e-03		18.789
3		0.00		4.40		1.120e-02		-53.367		3.741e-03		15.710
3		0.00		4.80		1.515e-02		-55.545		5.134e-03		15.869
3		0.00		5.20		1.934e-02		-50.269		6.443e-03		13.886
3		0.00		5.60		2.331e-02		-51.431		7.753e-03		13.127
3		0.00		6.00		2.666e-02		-51.608		8.705e-03		12.857
3		0.00		6.40		2.934e-02		-50.276		9.746e-03		13.937
3		0.00		6.80		3.222e-02		-49.594		1.060e-02		13.002
3		0.00		7.20		3.402e-02		-50.152		1.122e-02		12.982
3		0.00		7.60		3.573e-02		-48.632		1.190e-02		13.861
3		0.00		8.00		3.752e-02		-49.517		1.265e-02		13.125
3		0.00		8.40		3.809e-02		-47.910		1.277e-02		12.900
3		0.00		8.80		3.887e-02		-48.432		1.306e-02		12.665
3		0.00		9.20		4.111e-02		-46.900		1.389e-02		11.906
3		0.00		9.60		4.063e-02		-47.511		1.398e-02		12.121
3		0.00		10.00		3.879e-02		-49.546		1.345e-02		14.000
3		0.00		9.60		3.918e-02		-47.834		1.376e-02		11.888
3		0.00		9.20		3.813e-02		-51.517		1.361e-02		12.916
3		0.00		8.80		3.727e-02		-49.818		1.295e-02		12.767
3		0.00		8.40		3.679e-02		-51.032		1.233e-02		13.028
3		0.00		8.00		3.534e-02		-51.871		1.190e-02		14.046
3		0.00		7.60		3.544e-02		-53.901		1.215e-02		13.981
3		0.00		7.20		3.375e-02		-52.563		1.087e-02		14.058
3		0.00		6.80		3.397e-02		-53.320		1.072e-02		14.420
3		0.00		6.40		3.293e-02		-52.456		1.038e-02		14.275
3		0.00		6.00		3.234e-02		-52.894		1.033e-02		15.743
3		0.00		5.60		3.149e-02		-52.250		1.000e-02		15.764
3		0.00		5.20		3.090e-02		-53.393		9.625e-03		14.835
3		0.00		4.80		3.059e-02		-52.044		9.539e-03		14.760
3		0.00		4.40		2.979e-02		-53.933		9.108e-03		14.779
3		0.00		4.00		2.918e-02		-53.127		9.136e-03		15.267
3		0.00		3.60		2.950e-02		-52.542		9.139e-03		14.258
3		0.00		3.20		2.922e-02		-51.507		9.355e-03		15.010
3		0.00		2.80		2.868e-02		-51.844		9.867e-03		15.432
3		0.00		2.40		2.702e-02		-51.095		9.432e-03		16.907
3		0.00		2.00		2.713e-02		-52.058		9.522e-03		17.321
3		0.00		1.60		2.586e-02		-52.385		9.463e-03		19.824
3		0.00		1.20		2.568e-02		-50.942		9.535e-03		20.425
3		0.00		0.80		2.420e-02		-50.915		9.041e-03		23.293
3		0.00		0.40		2.444e-02		-54.045		9.461e-03		28.479
3		0.00		0.00		2.357e-02		-54.231		9.306e-03		28.470
3		0.00		-0.40		2.209e-02		-50.206		8.565e-03		32.626
3		0.00		-0.80		1.947e-02		-52.105		7.271e-03		27.251
3		0.00		-1.20		1.700e-02		-54.426		6.563e-03		30.028
3		0.00		-1.60		1.372e-02		-48.313		5.671e-03		35.706
3		0.00		-2.00		9.556e-03		-47.764		4.765e-03		30.605
3		0.00		-2.40		5.732e-03		-22.730		4.591e-03		60.174
3		0.00		-2.80		4.899e-03		9.769		3.391e-03		75.512
3		0.00		-3.20		5.743e-03		71.940		2.968e-03		58.056
3		0.00		-3.60		8.003e-03		85.687		3.865e-03		52.447
3		0.00		-4.00		1.052e-02		95.932		5.398e-03		46.635
3		0.00		-4.40		1.314e-02		102.523		6.626e-03		40.350
3		0.00		-4.80		1.529e-02		109.295		7.766e-03		41.727
3		0.00		-5.20		1.833e-02		109.534		9.004e-03		42.392
3		0.00		-5.60		2.049e-02		108.689		9.880e-03		46.792
3		0.00		-6.00		2.318e-02		109.036		1.122e-02		44.657
3		0.00		-6.40		2.541e-02		113.422		1.172e-02		40.542
3		0.00		-6.80		2.717e-02		116.307		1.252e-02		34.105
3		0.00		-7.20		2.920e-02		113.504		1.346e-02		40.782
3		0.00		-7.60		3.063e-02		116.680		1.383e-02		38.209
3		0.00		-8.00		3.108e-02		114.410		1.370e-02		38.860
3		0.00		-8.40		3.307e-02		118.138		1.435e-02		36.637
3		0.00		-8.80		3.262e-02		118.904		1.363e-02		37.156
3		0.00		-9.20		3.442e-02		119.919		1.371e-02		36.497
3		0.00		-9.60		3.559e-02		119.160		1.428e-02		36.194
3		0.00		-10.00		3.508e-02		120.062		1.451e-02		39.919
3		0.00		-9.60		3.528e-02		117.688		1.455e-02		40.109
3		0.00		-9.20		3.480e-02		119.243		1.402e-02		36.690
3		0.00		-8.80		3.579e-02		119.777		1.470e-02		37.378
3		0.00		-8.40		3.492e-02		115.413		1.452e-02		39.526
3		0.00		-8.00		3.539e-02		119.138		1.437e-02		35.123
3		0.00		-7.60		3.384e-02		115.370		1.435e-02		38.403
3		0.00		-7.20		3.313e-02		115.959		1.415e-02		38.237
3		0.00		-6.80		3.163e-02		114.434		1.409e-02		38.725
3		0.00		-6.40		2.931e-02		111.129		1.305e-02		41.282
3		0.00		-6.00		2.913e-02		113.671		1.300e-02		38.130
3		0.00		-5.60		2.771e-02		113.864		1.217e-02		37.259
3		0.00		-5.20		2.613e-02		113.023		1.135e-02		37.449
3		0.00		-4.80		2.488e-02		113.886		1.106e-02		36.578
3		0.00		-4.40		2.425e-02		111.741		1.085e-02		36.139
3		0.00		-4.00		2.309e-02		115.118		9.985e-03		37.238
3		0.00		-3.60		2.188e-02		117.776		9.037e-03		33.178
3		0.00		-3.20		2.091e-02		116.243		8.502e-03		34.901
3		0.00		-2.80		1.998e-02		115.751		8.149e-03		34.692
3		0.00		-2.40		1.893e-02		115.407		7.653e-03		35.122
3		0.00		-2.00		1.788e-02		118.483		7.336e-03		33.217
3		0.00		-1.60		1.687e-02		115.353		6.747e-03		39.101
3		0.00		-1.20		1.614e-02		112.867		6.711e-03		43.019
3		0.00		-0.80		1.509e-02		115.922		6.291e-03		39.240
3		0.00		-0.40		1.367e-02		113.509		5.773e-03		41.806
4		0.00		0.00		1.307e-02		112.219		5.655e-03		42.949
4		0.00		0.40		1.173e-02		110.441		5.361e-03		46.600
4		0.00		0.80		1.134e-02		109.393		5.199e-03		43.545
4		0.00		1.20		9.474e-03		111.820		4.551e-03		40.780
4		0.00		1.60		8.490e-03		105.570		4.004e-03		54.239
4		0.00		2.00		7.671e-03		109.084		3.453e-03		53.624
4		0.00		2.40		6.180e-03		101.842		2.985e-03		56.657
4		0.00		2.80		4.530e-03		84.260		2.164e-03		68.291
4		0.00		3.20		2.771e-03		64.299		1.318e-03		74.666
4		0.00		3.60		3.016e-03		-39.949		1.618e-03		44.321
4		0.00		4.00		5.812e-03		-49.562		2.394e-03		22.154
4		0.00		4.40		1.045e-02		-46.329		4.035e-03		16.770
4		0.00		4.80		1.541e-02		-49.735		5.564e-03		14.244
4		0.00		5.20		1.960e-02		-48.297		7.292e-03		14.129
4		0.00		5.60		2.326e-02		-48.813		8.567e-03		12.518
4		0.00		6.00		2.618e-02		-49.487		9.871e-03		13.164
4		0.00		6.40		2.872e-02		-48.575		1.054e-02		13.010
4		0.00		6.80		3.075e-02		-48.641		1.127e-02		13.326
4		0.00		7.20		3.342e-02		-47.713		1.242e-02		13.235
4		0.00		7.60		3.526e-02		-48.412		1.270e-02		12.085
4		0.00		8.00		3.566e-02		-46.753		1.352e-02		12.532
4		0.00		8.40		3.727e-02		-46.849		1.448e-02		11.757
4		0.00		8.80		3.860e-02		-47.098		1.536e-02		13.774
4		0.00		9.20		3.773e-02		-46.803		1.556e-02		13.345
4		0.00		9.60		3.778e-02		-45.807		1.573e-02		13.555
4		0.00		10.00		3.869e-02		-47.285		1.605e-02		13.799
4		0.00		9.60		3.689e-02		-46.374		1.456e-02		14.266
4		0.00		9.20		3.586e-02		-47.644		1.406e-02		14.728
4		0.00		8.80		3.678e-02		-45.603		1.463e-02		13.173
4		0.00		8.40		3.720e-02		-47.267		1.451e-02		13.732
4		0.00		8.00		3.688e-02		-46.562		1.461e-02		12.997
4		0.00		7.60		3.614e-02		-47.416		1.402e-02		15.043
4		0.00		7.20		3.662e-02		-47.129		1.383e-02		14.232
4		0.00		6.80		3.439e-02		-47.621		1.306e-02		14.524
4		0.00		6.40		3.492e-02		-47.551		1.331e-02		13.639
4		0.00		6.00		3.362e-02		-48.404		1.291e-02		14.193
4		0.00		5.60		3.333e-02		-47.799		1.281e-02		14.470
4		0.00		5.20		3.194e-02		-46.976		1.224e-02		14.079
4		0.00		4.80		3.187e-02		-48.663		1.267e-02		13.991
4		0.00		4.40		3.096e-02		-47.803		1.241e-02		12.741
4		0.00		4.00		3.092e-02		-48.553		1.286e-02		18.862
4		0.00		3.60		2.977e-02		-48.683		1.264e-02		15.278
4		0.00		3.20		2.874e-02		-46.557		1.203e-02		15.994
4		0.00		2.80		2.852e-02		-50.645		1.221e-02		13.824
4		0.00		2.40		2.793e-02		-47.611		1.180e-02		14.013
4		0.00		2.00		2.794e-02		-49.043		1.169e-02		14.377
4		0.00		1.60		2.751e-02		-49.450		1.162e-02		17.866
4		0.00		1.20		2.717e-02		-49.517		1.116e-02		14.609
4		0.00		0.80		2.720e-02		-50.572		1.073e-02		14.676
4		0.00		0.40		2.781e-02		-49.637		1.047e-02		14.175
4		0.00		0.00		2.652e-02		-49.497		9.665e-03		13.798
4		0.00		-0.40		2.647e-02		-49.581		9.354e-03		13.336
4		0.00		-0.80		2.400e-02		-48.832		8.736e-03		13.770
4		0.00		-1.20		2.197e-02		-48.174		7.704e-03		13.049
4		0.00		-1.60		1.789e-02		-49.494		6.458e-03		14.106
4		0.00		-2.00		1.377e-02		-51.296		5.253e-03		14.207
4		0.00		-2.40		8.748e-03		-48.460		4.079e-03		17.316
4		0.00		-2.80		5.226e-03		-26.641		3.260e-03		53.582
4		0.00		-3.20		4.778e-03		35.341		2.472e-03		66.645
4		0.00		-3.60		6.413e-03		66.406		2.723e-03		63.832
4		0.00		-4.00		8.757e-03		92.941		4.309e-03		58.837
4		0.00		-4.40		1.186e-02		103.978		5.808e-03		58.147
4		0.00		-4.80		1.500e-02		110.889		7.273e-03		56.811
4		0.00		-5.20		1.831e-02		124.752		8.448e-03		37.166
4		0.00		-5.60		2.184e-02		125.516		9.460e-03		28.815
4		0.00		-6.00		2.410e-02		127.948		1.019e-02		13.806
4		0.00		-6.40		2.555e-02		129.148		1.038e-02		14.056
4		0.00		-6.80		2.867e-02		126.852		1.115e-02		13.234
4		0.00		-7.20		3.102e-02		126.199		1.157e-02		15.121
4		0.00		-7.60		3.219e-02		124.907		1.148e-02		15.912
4		0.00		-8.00		3.425e-02		126.545		1.217e-02		15.797
4		0.00		-8.40		3.511e-02		126.444		1.258e-02		18.252
4		0.00		-8.80		3.432e-02		124.833		1.213e-02		19.495
4		0.00		-9.20		3.684e-02		126.677		1.259e-02		17.103
4		0.00		-9.60		3.669e-02		125.483		1.247e-02		18.147
4		0.00		-10.00		3.699e-02		126.986		1.229e-02		17.769
4		0.00		-9.60		3.693e-02		126.699		1.276e-02		18.214
4		0.00		-9.20		3.684e-02		127.244		1.295e-02		17.233
4		0.00		-8.80		3.640e-02		127.417		1.341e-02		18.934
4		0.00		-8.40		3.545e-02		125.778		1.356e-02		18.975
4		0.00		-8.00		3.511e-02		125.954		1.391e-02		17.912
4		0.00		-7.60		3.383e-02		124.246		1.389e-02		18.747
4		0.00		-7.20		3.254e-02		126.571		1.313e-02		18.998
4		0.00		-6.80		3.142e-02		125.882		1.269e-02		20.366
4		0.00		-6.40		3.053e-02		125.195		1.201e-02		19.222
4		0.00		-6.00		2.928e-02		125.738		1.197e-02		21.940
4		0.00		-5.60		2.864e-02		124.224		1.147e-02		21.127
4		0.00		-5.20		2.759e-02		126.232		1.023e-02		18.817
4		0.00		-4.80		2.698e-02		127.712		9.727e-03		19.968
4		0.00		-4.40		2.596e-02		127.724		9.403e-03		18.816
4		0.00		-4.00		2.462e-02		125.312		8.844e-03		21.288
4		0.00		-3.60		2.336e-02		125.985		8.695e-03		20.533
4		0.00		-3.20		2.245e-02		126.826		7.919e-03		20.947
4		0.00		-2.80		2.077e-02		125.146		7.371e-03		20.423
4		0.00		-2.40		1.964e-02		124.521		7.348e-03		22.039
4		0.00		-2.00		1.844e-02		124.736		6.623e-03		21.015
4		0.00		-1.60		1.741e-02		125.854		6.455e-03		22.241
4		0.00		-1.20		1.624e-02		122.822		6.269e-03		24.945
4		0.00		-0.80		1.533e-02		121.994		5.975e-03		24.330
4		0.00		-0.40		1.423e-02		123.070		5.775e-03		23.998
5		0.00		0.00		1.324e-02		123.296		5.293e-03		23.172
5		0.00		0.40		1.283e-02		122.518		5.255e-03		26.513
5		0.00		0.80		1.151e-02		123.205		4.829e-03		22.494
5		0.00		1.20		1.058e-02		119.967		4.630e-03		28.057
5		0.00		1.60		9.931e-03		120.873		4.072e-03		24.390
5		0.00		2.00		8.921e-03		121.549		3.805e-03		23.654
5		0.00		2.40		7.401e-03		117.537		3.193e-03		34.646
5		0.00		2.80		5.571e-03		111.100		2.334e-03		34.944
5		0.00		3.20		3.768e-03		98.758		1.905e-03		62.172
5		0.00		3.60		2.170e-03		-5.190		1.054e-03		69.758
5		0.00		4.00		5.236e-03		-51.756		2.249e-03		25.712
5		0.00		4.40		8.803e-03		-48.393		3.178e-03		18.866
5		0.00		4.80		1.418e-02		-54.449		4.720e-03		17.948
5		0.00		5.20		1.828e-02		-55.099		5.975e-03		15.522
5		0.00		5.60		2.285e-02		-54.414		7.717e-03		15.363
5		0.00		6.00		2.593e-02		-53.870		8.974e-03		16.287
5		0.00		6.40		2.921e-02		-54.042		1.004e-02		16.001
5		0.00		6.80		3.159e-02		-54.276		1.133e-02		15.316
5		0.00		7.20		3.295e-02		-55.136		1.178e-02		14.962
5		0.00		7.60		3.465e-02		-54.034		1.272e-02		15.334
5		0.00		8.00		3.527e-02		-54.963		1.276e-02		16.213
5		0.00		8.40		3.620e-02		-53.790		1.283e-02		17.036
5		0.00		8.80		3.859e-02		-53.136		1.348e-02		16.348
5		0.00		9.20		3.747e-02		-51.412		1.359e-02		19.397
5		0.00		9.60		3.807e-02		-52.291		1.266e-02		18.444
5		0.00		10.00		3.779e-02		-51.008		1.253e-02		18.497
5		0.00		9.60		3.873e-02		-50.993		1.234e-02		17.698
5		0.00		9.20		3.915e-02		-51.749		1.196e-02		15.272
5		0.00		8.80		3.874e-02		-52.224		1.210e-02		14.860
5		0.00		8.40		3.882e-02		-52.425		1.209e-02		13.433
5		0.00		8.00		3.702e-02		-51.666		1.162e-02		12.789
5		0.00		7.60		3.675e-02		-51.326		1.115e-02		11.887
5		0.00		7.20		3.543e-02		-51.778		1.076e-02		11.740
5		0.00		6.80		3.456e-02		-51.056		1.067e-02		10.656
5		0.00		6.40		3.440e-02		-51.829		1.032e-02		10.553
5		0.00		6.00		3.250e-02		-49.311		9.902e-03		10.718
5		0.00		5.60		3.264e-02		-49.776		1.054e-02		10.644
5		0.00		5.20		3.178e-02		-48.410		1.070e-02		10.561
5		0.00		4.80		3.098e-02		-49.486		1.058e-02		10.371
5		0.00		4.40		3.013e-02		-50.661		1.048e-02		11.666
5		0.00		4.00		2.930e-02		-49.869		1.029e-02		11.559
5		0.00		3.60		2.849e-02		-49.551		1.012e-02		11.649
5		0.00		3.20		2.817e-02		-49.149		1.008e-02		11.971
5		0.00		2.80		2.803e-02		-49.860		1.016e-02		12.389
5		0.00		2.40		2.817e-02		-49.353		1.049e-02		13.333
5		0.00		2.00		2.777e-02		-50.470		1.026e-02		13.439
5		0.00		1.60		2.764e-02		-49.409		9.847e-03		12.734
5		0.00		1.20		2.757e-02		-48.690		9.773e-03		12.653
5		0.00		0.80		2.755e-02		-47.794		9.949e-03		12.996
5		0.00		0.40		2.607e-02		-49.450		9.469e-03		14.587
5		0.00		0.00		2.568e-02		-50.569		9.453e-03		13.261
5		0.00		-0.40		2.452e-02		-50.313		8.974e-03		12.042
5		0.00		-0.80		2.246e-02		-47.045		8.206e-03		15.131
5		0.00		-1.20		2.020e-02		-45.853		7.777e-03		13.857
5		0.00		-1.60		1.653e-02		-48.820		6.657e-03		14.362
5		0.00		-2.00		1.236e-02		-46.846		5.560e-03		14.031
5		0.00		-2.40		7.941e-03		-50.616		4.487e-03		22.271
5		0.00		-2.80		4.626e-03		-35.481		3.547e-03		51.640
5		0.00		-3.20		4.299e-03		51.481		2.473e-03		65.387
5		0.00		-3.60		5.591e-03		80.350		2.392e-03		63.188
5		0.00		-4.00		7.763e-03		92.404		3.800e-03		54.172
5		0.00		-4.40		1.115e-02		101.713		5.769e-03		51.541
5		0.00		-4.80		1.409e-02		106.363		7.057e-03		47.267
5		0.00		-5.20		1.774e-02		109.201		8.407e-03		44.131
5		0.00		-5.60		2.010e-02		111.962		9.262e-03		44.769
5		0.00		-6.00		2.385e-02		114.940		1.021e-02		40.453
5		0.00		-6.40		2.682e-02		113.855		1.161e-02		40.995
5		0.00		-6.80		2.855e-02		116.168		1.234e-02		38.087
5		0.00		-7.20		3.046e-02		118.199		1.262e-02		32.607
5		0.00		-7.60		3.231e-02		117.097		1.333e-02		33.743
5		0.00		-8.00		3.366e-02		118.356		1.389e-02		34.777
5		0.00		-8.40		3.439e-02		115.585		1.424e-02		40.461
5		0.00		-8.80		3.717e-02		118.667		1.442e-02		31.913
5		0.00		-9.20		3.633e-02		117.594		1.487e-02		35.123
5		0.00		-9.60		3.639e-02		118.536		1.462e-02		32.854
5		0.00		-10.00		3.714e-02		119.641		1.482e-02		33.008
5		0.00		-9.60		3.728e-02		120.533		1.506e-02		33.294
5		0.00		-9.20		3.718e-02		121.779		1.460e-02		31.860
5		0.00		-8.80		3.678e-02		123.396		1.417e-02		28.406
5		0.00		-8.40		3.688e-02		125.750		1.452e-02		24.089
5		0.00		-8.00		3.693e-02		126.740		1.418e-02		19.085
5		0.00		-7.60		3.651e-02		127.000		1.355e-02		15.601
5		0.00		-7.20		3.527e-02		126.803		1.249e-02		16.524
5		0.00		-6.80		3.409e-02		126.158		1.170e-02		15.659
5		0.00		-6.40		3.316e-02		125.884		1.068e-02		14.619
5		0.00		-6.00		3.161e-02		124.999		1.037e-02		14.119
5		0.00		-5.60		3.128e-02		126.113		1.020e-02		13.072
5		0.00		-5.20		2.977e-02		127.887		9.656e-03		11.868
5		0.00		-4.80		2.810e-02		127.901		9.508e-03		10.772
5		0.00		-4.40		2.717e-02		128.731		9.277e-03		9.308
5		0.00		-4.00		2.575e-02		129.001		9.231e-03		13.080
5		0.00		-3.60		2.428e-02		125.829		8.892e-03		22.116
5		0.00		-3.20		2.239e-02		128.879		8.856e-03		15.691
5		0.00		-2.80		2.087e-02		123.932		8.612e-03		22.256
5		0.00		-2.40		1.921e-02		117.870		8.332e-03		36.276
5		0.00		-2.00		1.755e-02		113.799		7.984e-03		41.266
5		0.00		-1.60		1.728e-02		114.823		7.567e-03		36.075
5		0.00		-1.20		1.653e-02		117.818		7.192e-03		30.183
5		0.00		-0.80		1.567e-02		119.008		6.392e-03		28.384
5		0.00		-0.40		1.457e-02		121.447		5.974e-03		24.438
6		0.00		0.00		1.392e-02		127.721		5.558e-03		19.098
6		0.00		0.40		1.301e-02		127.180		4.865e-03		18.324
6		0.00		0.80		1.229e-02		125.451		4.395e-03		15.203
6		0.00		1.20		1.085e-02		123.902		3.932e-03		13.638
6		0.00		1.60		9.957e-03		126.450		3.738e-03		25.728
6		0.00		2.00		8.664e-03		124.902		3.356e-03		24.703
6		0.00		2.40		6.884e-03		119.680		2.822e-03		31.331
6		0.00		2.80		5.291e-03		105.603		2.170e-03		48.765
6		0.00		3.20		3.259e-03		77.375		1.385e-03		63.362
6		0.00		3.60		2.357e-03		-3.571		1.098e-03		73.803
6		0.00		4.00		3.623e-03		-46.524		1.983e-03		35.734
6		0.00		4.40		6.844e-03		-51.497		3.216e-03		32.831
6		0.00		4.80		1.091e-02		-50.708		4.608e-03		23.963
6		0.00		5.20		1.515e-02		-56.621		6.063e-03		23.646
6		0.00		5.60		1.969e-02		-54.178		7.238e-03		16.493
6		0.00		6.00		2.340e-02		-55.166		7.977e-03		13.854
6		0.00		6.40		2.658e-02		-56.159		8.759e-03		13.583
6		0.00		6.80		2.965e-02		-55.282		9.495e-03		13.342
6		0.00		7.20		3.259e-02		-52.655		1.072e-02		11.347
6		0.00		7.60		3.478e-02		-50.150		1.193e-02		11.523
6		0.00		8.00		3.721e-02		-49.496		1.351e-02		11.491
6		0.00		8.40		3.967e-02		-49.379		1.469e-02		12.816
6		0.00		8.80		4.121e-02		-48.678		1.614e-02		19.122
6		0.00		9.20		4.117e-02		-41.202		1.598e-02		29.753
6		0.00		9.60		4.092e-02		-38.185		1.518e-02		32.600
6		0.00		10.00		4.200e-02		-46.708		1.507e-02		25.748
6		0.00		9.60		4.218e-02		-50.408		1.470e-02		22.483
6		0.00		9.20		4.097e-02		-51.753		1.353e-02		16.101
6		0.00		8.80		4.018e-02		-51.159		1.230e-02		13.558
6		0.00		8.40		3.905e-02		-51.980		1.198e-02		12.324
6		0.00		8.00		3.879e-02		-51.355		1.327e-02		10.408
6		0.00		7.60		3.622e-02		-49.582		1.350e-02		10.439
6		0.00		7.20		3.559e-02		-50.590		1.432e-02		12.601
6		0.00		6.80		3.537e-02		-49.979		1.499e-02		16.384
6		0.00		6.40		3.439e-02		-47.465		1.466e-02		27.298
6		0.00		6.00		3.352e-02		-49.187		1.328e-02		26.164
6		0.00		5.60		3.373e-02		-52.261		1.325e-02		31.413
6		0.00		5.20		3.262e-02		-53.299		1.200e-02		25.166
6		0.00		4.80		3.242e-02		-52.594		1.108e-02		17.174
6		0.00		4.40		3.181e-02		-52.373		1.005e-02		13.246
6		0.00		4.00		3.279e-02		-54.699		9.871e-03		12.586
6		0.00		3.60		3.139e-02		-52.724		9.318e-03		12.102
6		0.00		3.20		3.086e-02		-52.402		9.350e-03		10.287
6		0.00		2.80		3.002e-02		-49.530		9.343e-03		10.926
6		0.00		2.40		2.991e-02		-50.542		9.828e-03		10.788
6		0.00		2.00		2.960e-02		-49.221		1.028e-02		11.836
6		0.00		1.60		2.889e-02		-51.481		1.072e-02		20.495
6		0.00		1.20		2.782e-02		-48.800		1.100e-02		33.076
6		0.00		0.80		2.817e-02		-47.616		1.104e-02		37.707
6		0.00		0.40		2.690e-02		-55.408		1.041e-02		27.182
6		0.00		0.00		2.643e-02		-53.174		9.703e-03		18.618
6		0.00		-0.40		2.483e-02		-53.221		8.642e-03		14.929
6		0.00		-0.80		2.378e-02		-54.817		7.503e-03		12.202
6		0.00		-1.20		2.146e-02		-55.179		6.268e-03		10.684
6		0.00		-1.60		1.855e-02		-51.763		5.467e-03		10.707
6		0.00		-2.00		1.518e-02		-54.752		4.871e-03		11.595
6		0.00		-2.40		1.047e-02		-52.160		4.336e-03		14.285
6		0.00		-2.80		5.818e-03		-50.656		3.824e-03		40.109
6		0.00		-3.20		4.243e-03		14.998		2.632e-03		79.609
6		0.00		-3.60		5.464e-03		73.940		2.545e-03		67.180
6		0.00		-4.00		8.237e-03		94.291		4.084e-03		44.955
6		0.00		-4.40		1.067e-02		104.777		5.613e-03		42.741
6		0.00		-4.80		1.452e-02		121.216		6.774e-03		25.010
6		0.00		-5.20		1.882e-02		125.852		8.409e-03		25.795
6		0.00		-5.60		2.188e-02		126.179		9.134e-03		20.695
6		0.00		-6.00		2.454e-02		127.908		9.797e-03		15.597
6		0.00		-6.40		2.790e-02		127.381		1.148e-02		12.734
6		0.00		-6.80		2.948e-02		128.875		1.224e-02		10.462
6		0.00		-7.20		3.015e-02		129.461		1.328e-02		13.506
6		0.00		-7.60		3.172e-02		125.789		1.433e-02		22.479
6		0.00		-8.00		3.313e-02		119.967		1.515e-02		37.368
6		0.00		-8.40		3.402e-02		112.339		1.567e-02		41.541
6		0.00		-8.80		3.472e-02		114.124		1.551e-02		38.099
6		0.00		-9.20		3.666e-02		118.477		1.489e-02		32.191
6		0.00		-9.60		3.768e-02		124.808		1.422e-02		26.841
6		0.00		-10.00		3.842e-02		130.975		1.321e-02		16.005
6		0.00		-9.60		3.842e-02		128.439		1.363e-02		20.600
6		0.00		-9.20		3.818e-02		128.698		1.285e-02		16.095
6		0.00		-8.80		3.783e-02		126.760		1.281e-02		17.742
6		0.00		-8.40		3.743e-02		127.551		1.191e-02		15.367
6		0.00		-8.00		3.772e-02		127.848		1.247e-02		14.784
6		0.00		-7.60		3.703e-02		128.688		1.227e-02		11.372
6		0.00		-7.20		3.602e-02		130.282		1.264e-02		9.725
6		0.00		-6.80		3.434e-02		130.269		1.275e-02		10.500
6		0.00		-6.40		3.246e-02		127.040		1.265e-02		16.422
6		0.00		-6.00		3.074e-02		124.690		1.294e-02		22.633
6		0.00		-5.60		2.897e-02		119.290		1.246e-02		28.677
6		0.00		-5.20		2.769e-02		114.295		1.199e-02		33.728
6		0.00		-4.80		2.570e-02		117.550		1.097e-02		31.777
6		0.00		-4.40		2.467e-02		116.879		1.041e-02		37.534
6		0.00		-4.00		2.305e-02		121.117		9.358e-03		33.128
6		0.00		-3.60		2.257e-02		122.696		8.810e-03		28.586
6		0.00		-3.20		2.183e-02		127.230		8.000e-03		18.590
6		0.00		-2.80		2.101e-02		127.863		7.594e-03		16.371
6		0.00		-2.40		2.032e-02		127.751		6.918e-03		14.869
6		0.00		-2.00		1.876e-02		127.282		6.340e-03		14.607
6		0.00		-1.60		1.791e-02		126.822		6.048e-03		14.003
6		0.00		-1.20		1.678e-02		126.375		5.837e-03		16.005
6		0.00		-0.80		1.617e-02		126.357		5.658e-03		13.700
6		0.00		-0.40		1.487e-02		128.872		5.332e-03		13.087
7		0.00		0.00		1.385e-02		128.352		5.056e-03		13.346
7		0.00		0.40		1.288e-02		127.323		4.774e-03		10.292
7		0.00		0.80		1.189e-02		132.151		4.822e-03		14.661
7		0.00		1.20		1.065e-02		130.967		4.506e-03		15.742
7		0.00		1.60		9.040e-03		120.630		4.164e-03		41.429
7		0.00		2.00		8.259e-03		121.827		3.708e-03		33.076
7		0.00		2.40		7.125e-03		108.358		3.398e-03		50.345
7		0.00		2.80		5.115e-03		104.057		2.531e-03		59.455
7		0.00		3.20		4.032e-03		102.784		1.835e-03		56.755
7		0.00		3.60		2.460e-03		52.884		1.071e-03		73.637
7		0.00		4.00		2.563e-03		-21.974		1.255e-03		66.007
7		0.00		4.40		4.748e-03		-49.897		2.187e-03		23.004
7		0.00		4.80		8.702e-03		-51.663		3.520e-03		23.509
7		0.00		5.20		1.298e-02		-46.652		4.929e-03		29.865
7		0.00		5.60		1.720e-02		-49.739		6.591e-03		20.196
7		0.00		6.00		2.141e-02		-52.248		8.104e-03		20.844
7		0.00		6.40		2.510e-02		-47.675		9.552e-03		23.558
7		0.00		6.80		2.928e-02		-44.771		1.108e-02		26.662
7		0.00		7.20		3.113e-02		-44.249		1.182e-02		27.375
7		0.00		7.60		3.444e-02		-43.939		1.297e-02		26.443
7		0.00		8.00		3.652e-02		-41.955		1.414e-02		31.729
7		0.00		8.40		3.815e-02		-43.552		1.488e-02		31.348
7		0.00		8.80		3.935e-02		-41.941		1.624e-02		39.492
7		0.00		9.20		3.901e-02		-41.578		1.600e-02		41.139
7		0.00		9.60		4.093e-02		-43.566		1.660e-02		39.915
7		0.00		10.00		4.072e-02		-41.766		1.664e-02		42.259
7		0.00		9.60		4.138e-02		-51.973		1.664e-02		35.197
7		0.00		9.20		3.955e-02		-51.785		1.548e-02		24.977
7		0.00		8.80		3.890e-02		-52.523		1.539e-02		23.677
7		0.00		8.40		3.933e-02		-51.178		1.437e-02		20.886
7		0.00		8.00		3.950e-02		-51.485		1.394e-02		16.127
7		0.00		7.60		3.865e-02		-50.611		1.307e-02		14.399
7		0.00		7.20		3.755e-02		-51.940		1.224e-02		13.698
7		0.00		6.80		3.758e-02		-52.545		1.256e-02		14.283
7		0.00		6.40		3.717e-02		-52.566		1.174e-02		13.316
7		0.00		6.00		3.607e-02		-53.049		1.113e-02		12.700
7		0.00		5.60		3.523e-02		-53.581		1.073e-02		12.469
7		0.00		5.20		3.433e-02		-52.824		1.047e-02		13.095
7		0.00		4.80		3.435e-02		-51.648		9.730e-03		12.474
7		0.00		4.40		3.392e-02		-53.108		9.823e-03		11.817
7		0.00		4.00		3.304e-02		-54.473		9.932e-03		12.191
7		0.00		3.60		3.252e-02		-54.374		1.032e-02		12.751
7		0.00		3.20		3.212e-02		-53.059		1.015e-02		11.363
7		0.00		2.80		3.184e-02		-53.057		1.050e-02		10.752
7		0.00		2.40		3.136e-02		-51.254		1.054e-02		10.063
7		0.00		2.00		3.069e-02		-51.083		1.035e-02		11.100
7		0.00		1.60		3.014e-02		-51.144		1.064e-02		10.260
7		0.00		1.20		2.992e-02		-51.048		1.067e-02		10.188
7		0.00		0.80		2.934e-02		-49.791		1.045e-02		10.690
7		0.00		0.40		2.978e-02		-50.081		1.036e-02		10.824
7		0.00		0.00		2.932e-02		-50.392		1.022e-02		11.751
7		0.00		-0.40		2.908e-02		-50.960		1.035e-02		10.767
7		0.00		-0.80		2.729e-02		-50.557		9.588e-03		11.531
7		0.00		-1.20		2.364e-02		-49.281		8.514e-03		14.146
7		0.00		-1.60		2.058e-02		-53.038		7.542e-03		18.767
7		0.00		-2.00		1.666e-02		-51.278		6.251e-03		22.141
7		0.00		-2.40		1.308e-02		-53.023		5.386e-03		20.939
7		0.00		-2.80		9.124e-03		-48.983		4.653e-03		33.732
7		0.00		-3.20		5.802e-03		-38.816		4.154e-03		64.352
7		0.00		-3.60		4.273e-03		33.182		2.804e-03		76.170
7		0.00		-4.00		5.586e-03		87.641		2.811e-03		54.513
7		0.00		-4.40		8.750e-03		98.386		4.843e-03		46.128
7		0.00		-4.80		1.265e-02		107.963		6.747e-03		39.560
7		0.00		-5.20		1.556e-02		118.465		7.803e-03		28.796
7		0.00		-5.60		1.872e-02		122.374		8.477e-03		25.198
7		0.00		-6.00		2.145e-02		125.031		9.536e-03		17.580
7		0.00		-6.40		2.479e-02		124.590		1.038e-02		17.055
7		0.00		-6.80		2.780e-02		124.232		1.091e-02		17.825
7		0.00		-7.20		2.996e-02		124.947		1.096e-02		17.449
7		0.00		-7.60		3.281e-02		125.799		1.143e-02		15.773
7		0.00		-8.00		3.529e-02		126.621		1.216e-02		14.475
7		0.00		-8.40		3.689e-02		127.391		1.228e-02		13.781
7		0.00		-8.80		3.832e-02		128.071		1.359e-02		12.197
7		0.00		-9.20		4.016e-02		129.811		1.380e-02		10.250
7		0.00		-9.60		4.034e-02		129.933		1.413e-02		10.404
7		0.00		-10.00		4.129e-02		129.979		1.468e-02		9.750
7		0.00		-9.60		4.176e-02		128.756		1.553e-02		12.888
7		0.00		-9.20		4.056e-02		128.313		1.547e-02		12.977
7		0.00		-8.80		3.900e-02		127.123		1.625e-02		16.132
7		0.00		-8.40		3.721e-02		122.385		1.606e-02		21.475
7		0.00		-8.00		3.632e-02		118.081		1.602e-02		30.359
7		0.00		-7.60		3.514e-02		116.298		1.543e-02		30.746
7		0.00		-7.20		3.417e-02		114.357		1.469e-02		33.550
7		0.00		-6.80		3.345e-02		117.658		1.419e-02		32.046
7		0.00		-6.40		3.275e-02		118.015		1.388e-02		33.548
7		0.00		-6.00		3.075e-02		120.205		1.227e-02		31.642
7		0.00		-5.60		3.074e-02		125.110		1.140e-02		24.179
7		0.00		-5.20		2.965e-02		126.574		1.082e-02		22.593
7		0.00		-4.80		2.866e-02		128.068		1.004e-02		16.557
7		0.00		-4.40		2.737e-02		127.216		9.518e-03		12.480
7		0.00		-4.00		2.557e-02		126.933		8.790e-03		13.946
7		0.00		-3.60		2.457e-02		126.869		8.234e-03		13.511
7		0.00		-3.20		2.378e-02		126.697		7.758e-03		13.208
7		0.00		-2.80		2.219e-02		125.649		7.236e-03		12.113
7		0.00		-2.40		2.137e-02		127.864		7.057e-03		10.266
7		0.00		-2.00		2.045e-02		128.307		6.828e-03		9.357
7		0.00		-1.60		1.877e-02		127.152		6.894e-03		9.817
7		0.00		-1.20		1.726e-02		129.019		6.697e-03		13.389
7		0.00		-0.80		1.626e-02		127.253		6.299e-03		19.697
7		0.00		-0.40		1.500e-02		123.888		6.173e-03		25.568
8		0.00		0.00		1.454e-02		124.763		6.159e-03		20.558
8		0.00		0.40		1.367e-02		121.204		5.804e-03		24.753
8		0.00		0.80		1.288e-02		118.438		5.571e-03		26.986
8		0.00		1.20		1.201e-02		112.612		5.167e-03		35.530
8		0.00		1.60		1.114e-02		113.752		4.807e-03		33.985
8		0.00		2.00		1.001e-02		115.686		4.163e-03		29.007
8		0.00		2.40		9.422e-03		116.404		3.726e-03		32.705
8		0.00		2.80		7.217e-03		117.717		2.802e-03		28.747
8		0.00		3.20		5.618e-03		113.907		2.587e-03		39.929
8		0.00		3.60		3.925e-03		106.107		1.767e-03		51.681
8		0.00		4.00		2.437e-03		52.915		1.125e-03		73.402
8		0.00		4.40		3.078e-03		-41.648		1.724e-03		58.880
8		0.00		4.80		5.770e-03		-57.687		2.377e-03		30.091
8		0.00		5.20		1.001e-02		-54.918		3.629e-03		18.038
8		0.00		5.60		1.512e-02		-55.899		5.046e-03		15.652
8		0.00		6.00		2.114e-02		-54.474		6.963e-03		12.554
8		0.00		6.40		2.531e-02		-56.403		8.304e-03		12.338
8		0.00		6.80		2.812e-02		-55.827		9.421e-03		13.925
8		0.00		7.20		3.205e-02		-55.459		1.046e-02		12.451
8		0.00		7.60		3.431e-02		-55.487		1.097e-02		11.462
8		0.00		8.00		3.762e-02		-53.243		1.205e-02		9.862
8		0.00		8.40		3.802e-02		-52.523		1.245e-02		10.696
8		0.00		8.80		4.060e-02		-51.582		1.398e-02		9.767
8		0.00		9.20		4.276e-02		-50.103		1.452e-02		9.520
8		0.00		9.60		4.352e-02		-49.117		1.516e-02		10.038
8		0.00		10.00		4.452e-02		-49.039		1.531e-02		10.815
8		0.00		9.60		4.434e-02		-49.916		1.529e-02		11.722
8		0.00		9.20		4.453e-02		-50.298		1.581e-02		11.978
8		0.00		8.80		4.442e-02		-50.230		1.630e-02		13.654
8		0.00		8.40		4.373e-02		-52.387		1.648e-02		18.457
8		0.00		8.00		4.201e-02		-48.243		1.613e-02		24.278
8		0.00		7.60		4.074e-02		-49.145		1.574e-02		27.128
8		0.00		7.20		4.131e-02		-48.167		1.575e-02		29.674
8		0.00		6.80		3.910e-02		-47.220		1.481e-02		25.536
8		0.00		6.40		3.808e-02		-50.332		1.457e-02		29.359
8		0.00		6.00		3.629e-02		-50.021		1.403e-02		31.412
8		0.00		5.60		3.630e-02		-53.430		1.409e-02		26.517
8		0.00		5.20		3.572e-02		-55.555		1.322e-02		23.957
8		0.00		4.80		3.575e-02		-54.109		1.299e-02		19.265
8		0.00		4.40		3.414e-02		-52.390		1.244e-02		15.015
8		0.00		4.00		3.391e-02		-53.044		1.207e-02		14.048
8		0.00		3.60		3.428e-02		-53.039		1.149e-02		11.519
8		0.00		3.20		3.422e-02		-54.972		1.070e-02		12.335
8		0.00		2.80		3.403e-02		-54.391		1.005e-02		10.821
8		0.00		2.40		3.317e-02		-53.179		9.232e-03		10.573
8		0.00		2.00		3.259e-02		-53.988		9.097e-03		11.320
8		0.00		1.60		3.300e-02		-53.665		9.260e-03		11.233
8		0.00		1.20		3.241e-02		-53.114		9.205e-03		10.437
8		0.00		0.80		3.214e-02		-52.634		9.168e-03		10.348
8		0.00		0.40		3.236e-02		-51.729		9.565e-03		8.143
8		0.00		0.00		3.145e-02		-52.117		9.430e-03		8.469
8		0.00		-0.40		3.025e-02		-51.289		9.216e-03		8.834
8		0.00		-0.80		2.764e-02		-51.161		8.658e-03		10.106
8		0.00		-1.20		2.500e-02		-52.346		8.577e-03		10.094
8		0.00		-1.60		2.092e-02		-51.287		7.472e-03		10.927
8		0.00		-2.00		1.677e-02		-50.065		6.240e-03		11.499
8		0.00		-2.40		1.201e-02		-49.557		5.235e-03		17.995
8		0.00		-2.80		7.784e-03		-47.713		4.289e-03		24.583
8		0.00		-3.20		4.416e-03		-16.164		3.411e-03		67.815
8		0.00		-3.60		4.004e-03		32.209		2.502e-03		76.944
8		0.00		-4.00		5.283e-03		83.249		2.669e-03		54.338
8		0.00		-4.40		8.825e-03		101.690		4.536e-03		44.186
8		0.00		-4.80		1.233e-02		111.016		5.932e-03		41.687
8		0.00		-5.20		1.439e-02		122.180		6.585e-03		25.874
8		0.00		-5.60		1.814e-02		122.800		7.856e-03		26.270
8		0.00		-6.00		2.157e-02		124.382		8.998e-03		20.346
8		0.00		-6.40		2.458e-02		128.175		9.777e-03		15.185
8		0.00		-6.80		2.721e-02		124.823		1.061e-02		16.797
8		0.00		-7.20		3.026e-02		125.385		1.106e-02		15.831
8		0.00		-7.60		3.426e-02		126.478		1.211e-02		14.184
8		0.00		-8.00		3.707e-02		125.717		1.262e-02		16.591
8		0.00		-8.40		3.840e-02		126.011		1.338e-02		15.820
8		0.00		-8.80		3.886e-02		126.520		1.355e-02		15.114
8		0.00		-9.20		3.927e-02		124.964		1.415e-02		16.102
8		0.00		-9.60		4.012e-02		126.301		1.412e-02		15.878
8		0.00		-10.00		4.122e-02		127.259		1.448e-02		14.186
8		0.00		-9.60		3.986e-02		126.402		1.420e-02		12.852
8		0.00		-9.20		4.006e-02		128.176		1.398e-02		10.194
8		0.00		-8.80		3.838e-02		128.159		1.384e-02		10.228
8		0.00		-8.40		3.912e-02		128.251		1.412e-02		9.203
8		0.00		-8.00		3.947e-02		129.126		1.428e-02		8.600
8		0.00		-7.60		3.848e-02		128.000		1.382e-02		9.343
8		0.00		-7.20		3.736e-02		127.931		1.316e-02		9.735
8		0.00		-6.80		3.537e-02		127.661		1.249e-02		11.092
8		0.00		-6.40		3.417e-02		128.023		1.204e-02		10.154
8		0.00		-6.00		3.292e-02		126.698		1.200e-02		12.418
8		0.00		-5.60		3.165e-02		125.564		1.129e-02		14.075
8		0.00		-5.20		2.998e-02		126.450		1.075e-02		15.886
8		0.00		-4.80		2.895e-02		125.230		1.028e-02		17.054
8		0.00		-4.40		2.746e-02		124.827		1.009e-02		19.495
8		0.00		-4.00		2.600e-02		125.062		1.022e-02		19.336
8		0.00		-3.60		2.440e-02		126.290		1.001e-02		20.318
8		0.00		-3.20		2.274e-02		121.136		9.579e-03		24.197
8		0.00		-2.80		2.183e-02		124.757		9.309e-03		22.617
8		0.00		-2.40		2.037e-02		120.455		8.803e-03		30.958
8		0.00		-2.00		1.911e-02		120.910		8.342e-03		26.170
8		0.00		-1.60		1.778e-02		118.697		7.716e-03		28.869
8		0.00		-1.20		1.752e-02		120.005		7.644e-03		30.430
8		0.00		-0.80		1.646e-02		118.587		6.937e-03		26.715
8		0.00		-0.40		1.559e-02		120.178		6.452e-03		27.894
