# Date of analysis: 2024-03-08 10;59
# Segment other properties: height: -79.40384552593376, diff height: 208.54930573612847, deflection: 35.89757335211164, deflection error: 3.534649480298556, adhesion: 31.8491686495889, phase offset: 0
# 
# Loop index	Read Volt (V)	Write Volt (V)	Amplitude (a.u)	Phase (deg)	Sigma Amp (a.u)	Sigma Pha (deg)	
1		0.00		0.00		7.484e-03		-48.337		2.485e-03		25.799
1		0.00		0.40		7.567e-03		-56.527		2.443e-03		27.814
1		0.00		0.80		8.065e-03		-52.817		2.511e-03		24.437
1		0.00		1.20		8.865e-03		-58.101		2.637e-03		26.135
1		0.00		1.60		8.797e-03		-57.001		2.813e-03		25.753
1		0.00		2.00		9.043e-03		-60.304		3.033e-03		22.588
1		0.00		2.40		9.509e-03		-53.515		3.194e-03		23.060
1		0.00		2.80		1.000e-02		-54.880		3.356e-03		23.812
1		0.00		3.20		1.047e-02		-55.422		3.713e-03		25.781
1		0.00		3.60		1.094e-02		-54.613		3.918e-03		23.614
1		0.00		4.00		1.177e-02		-60.969		3.988e-03		24.209
1		0.00		4.40		1.226e-02		-59.588		3.676e-03		21.541
1		0.00		4.80		1.350e-02		-56.069		4.075e-03		21.340
1		0.00		5.20		1.356e-02		-57.932		4.190e-03		24.911
1		0.00		5.60		1.512e-02		-58.894		4.910e-03		21.800
1		0.00		6.00		1.582e-02		-53.922		5.369e-03		21.604
1		0.00		6.40		1.566e-02		-53.929		5.611e-03		24.558
1		0.00		6.80		1.639e-02		-58.079		6.242e-03		23.573
1		0.00		7.20		1.789e-02		-60.035		6.804e-03		23.017
1		0.00		7.60		1.933e-02		-61.858		6.793e-03		24.787
1		0.00		8.00		2.044e-02		-64.576		7.712e-03		23.016
1		0.00		8.40		2.261e-02		-61.419		7.685e-03		22.593
1		0.00		8.80		2.448e-02		-60.029		8.042e-03		22.168
1		0.00		9.20		2.510e-02		-59.724		9.596e-03		22.995
1		0.00		9.60		2.630e-02		-58.776		9.925e-03		21.034
1		0.00		10.00		2.737e-02		-61.886		1.065e-02		23.338
1		0.00		9.60		2.778e-02		-64.133		1.105e-02		25.309
1		0.00		9.20		2.842e-02		-65.879		1.092e-02		26.335
1		0.00		8.80		2.958e-02		-65.418		1.161e-02		23.936
1		0.00		8.40		2.870e-02		-64.819		1.064e-02		22.420
1		0.00		8.00		2.745e-02		-64.065		1.058e-02		21.299
1		0.00		7.60		2.751e-02		-62.886		1.029e-02		23.053
1		0.00		7.20		2.684e-02		-60.969		1.152e-02		24.255
1		0.00		6.80		2.667e-02		-65.592		1.091e-02		26.784
1		0.00		6.40		2.596e-02		-68.704		1.073e-02		27.494
1		0.00		6.00		2.420e-02		-69.040		9.862e-03		26.960
1		0.00		5.60		2.419e-02		-67.716		9.507e-03		23.178
1		0.00		5.20		2.451e-02		-64.067		9.040e-03		24.184
1		0.00		4.80		2.429e-02		-63.261		9.201e-03		24.063
1		0.00		4.40		2.359e-02		-62.146		9.412e-03		24.910
1		0.00		4.00		2.203e-02		-66.784		9.577e-03		27.501
1		0.00		3.60		2.193e-02		-66.924		9.144e-03		29.046
1		0.00		3.20		2.156e-02		-66.352		8.694e-03		27.213
1		0.00		2.80		2.165e-02		-65.044		8.244e-03		25.682
1		0.00		2.40		2.043e-02		-64.197		8.692e-03		26.063
1		0.00		2.00		2.034e-02		-61.781		8.905e-03		25.125
1		0.00		1.60		1.933e-02		-66.840		8.902e-03		28.950
1		0.00		1.20		1.880e-02		-70.190		8.521e-03		28.808
1		0.00		0.80		1.821e-02		-68.733		7.724e-03		25.230
1		0.00		0.40		1.821e-02		-63.897		7.533e-03		26.279
1		0.00		0.00		1.705e-02		-65.349		7.565e-03		27.989
1		0.00		-0.40		1.703e-02		-61.812		7.632e-03		26.880
1		0.00		-0.80		1.622e-02		-68.061		7.113e-03		29.291
1		0.00		-1.20		1.616e-02		-66.138		6.374e-03		25.366
1		0.00		-1.60		1.559e-02		-62.109		5.498e-03		24.608
1		0.00		-2.00		1.355e-02		-61.709		4.637e-03		22.734
1		0.00		-2.40		1.199e-02		-60.870		4.365e-03		26.189
1		0.00		-2.80		1.052e-02		-58.776		4.007e-03		26.104
1		0.00		-3.20		9.319e-03		-60.098		3.095e-03		26.799
1		0.00		-3.60		7.212e-03		-54.905		2.305e-03		27.970
1		0.00		-4.00		5.127e-03		-52.836		2.000e-03		31.304
1		0.00		-4.40		3.774e-03		-37.200		1.534e-03		41.797
1		0.00		-4.80		2.694e-03		-13.755		1.255e-03		64.977
1		0.00		-5.20		2.448e-03		-19.318		1.124e-03		56.914
1		0.00		-5.60		2.501e-03		21.871		1.378e-03		77.412
1		0.00		-6.00		3.407e-03		56.022		2.068e-03		70.493
1		0.00		-6.40		4.747e-03		87.465		2.714e-03		48.526
1		0.00		-6.80		5.543e-03		95.761		3.500e-03		42.299
1		0.00		-7.20		5.975e-03		93.543		3.489e-03		38.977
1		0.00		-7.60		7.144e-03		92.233		3.625e-03		49.486
1		0.00		-8.00		8.709e-03		107.532		4.173e-03		35.813
1		0.00		-8.40		8.853e-03		110.148		4.451e-03		25.536
1		0.00		-8.80		9.485e-03		109.862		4.841e-03		27.511
1		0.00		-9.20		1.100e-02		106.506		5.297e-03		33.966
1		0.00		-9.60		1.169e-02		101.546		5.040e-03		46.798
1		0.00		-10.00		1.312e-02		109.503		5.505e-03		30.950
1		0.00		-9.60		1.345e-02		115.690		5.614e-03		24.946
1		0.00		-9.20		1.375e-02		113.602		5.770e-03		25.000
1		0.00		-8.80		1.433e-02		115.082		5.871e-03		26.130
1		0.00		-8.40		1.427e-02		111.758		5.736e-03		27.323
1		0.00		-8.00		1.451e-02		110.853		5.794e-03		23.478
1		0.00		-7.60		1.470e-02		117.927		5.684e-03		21.469
1		0.00		-7.20		1.394e-02		115.018		5.611e-03		22.636
1		0.00		-6.80		1.285e-02		113.784		5.344e-03		28.307
1		0.00		-6.40		1.270e-02		113.832		4.975e-03		36.006
1		0.00		-6.00		1.227e-02		113.124		4.991e-03		30.505
1		0.00		-5.60		1.161e-02		112.202		4.634e-03		26.916
1		0.00		-5.20		1.163e-02		114.022		4.654e-03		23.032
1		0.00		-4.80		1.119e-02		113.364		4.920e-03		34.223
1		0.00		-4.40		1.090e-02		107.201		4.898e-03		41.817
1		0.00		-4.00		9.794e-03		102.248		4.587e-03		46.912
1		0.00		-3.60		9.626e-03		110.968		4.079e-03		29.793
1		0.00		-3.20		9.651e-03		111.567		4.054e-03		24.962
1		0.00		-2.80		9.419e-03		111.694		4.005e-03		27.347
1		0.00		-2.40		9.027e-03		112.428		4.171e-03		31.319
1		0.00		-2.00		8.526e-03		104.004		3.695e-03		50.810
1		0.00		-1.60		7.915e-03		108.692		3.466e-03		32.951
1		0.00		-1.20		7.715e-03		108.631		3.275e-03		32.703
1		0.00		-0.80		6.583e-03		111.497		2.666e-03		31.749
1		0.00		-0.40		6.116e-03		103.775		2.672e-03		45.872
2		0.00		0.00		4.795e-03		98.245		2.186e-03		55.666
2		0.00		0.40		4.217e-03		101.367		1.938e-03		34.322
2		0.00		0.80		3.004e-03		79.827		1.490e-03		53.905
2		0.00		1.20		2.574e-03		57.425		1.242e-03		83.692
2		0.00		1.60		2.131e-03		20.428		1.027e-03		77.413
2		0.00		2.00		2.714e-03		-47.220		1.402e-03		43.663
2		0.00		2.40		5.627e-03		-58.679		2.188e-03		26.133
2		0.00		2.80		7.846e-03		-53.609		3.106e-03		26.341
2		0.00		3.20		9.341e-03		-55.858		3.683e-03		28.779
2		0.00		3.60		1.355e-02		-58.373		5.085e-03		23.741
2		0.00		4.00		1.508e-02		-57.656		5.359e-03		24.817
2		0.00		4.40		1.756e-02		-56.413		5.640e-03		21.919
2		0.00		4.80		1.814e-02		-59.711		6.200e-03		24.536
2		0.00		5.20		1.973e-02		-58.123		6.888e-03		22.267
2		0.00		5.60		2.039e-02		-60.252		7.189e-03		25.269
2		0.00		6.00		2.380e-02		-62.302		7.977e-03		23.339
2		0.00		6.40		2.538e-02		-61.390		8.407e-03		20.747
2		0.00		6.80		2.372e-02		-58.744		8.289e-03		22.565
2		0.00		7.20		2.605e-02		-60.113		8.505e-03		24.623
2		0.00		7.60		2.830e-02		-60.309		9.506e-03		25.097
2		0.00		8.00		2.948e-02		-59.446		9.406e-03		21.881
2		0.00		8.40		2.860e-02		-59.888		8.565e-03		22.690
2		0.00		8.80		2.987e-02		-55.396		8.476e-03		21.244
2		0.00		9.20		2.821e-02		-58.187		8.581e-03		25.240
2		0.00		9.60		3.009e-02		-58.141		8.805e-03		23.709
2		0.00		10.00		2.993e-02		-57.734		8.112e-03		21.685
2		0.00		9.60		2.887e-02		-56.297		8.107e-03		20.624
2		0.00		9.20		2.833e-02		-54.844		8.045e-03		21.516
2		0.00		8.80		2.950e-02		-58.331		8.548e-03		24.339
2		0.00		8.40		3.020e-02		-57.303		7.947e-03		22.770
2		0.00		8.00		2.926e-02		-57.582		8.424e-03		22.983
2		0.00		7.60		2.699e-02		-56.035		7.945e-03		22.870
2		0.00		7.20		2.646e-02		-59.742		8.210e-03		23.686
2		0.00		6.80		2.524e-02		-60.728		7.943e-03		26.935
2		0.00		6.40		2.721e-02		-61.384		8.254e-03		25.142
2		0.00		6.00		2.586e-02		-57.945		7.930e-03		24.020
2		0.00		5.60		2.388e-02		-57.844		7.951e-03		24.466
2		0.00		5.20		2.199e-02		-59.324		6.945e-03		28.266
2		0.00		4.80		2.379e-02		-61.889		7.244e-03		25.964
2		0.00		4.40		2.417e-02		-59.606		6.862e-03		24.488
2		0.00		4.00		2.313e-02		-58.184		6.378e-03		23.511
2		0.00		3.60		2.278e-02		-56.402		6.311e-03		24.322
2		0.00		3.20		2.130e-02		-58.037		5.742e-03		25.060
2		0.00		2.80		2.295e-02		-58.490		5.432e-03		22.558
2		0.00		2.40		2.225e-02		-56.644		5.672e-03		22.444
2		0.00		2.00		2.100e-02		-54.988		5.237e-03		22.590
2		0.00		1.60		2.030e-02		-52.159		5.504e-03		21.470
2		0.00		1.20		1.985e-02		-57.268		4.604e-03		24.340
2		0.00		0.80		1.992e-02		-57.906		4.657e-03		24.815
2		0.00		0.40		1.936e-02		-55.681		4.390e-03		22.231
2		0.00		0.00		1.813e-02		-50.627		4.388e-03		23.209
2		0.00		-0.40		1.744e-02		-52.101		4.357e-03		20.864
2		0.00		-0.80		1.566e-02		-54.871		3.850e-03		25.947
2		0.00		-1.20		1.407e-02		-57.831		3.210e-03		26.588
2		0.00		-1.60		1.273e-02		-57.468		3.318e-03		25.159
2		0.00		-2.00		1.023e-02		-49.415		3.221e-03		24.043
2		0.00		-2.40		6.677e-03		-37.947		2.894e-03		35.335
2		0.00		-2.80		6.135e-03		-51.701		2.506e-03		35.112
2		0.00		-3.20		4.693e-03		-40.391		2.553e-03		64.032
2		0.00		-3.60		3.578e-03		-17.043		1.576e-03		84.534
2		0.00		-4.00		3.428e-03		30.909		1.455e-03		92.660
2		0.00		-4.40		3.450e-03		47.520		1.915e-03		84.607
2		0.00		-4.80		4.729e-03		59.075		2.200e-03		98.943
2		0.00		-5.20		4.801e-03		62.717		2.337e-03		96.706
2		0.00		-5.60		6.036e-03		70.928		3.038e-03		89.580
2		0.00		-6.00		6.060e-03		84.938		3.104e-03		84.984
2		0.00		-6.40		6.750e-03		100.944		3.389e-03		68.024
2		0.00		-6.80		7.573e-03		92.325		4.192e-03		74.034
2		0.00		-7.20		7.537e-03		83.017		3.713e-03		83.048
2		0.00		-7.60		8.723e-03		117.027		3.909e-03		52.486
2		0.00		-8.00		9.349e-03		118.158		4.249e-03		41.099
2		0.00		-8.40		1.084e-02		116.573		4.536e-03		54.631
2		0.00		-8.80		9.390e-03		110.191		3.998e-03		61.138
2		0.00		-9.20		1.086e-02		106.417		4.880e-03		66.320
2		0.00		-9.60		1.161e-02		125.415		4.968e-03		27.520
2		0.00		-10.00		1.092e-02		125.567		3.929e-03		21.666
2		0.00		-9.60		1.146e-02		117.497		4.359e-03		42.390
2		0.00		-9.20		1.139e-02		112.917		4.662e-03		53.736
2		0.00		-8.80		1.085e-02		105.876		4.519e-03		60.237
2		0.00		-8.40		1.067e-02		121.682		4.116e-03		28.650
2		0.00		-8.00		9.599e-03		124.357		3.437e-03		21.254
2		0.00		-7.60		1.110e-02		126.529		3.793e-03		26.322
2		0.00		-7.20		1.099e-02		119.172		3.857e-03		45.264
2		0.00		-6.80		9.834e-03		115.365		3.277e-03		44.794
2		0.00		-6.40		1.026e-02		119.236		3.534e-03		28.502
2		0.00		-6.00		1.120e-02		126.459		3.972e-03		21.842
2		0.00		-5.60		1.120e-02		123.969		3.573e-03		31.251
2		0.00		-5.20		1.008e-02		111.711		3.508e-03		53.819
2		0.00		-4.80		1.027e-02		111.871		3.880e-03		53.807
2		0.00		-4.40		9.283e-03		123.082		3.347e-03		37.367
2		0.00		-4.00		9.703e-03		128.540		3.435e-03		23.019
2		0.00		-3.60		9.941e-03		125.020		3.506e-03		45.482
2		0.00		-3.20		9.056e-03		122.768		3.271e-03		48.486
2		0.00		-2.80		9.092e-03		119.666		3.288e-03		46.050
2		0.00		-2.40		8.447e-03		123.421		3.145e-03		32.512
2		0.00		-2.00		8.494e-03		116.642		3.077e-03		47.542
2		0.00		-1.60		8.384e-03		118.312		3.405e-03		48.735
2		0.00		-1.20		8.197e-03		119.927		3.238e-03		50.060
2		0.00		-0.80		7.328e-03		112.101		2.944e-03		57.965
2		0.00		-0.40		6.224e-03		124.310		2.270e-03		35.292
3		0.00		0.00		5.761e-03		110.570		2.488e-03		54.012
3		0.00		0.40		5.161e-03		105.911		2.202e-03		65.694
3		0.00		0.80		4.031e-03		90.272		1.713e-03		77.849
3		0.00		1.20		3.360e-03		54.966		1.345e-03		90.336
3		0.00		1.60		2.802e-03		24.078		1.317e-03		88.963
3		0.00		2.00		3.153e-03		39.379		1.305e-03		81.104
3		0.00		2.40		2.949e-03		-17.982		1.589e-03		62.525
3		0.00		2.80		5.451e-03		-41.301		2.376e-03		30.485
3		0.00		3.20		7.299e-03		-53.910		2.664e-03		26.482
3		0.00		3.60		7.914e-03		-52.983		2.825e-03		24.707
3		0.00		4.00		1.023e-02		-46.964		3.922e-03		19.513
3		0.00		4.40		1.295e-02		-49.086		3.531e-03		20.167
3		0.00		4.80		1.573e-02		-52.717		4.453e-03		22.745
3		0.00		5.20		1.478e-02		-56.103		4.304e-03		20.443
3		0.00		5.60		1.547e-02		-48.394		3.978e-03		17.635
3		0.00		6.00		1.641e-02		-52.389		4.555e-03		19.238
3		0.00		6.40		1.575e-02		-48.077		4.462e-03		21.938
3		0.00		6.80		1.957e-02		-54.807		4.733e-03		24.100
3		0.00		7.20		1.772e-02		-59.686		4.753e-03		24.912
3		0.00		7.60		1.808e-02		-51.757		5.057e-03		25.244
3		0.00		8.00		1.895e-02		-53.162		5.891e-03		22.005
3		0.00		8.40		1.900e-02		-52.623		5.426e-03		21.193
3		0.00		8.80		1.998e-02		-56.831		5.271e-03		26.768
3		0.00		9.20		2.066e-02		-55.990		5.985e-03		25.071
3		0.00		9.60		2.005e-02		-49.459		5.694e-03		23.890
3		0.00		10.00		1.852e-02		-45.163		6.087e-03		22.464
3		0.00		9.60		2.040e-02		-57.268		4.757e-03		23.567
3		0.00		9.20		2.182e-02		-55.480		5.250e-03		25.238
3		0.00		8.80		2.171e-02		-53.200		5.510e-03		23.738
3		0.00		8.40		2.099e-02		-46.888		5.708e-03		20.554
3		0.00		8.00		1.896e-02		-50.517		5.304e-03		21.496
3		0.00		7.60		1.875e-02		-55.208		4.001e-03		24.322
3		0.00		7.20		2.057e-02		-57.600		5.583e-03		24.421
3		0.00		6.80		1.767e-02		-49.388		4.948e-03		22.862
3		0.00		6.40		1.674e-02		-48.026		4.684e-03		23.118
3		0.00		6.00		1.788e-02		-53.741		4.338e-03		23.663
3		0.00		5.60		1.775e-02		-53.804		3.630e-03		25.387
3		0.00		5.20		1.821e-02		-48.773		4.903e-03		23.096
3		0.00		4.80		1.771e-02		-49.431		4.780e-03		19.274
3		0.00		4.40		1.732e-02		-48.008		4.928e-03		22.117
3		0.00		4.00		1.668e-02		-54.267		3.672e-03		25.842
3		0.00		3.60		1.725e-02		-56.685		4.240e-03		24.520
3		0.00		3.20		1.648e-02		-52.128		4.008e-03		21.948
3		0.00		2.80		1.656e-02		-45.222		4.804e-03		21.606
3		0.00		2.40		1.616e-02		-52.639		3.374e-03		24.570
3		0.00		2.00		1.736e-02		-53.873		3.849e-03		25.208
3		0.00		1.60		1.709e-02		-53.016		4.255e-03		22.808
3		0.00		1.20		1.604e-02		-51.583		4.733e-03		24.560
3		0.00		0.80		1.637e-02		-48.824		3.854e-03		22.080
3		0.00		0.40		1.607e-02		-55.454		3.340e-03		26.212
3		0.00		0.00		1.582e-02		-60.249		3.777e-03		21.583
3		0.00		-0.40		1.318e-02		-49.090		3.754e-03		24.925
3		0.00		-0.80		1.113e-02		-43.055		3.503e-03		24.418
3		0.00		-1.20		9.224e-03		-51.039		2.736e-03		25.948
3		0.00		-1.60		7.792e-03		-62.685		3.191e-03		26.052
3		0.00		-2.00		6.124e-03		-53.778		2.937e-03		29.253
3		0.00		-2.40		3.739e-03		-12.210		2.368e-03		77.812
3		0.00		-2.80		3.799e-03		42.317		1.804e-03		88.691
3		0.00		-3.20		5.282e-03		65.521		2.103e-03		95.360
3		0.00		-3.60		5.000e-03		42.113		2.201e-03		95.250
3		0.00		-4.00		4.943e-03		68.107		2.109e-03		89.596
3		0.00		-4.40		5.845e-03		90.636		2.513e-03		77.088
3		0.00		-4.80		6.911e-03		90.274		2.995e-03		79.696
3		0.00		-5.20		8.242e-03		85.075		3.280e-03		80.863
3		0.00		-5.60		7.916e-03		102.452		3.661e-03		61.724
3		0.00		-6.00		9.610e-03		120.675		4.224e-03		46.427
3		0.00		-6.40		9.912e-03		108.281		4.099e-03		64.345
3		0.00		-6.80		9.123e-03		87.354		3.549e-03		85.599
3		0.00		-7.20		1.058e-02		94.849		4.787e-03		72.412
3		0.00		-7.60		1.053e-02		121.242		4.099e-03		31.770
3		0.00		-8.00		1.169e-02		118.736		4.344e-03		46.086
3		0.00		-8.40		1.114e-02		105.006		4.446e-03		64.692
3		0.00		-8.80		1.055e-02		97.170		4.556e-03		61.556
3		0.00		-9.20		1.113e-02		122.682		4.342e-03		28.209
3		0.00		-9.60		1.304e-02		123.613		4.323e-03		26.725
3		0.00		-10.00		1.059e-02		115.660		4.004e-03		49.237
3		0.00		-9.60		9.801e-03		120.170		3.329e-03		35.744
3		0.00		-9.20		1.043e-02		121.234		3.015e-03		29.080
3		0.00		-8.80		1.003e-02		125.957		3.265e-03		37.674
3		0.00		-8.40		1.216e-02		127.657		3.557e-03		32.171
3		0.00		-8.00		1.250e-02		125.869		4.046e-03		36.232
3		0.00		-7.60		1.268e-02		125.411		3.674e-03		32.999
3		0.00		-7.20		1.166e-02		118.034		3.486e-03		41.896
3		0.00		-6.80		1.154e-02		126.761		3.511e-03		31.787
3		0.00		-6.40		1.225e-02		128.245		3.819e-03		28.040
3		0.00		-6.00		1.160e-02		125.832		3.739e-03		37.831
3		0.00		-5.60		1.392e-02		127.097		4.200e-03		22.623
3		0.00		-5.20		1.313e-02		121.503		4.049e-03		31.921
3		0.00		-4.80		1.317e-02		122.256		4.271e-03		33.150
3		0.00		-4.40		1.379e-02		126.735		4.386e-03		24.788
3		0.00		-4.00		1.303e-02		119.828		4.242e-03		52.825
3		0.00		-3.60		1.270e-02		124.278		4.390e-03		28.266
3		0.00		-3.20		1.355e-02		123.637		4.794e-03		23.641
3		0.00		-2.80		1.279e-02		125.176		4.459e-03		23.037
3		0.00		-2.40		1.161e-02		119.016		4.029e-03		45.584
3		0.00		-2.00		1.085e-02		114.056		3.600e-03		55.022
3		0.00		-1.60		1.001e-02		116.009		3.833e-03		38.620
3		0.00		-1.20		9.030e-03		121.092		3.153e-03		27.111
3		0.00		-0.80		9.057e-03		120.186		3.175e-03		35.469
3		0.00		-0.40		8.025e-03		123.370		2.735e-03		47.514
4		0.00		0.00		5.269e-03		110.072		2.015e-03		61.697
4		0.00		0.40		4.695e-03		102.999		2.041e-03		64.008
4		0.00		0.80		3.248e-03		47.931		1.431e-03		94.568
4		0.00		1.20		2.839e-03		33.569		1.248e-03		71.389
4		0.00		1.60		2.616e-03		-2.240		1.061e-03		92.592
4		0.00		2.00		2.727e-03		-9.758		1.365e-03		61.697
4		0.00		2.40		3.762e-03		-27.262		1.844e-03		58.242
4		0.00		2.80		6.448e-03		-48.755		2.080e-03		31.296
4		0.00		3.20		1.136e-02		-45.172		3.028e-03		23.240
4		0.00		3.60		1.468e-02		-49.177		4.320e-03		21.276
4		0.00		4.00		1.664e-02		-49.279		4.599e-03		26.109
4		0.00		4.40		1.907e-02		-51.524		5.329e-03		25.267
4		0.00		4.80		2.096e-02		-51.903		5.716e-03		25.689
4		0.00		5.20		2.221e-02		-44.813		6.368e-03		29.259
4		0.00		5.60		2.218e-02		-44.859		6.140e-03		19.750
4		0.00		6.00		2.278e-02		-48.408		5.887e-03		21.085
4		0.00		6.40		2.299e-02		-52.093		6.196e-03		24.638
4		0.00		6.80		2.583e-02		-52.492		6.029e-03		22.570
4		0.00		7.20		2.394e-02		-44.499		6.375e-03		21.545
4		0.00		7.60		2.407e-02		-43.245		6.998e-03		19.468
4		0.00		8.00		2.478e-02		-50.003		6.905e-03		23.367
4		0.00		8.40		2.690e-02		-49.548		6.189e-03		22.307
4		0.00		8.80		2.649e-02		-50.399		6.285e-03		24.193
4		0.00		9.20		2.635e-02		-50.912		6.387e-03		22.551
4		0.00		9.60		2.625e-02		-44.479		7.041e-03		31.084
4		0.00		10.00		2.540e-02		-47.078		6.569e-03		22.985
4		0.00		9.60		2.509e-02		-53.553		6.114e-03		24.149
4		0.00		9.20		2.640e-02		-52.655		6.664e-03		22.965
4		0.00		8.80		2.760e-02		-51.416		6.632e-03		24.462
4		0.00		8.40		2.558e-02		-45.545		7.122e-03		21.065
4		0.00		8.00		2.428e-02		-47.828		6.238e-03		19.894
4		0.00		7.60		2.379e-02		-51.186		5.537e-03		24.360
4		0.00		7.20		2.479e-02		-49.853		5.022e-03		23.655
4		0.00		6.80		2.607e-02		-51.992		6.158e-03		24.071
4		0.00		6.40		2.334e-02		-47.195		5.741e-03		28.624
4		0.00		6.00		2.473e-02		-46.840		6.113e-03		20.596
4		0.00		5.60		2.273e-02		-48.121		5.333e-03		22.666
4		0.00		5.20		2.401e-02		-48.254		5.158e-03		23.439
4		0.00		4.80		2.511e-02		-53.236		5.547e-03		21.683
4		0.00		4.40		2.494e-02		-46.726		6.025e-03		20.747
4		0.00		4.00		2.430e-02		-44.464		6.196e-03		21.860
4		0.00		3.60		2.408e-02		-46.114		5.162e-03		17.725
4		0.00		3.20		2.301e-02		-51.157		4.775e-03		21.475
4		0.00		2.80		2.287e-02		-50.096		4.166e-03		24.521
4		0.00		2.40		2.348e-02		-53.039		5.177e-03		23.163
4		0.00		2.00		2.330e-02		-50.633		5.702e-03		25.130
4		0.00		1.60		2.147e-02		-47.156		4.927e-03		22.416
4		0.00		1.20		2.079e-02		-46.502		5.070e-03		21.878
4		0.00		0.80		2.049e-02		-49.969		4.609e-03		20.831
4		0.00		0.40		1.924e-02		-51.044		4.442e-03		22.092
4		0.00		0.00		1.952e-02		-54.075		4.027e-03		24.829
4		0.00		-0.40		1.772e-02		-52.398		4.091e-03		27.022
4		0.00		-0.80		1.614e-02		-46.135		3.763e-03		33.596
4		0.00		-1.20		1.352e-02		-42.530		3.520e-03		26.405
4		0.00		-1.60		1.177e-02		-50.302		3.785e-03		26.910
4		0.00		-2.00		9.211e-03		-53.440		3.742e-03		27.020
4		0.00		-2.40		7.066e-03		-59.190		3.381e-03		33.537
4		0.00		-2.80		4.926e-03		-53.965		2.749e-03		56.836
4		0.00		-3.20		4.312e-03		7.788		2.056e-03		85.882
4		0.00		-3.60		4.391e-03		47.029		1.871e-03		85.483
4		0.00		-4.00		5.124e-03		74.307		2.471e-03		74.043
4		0.00		-4.40		8.212e-03		107.068		3.224e-03		66.800
4		0.00		-4.80		9.571e-03		108.475		3.659e-03		65.941
4		0.00		-5.20		1.056e-02		112.339		3.769e-03		57.843
4		0.00		-5.60		1.108e-02		107.980		4.568e-03		61.295
4		0.00		-6.00		1.059e-02		116.096		4.626e-03		45.884
4		0.00		-6.40		1.223e-02		121.572		4.712e-03		33.731
4		0.00		-6.80		1.063e-02		126.776		4.005e-03		26.619
4		0.00		-7.20		1.324e-02		123.774		4.563e-03		42.424
4		0.00		-7.60		1.112e-02		107.876		4.051e-03		59.465
4		0.00		-8.00		1.136e-02		114.307		3.999e-03		54.441
4		0.00		-8.40		1.327e-02		124.008		4.672e-03		38.612
4		0.00		-8.80		1.073e-02		119.779		4.000e-03		44.088
4		0.00		-9.20		1.145e-02		123.504		4.037e-03		37.249
4		0.00		-9.60		1.158e-02		115.542		4.043e-03		51.179
4		0.00		-10.00		1.139e-02		122.804		3.666e-03		46.747
4		0.00		-9.60		1.183e-02		126.719		3.591e-03		37.481
4		0.00		-9.20		1.260e-02		125.051		4.043e-03		30.431
4		0.00		-8.80		1.298e-02		124.496		3.956e-03		30.077
4		0.00		-8.40		1.334e-02		117.779		4.389e-03		39.501
4		0.00		-8.00		1.342e-02		122.397		4.117e-03		32.321
4		0.00		-7.60		1.496e-02		126.715		4.920e-03		31.783
4		0.00		-7.20		1.532e-02		127.233		4.993e-03		34.036
4		0.00		-6.80		1.522e-02		126.537		5.056e-03		31.538
4		0.00		-6.40		1.670e-02		119.239		5.256e-03		43.174
4		0.00		-6.00		1.808e-02		114.999		5.929e-03		53.582
4		0.00		-5.60		1.715e-02		122.145		5.376e-03		27.567
4		0.00		-5.20		1.566e-02		120.604		5.038e-03		28.223
4		0.00		-4.80		1.444e-02		124.239		4.541e-03		23.426
4		0.00		-4.40		1.402e-02		125.827		4.468e-03		38.123
4		0.00		-4.00		1.423e-02		119.705		4.547e-03		36.886
4		0.00		-3.60		1.376e-02		116.566		4.710e-03		51.632
4		0.00		-3.20		1.155e-02		108.077		3.788e-03		60.382
4		0.00		-2.80		1.046e-02		111.333		4.011e-03		53.237
4		0.00		-2.40		9.749e-03		119.812		3.959e-03		39.902
4		0.00		-2.00		8.226e-03		116.442		3.274e-03		43.101
4		0.00		-1.60		7.346e-03		109.171		3.254e-03		61.389
4		0.00		-1.20		6.874e-03		100.363		2.760e-03		67.814
4		0.00		-0.80		6.037e-03		94.432		2.326e-03		73.931
4		0.00		-0.40		3.756e-03		63.071		1.698e-03		79.716
5		0.00		0.00		2.785e-03		4.017		1.281e-03		98.300
5		0.00		0.40		2.637e-03		20.280		1.130e-03		83.465
5		0.00		0.80		2.575e-03		4.021		1.044e-03		76.856
5		0.00		1.20		3.191e-03		-26.328		1.573e-03		69.128
5		0.00		1.60		3.547e-03		-35.528		1.988e-03		53.733
5		0.00		2.00		5.516e-03		-40.280		2.023e-03		33.520
5		0.00		2.40		6.305e-03		-39.665		1.972e-03		29.883
5		0.00		2.80		8.610e-03		-45.746		2.667e-03		26.391
5		0.00		3.20		1.093e-02		-50.523		2.805e-03		25.570
5		0.00		3.60		1.401e-02		-45.688		3.629e-03		23.106
5		0.00		4.00		1.639e-02		-44.499		4.957e-03		23.164
5		0.00		4.40		1.839e-02		-45.538		5.061e-03		22.570
5		0.00		4.80		2.131e-02		-50.370		5.877e-03		22.347
5		0.00		5.20		2.344e-02		-48.719		6.543e-03		24.874
5		0.00		5.60		2.577e-02		-47.373		6.273e-03		23.476
5		0.00		6.00		2.766e-02		-48.381		7.125e-03		24.989
5		0.00		6.40		3.100e-02		-47.276		8.334e-03		23.848
5		0.00		6.80		2.765e-02		-42.040		8.228e-03		23.423
5		0.00		7.20		2.882e-02		-42.453		8.852e-03		22.637
5		0.00		7.60		3.094e-02		-42.330		8.984e-03		17.586
5		0.00		8.00		2.777e-02		-46.684		8.667e-03		21.561
5		0.00		8.40		2.809e-02		-50.201		7.343e-03		23.435
5		0.00		8.80		3.029e-02		-49.777		7.095e-03		22.604
5		0.00		9.20		2.806e-02		-49.765		7.041e-03		23.387
5		0.00		9.60		3.019e-02		-49.417		8.928e-03		23.877
5		0.00		10.00		2.755e-02		-47.587		9.359e-03		24.283
5		0.00		9.60		2.589e-02		-42.011		7.539e-03		21.969
5		0.00		9.20		2.540e-02		-45.194		7.251e-03		20.499
5		0.00		8.80		2.433e-02		-47.671		6.751e-03		21.948
5		0.00		8.40		2.385e-02		-50.060		6.434e-03		24.895
5		0.00		8.00		2.399e-02		-47.775		6.147e-03		25.193
5		0.00		7.60		2.445e-02		-47.945		6.049e-03		25.775
5		0.00		7.20		2.396e-02		-48.433		6.428e-03		29.338
5		0.00		6.80		2.330e-02		-43.302		5.779e-03		30.916
5		0.00		6.40		2.180e-02		-41.583		6.492e-03		28.326
5		0.00		6.00		2.238e-02		-46.213		6.125e-03		23.161
5		0.00		5.60		2.258e-02		-50.350		6.289e-03		24.638
5		0.00		5.20		2.140e-02		-49.201		6.132e-03		30.315
5		0.00		4.80		2.199e-02		-49.323		5.993e-03		25.901
5		0.00		4.40		2.271e-02		-48.546		6.385e-03		27.249
5		0.00		4.00		2.174e-02		-47.103		6.531e-03		25.070
5		0.00		3.60		2.104e-02		-43.207		6.353e-03		27.060
5		0.00		3.20		2.128e-02		-43.704		6.499e-03		21.611
5		0.00		2.80		2.160e-02		-46.547		6.028e-03		22.634
5		0.00		2.40		2.120e-02		-48.843		5.349e-03		25.673
5		0.00		2.00		2.097e-02		-50.541		5.403e-03		25.295
5		0.00		1.60		2.188e-02		-49.451		5.418e-03		25.702
5		0.00		1.20		2.123e-02		-46.985		5.502e-03		26.212
5		0.00		0.80		1.954e-02		-42.402		5.594e-03		23.079
5		0.00		0.40		1.889e-02		-47.437		5.553e-03		25.712
5		0.00		0.00		1.913e-02		-51.721		5.653e-03		25.087
5		0.00		-0.40		1.879e-02		-47.874		4.732e-03		25.279
5		0.00		-0.80		1.723e-02		-48.903		4.228e-03		24.937
5		0.00		-1.20		1.484e-02		-49.754		3.892e-03		29.059
5		0.00		-1.60		1.222e-02		-45.585		3.197e-03		31.851
5		0.00		-2.00		8.624e-03		-42.743		3.173e-03		36.782
5		0.00		-2.40		5.775e-03		-47.381		2.955e-03		38.009
5		0.00		-2.80		3.909e-03		-34.458		3.277e-03		70.034
5		0.00		-3.20		4.143e-03		15.430		2.388e-03		91.893
5		0.00		-3.60		5.044e-03		57.166		2.155e-03		99.632
5		0.00		-4.00		5.522e-03		81.764		2.359e-03		74.913
5		0.00		-4.40		8.085e-03		106.631		3.773e-03		60.021
5		0.00		-4.80		1.036e-02		110.611		3.830e-03		55.659
5		0.00		-5.20		1.172e-02		111.751		4.538e-03		63.182
5		0.00		-5.60		1.285e-02		113.313		4.916e-03		60.632
5		0.00		-6.00		1.502e-02		100.451		5.884e-03		75.157
5		0.00		-6.40		1.552e-02		118.082		6.185e-03		43.264
5		0.00		-6.80		1.388e-02		122.010		5.207e-03		29.594
5		0.00		-7.20		1.542e-02		125.177		5.043e-03		32.194
5		0.00		-7.60		1.579e-02		114.495		5.575e-03		48.974
5		0.00		-8.00		1.664e-02		118.155		5.499e-03		44.193
5		0.00		-8.40		1.472e-02		113.260		5.447e-03		55.759
5		0.00		-8.80		1.433e-02		116.700		4.991e-03		46.225
5		0.00		-9.20		1.503e-02		121.532		4.763e-03		32.142
5		0.00		-9.60		1.598e-02		123.996		5.412e-03		34.140
5		0.00		-10.00		1.314e-02		118.747		3.928e-03		35.524
5		0.00		-9.60		1.488e-02		119.188		4.673e-03		32.056
5		0.00		-9.20		1.286e-02		117.102		4.581e-03		43.027
5		0.00		-8.80		1.428e-02		118.986		5.037e-03		42.061
5		0.00		-8.40		1.252e-02		112.087		4.594e-03		41.939
5		0.00		-8.00		1.381e-02		118.215		5.443e-03		42.429
5		0.00		-7.60		1.606e-02		119.165		6.326e-03		34.328
5		0.00		-7.20		1.568e-02		119.927		6.311e-03		36.418
5		0.00		-6.80		1.376e-02		105.571		5.218e-03		59.312
5		0.00		-6.40		1.736e-02		116.100		6.827e-03		42.398
5		0.00		-6.00		1.978e-02		120.316		7.244e-03		31.654
5		0.00		-5.60		1.760e-02		123.107		6.321e-03		25.713
5		0.00		-5.20		1.899e-02		125.497		6.237e-03		24.813
5		0.00		-4.80		1.869e-02		121.184		5.710e-03		39.162
5		0.00		-4.40		1.743e-02		115.712		5.813e-03		42.816
5		0.00		-4.00		1.485e-02		114.422		5.430e-03		54.588
5		0.00		-3.60		1.416e-02		118.086		4.806e-03		31.850
5		0.00		-3.20		1.281e-02		119.670		4.937e-03		33.248
5		0.00		-2.80		1.101e-02		120.142		4.489e-03		34.727
5		0.00		-2.40		9.883e-03		116.991		3.565e-03		51.197
5		0.00		-2.00		8.826e-03		112.493		3.070e-03		53.542
5		0.00		-1.60		7.265e-03		103.269		3.102e-03		68.189
5		0.00		-1.20		5.086e-03		98.708		2.136e-03		68.199
5		0.00		-0.80		4.175e-03		70.188		1.711e-03		76.318
5		0.00		-0.40		3.055e-03		36.835		1.352e-03		96.808
6		0.00		0.00		2.771e-03		9.073		1.236e-03		81.272
6		0.00		0.40		3.031e-03		-28.112		1.743e-03		73.404
6		0.00		0.80		3.522e-03		-39.721		1.932e-03		49.914
6		0.00		1.20		4.295e-03		-44.629		1.862e-03		36.746
6		0.00		1.60		5.191e-03		-55.626		1.651e-03		35.715
6		0.00		2.00		6.517e-03		-45.650		2.364e-03		33.879
6		0.00		2.40		7.960e-03		-44.418		2.883e-03		29.079
6		0.00		2.80		1.025e-02		-49.216		3.231e-03		27.154
6		0.00		3.20		1.194e-02		-50.995		3.809e-03		24.945
6		0.00		3.60		1.407e-02		-48.901		4.361e-03		26.871
6		0.00		4.00		1.557e-02		-50.564		4.983e-03		26.412
6		0.00		4.40		1.866e-02		-47.576		6.005e-03		22.787
6		0.00		4.80		2.021e-02		-43.047		6.332e-03		20.716
6		0.00		5.20		2.151e-02		-44.231		6.590e-03		24.650
6		0.00		5.60		2.169e-02		-47.420		6.813e-03		25.489
6		0.00		6.00		2.444e-02		-49.209		6.634e-03		24.976
6		0.00		6.40		2.468e-02		-46.932		6.585e-03		26.269
6		0.00		6.80		2.531e-02		-44.617		7.199e-03		26.054
6		0.00		7.20		2.643e-02		-41.813		7.669e-03		23.368
6		0.00		7.60		2.579e-02		-45.360		7.604e-03		19.744
6		0.00		8.00		2.675e-02		-47.569		7.612e-03		22.753
6		0.00		8.40		2.613e-02		-46.829		7.824e-03		29.033
6		0.00		8.80		2.644e-02		-49.172		8.596e-03		27.599
6		0.00		9.20		2.642e-02		-46.446		8.839e-03		22.695
6		0.00		9.60		2.734e-02		-42.897		9.872e-03		23.944
6		0.00		10.00		2.653e-02		-45.145		8.215e-03		21.684
6		0.00		9.60		2.423e-02		-47.305		6.749e-03		25.602
6		0.00		9.20		2.342e-02		-50.869		6.297e-03		26.805
6		0.00		8.80		2.506e-02		-50.202		6.821e-03		27.421
6		0.00		8.40		2.302e-02		-46.577		6.408e-03		30.153
6		0.00		8.00		2.287e-02		-39.795		6.805e-03		23.771
6		0.00		7.60		2.352e-02		-45.644		7.343e-03		24.646
6		0.00		7.20		2.215e-02		-49.294		6.418e-03		25.967
6		0.00		6.80		2.205e-02		-50.487		6.512e-03		25.331
6		0.00		6.40		2.346e-02		-50.483		6.475e-03		27.086
6		0.00		6.00		2.286e-02		-41.060		6.671e-03		26.339
6		0.00		5.60		2.256e-02		-43.293		7.090e-03		22.969
6		0.00		5.20		2.156e-02		-48.348		6.882e-03		26.561
6		0.00		4.80		2.193e-02		-44.806		6.448e-03		25.823
6		0.00		4.40		2.145e-02		-47.719		6.011e-03		28.148
6		0.00		4.00		2.181e-02		-45.264		6.066e-03		25.080
6		0.00		3.60		2.031e-02		-44.134		5.786e-03		25.196
6		0.00		3.20		2.008e-02		-48.391		5.870e-03		24.679
6		0.00		2.80		2.108e-02		-47.144		6.011e-03		27.183
6		0.00		2.40		2.144e-02		-47.285		5.678e-03		26.380
6		0.00		2.00		2.121e-02		-48.041		5.795e-03		27.605
6		0.00		1.60		2.072e-02		-41.708		5.781e-03		31.194
6		0.00		1.20		2.005e-02		-46.683		6.028e-03		27.489
6		0.00		0.80		1.983e-02		-49.753		6.033e-03		25.683
6		0.00		0.40		1.998e-02		-50.337		4.908e-03		25.144
6		0.00		0.00		1.942e-02		-52.403		5.354e-03		25.693
6		0.00		-0.40		1.755e-02		-47.247		4.785e-03		23.915
6		0.00		-0.80		1.529e-02		-41.792		4.797e-03		26.380
6		0.00		-1.20		1.344e-02		-48.484		4.629e-03		28.317
6		0.00		-1.60		1.099e-02		-49.345		3.777e-03		28.284
6		0.00		-2.00		9.359e-03		-50.131		3.318e-03		26.441
6		0.00		-2.40		6.321e-03		-59.001		2.541e-03		30.687
6		0.00		-2.80		3.864e-03		-35.069		1.805e-03		73.494
6		0.00		-3.20		3.779e-03		37.985		1.828e-03		98.266
6		0.00		-3.60		5.891e-03		77.834		2.610e-03		93.162
6		0.00		-4.00		8.124e-03		103.910		3.113e-03		65.664
6		0.00		-4.40		1.067e-02		110.297		3.684e-03		63.156
6		0.00		-4.80		1.285e-02		113.356		4.617e-03		60.796
6		0.00		-5.20		1.356e-02		123.064		5.459e-03		25.705
6		0.00		-5.60		1.548e-02		123.239		5.932e-03		24.836
6		0.00		-6.00		1.722e-02		120.542		6.379e-03		37.030
6		0.00		-6.40		1.705e-02		115.007		6.065e-03		48.505
6		0.00		-6.80		2.020e-02		116.019		6.614e-03		49.906
6		0.00		-7.20		2.121e-02		110.075		7.166e-03		64.625
6		0.00		-7.60		2.058e-02		122.846		7.161e-03		27.583
6		0.00		-8.00		1.837e-02		120.176		6.250e-03		30.375
6		0.00		-8.40		2.005e-02		116.692		6.696e-03		39.692
6		0.00		-8.80		1.880e-02		125.320		5.986e-03		29.462
6		0.00		-9.20		1.984e-02		121.627		6.927e-03		38.091
6		0.00		-9.60		1.874e-02		118.090		6.397e-03		36.873
6		0.00		-10.00		1.749e-02		124.489		5.497e-03		29.881
6		0.00		-9.60		1.696e-02		122.875		5.570e-03		32.590
6		0.00		-9.20		1.679e-02		118.226		4.873e-03		36.150
6		0.00		-8.80		1.780e-02		124.029		5.642e-03		32.555
6		0.00		-8.40		1.506e-02		121.134		4.950e-03		37.496
6		0.00		-8.00		1.824e-02		121.923		5.149e-03		29.057
6		0.00		-7.60		1.602e-02		120.284		5.032e-03		41.514
6		0.00		-7.20		1.740e-02		125.826		5.218e-03		26.642
6		0.00		-6.80		1.890e-02		122.891		5.356e-03		29.257
6		0.00		-6.40		1.823e-02		122.368		5.578e-03		31.117
6		0.00		-6.00		2.019e-02		121.899		6.060e-03		34.534
6		0.00		-5.60		1.917e-02		124.471		6.022e-03		27.205
6		0.00		-5.20		1.919e-02		122.921		5.512e-03		27.247
6		0.00		-4.80		1.821e-02		121.854		5.469e-03		42.404
6		0.00		-4.40		1.749e-02		117.068		5.535e-03		49.525
6		0.00		-4.00		1.854e-02		119.716		5.266e-03		42.265
6		0.00		-3.60		1.615e-02		122.910		5.516e-03		31.721
6		0.00		-3.20		1.440e-02		124.826		4.368e-03		19.567
6		0.00		-2.80		1.273e-02		126.306		4.487e-03		23.597
6		0.00		-2.40		1.168e-02		122.277		3.922e-03		41.082
6		0.00		-2.00		1.008e-02		118.173		3.438e-03		47.775
6		0.00		-1.60		9.472e-03		110.072		3.217e-03		65.791
6		0.00		-1.20		7.539e-03		109.785		3.098e-03		60.887
6		0.00		-0.80		5.243e-03		104.944		2.110e-03		62.995
6		0.00		-0.40		3.401e-03		69.389		1.346e-03		89.034
7		0.00		0.00		2.882e-03		31.578		1.248e-03		86.375
7		0.00		0.40		2.669e-03		-5.236		1.077e-03		81.055
7		0.00		0.80		3.145e-03		-28.388		1.519e-03		63.910
7		0.00		1.20		3.418e-03		-12.135		1.891e-03		74.491
7		0.00		1.60		3.966e-03		-39.295		2.256e-03		43.150
7		0.00		2.00		6.272e-03		-50.670		2.031e-03		30.763
7		0.00		2.40		7.757e-03		-51.570		2.236e-03		29.117
7		0.00		2.80		9.060e-03		-50.878		2.829e-03		27.388
7		0.00		3.20		1.166e-02		-47.525		3.361e-03		21.938
7		0.00		3.60		1.281e-02		-45.221		3.517e-03		20.876
7		0.00		4.00		1.451e-02		-45.442		4.598e-03		23.103
7		0.00		4.40		1.544e-02		-51.983		4.195e-03		25.084
7		0.00		4.80		1.655e-02		-50.344		4.374e-03		27.693
7		0.00		5.20		1.909e-02		-50.722		4.662e-03		25.865
7		0.00		5.60		2.116e-02		-50.547		5.455e-03		25.779
7		0.00		6.00		2.424e-02		-48.418		6.199e-03		25.729
7		0.00		6.40		2.715e-02		-47.878		6.609e-03		24.014
7		0.00		6.80		2.647e-02		-45.397		7.018e-03		26.718
7		0.00		7.20		2.578e-02		-42.128		7.462e-03		23.358
7		0.00		7.60		2.803e-02		-42.639		8.313e-03		20.570
7		0.00		8.00		2.774e-02		-44.981		7.709e-03		21.207
7		0.00		8.40		2.936e-02		-49.536		7.273e-03		22.323
7		0.00		8.80		2.840e-02		-48.658		7.118e-03		24.205
7		0.00		9.20		2.937e-02		-47.570		7.479e-03		23.733
7		0.00		9.60		3.094e-02		-46.663		7.897e-03		23.228
7		0.00		10.00		2.999e-02		-45.176		8.567e-03		24.364
7		0.00		9.60		2.714e-02		-46.447		7.201e-03		28.925
7		0.00		9.20		2.736e-02		-43.168		7.446e-03		25.995
7		0.00		8.80		2.770e-02		-46.747		8.264e-03		20.753
7		0.00		8.40		2.635e-02		-48.833		6.752e-03		23.658
7		0.00		8.00		2.437e-02		-48.668		6.872e-03		24.331
7		0.00		7.60		2.588e-02		-50.623		5.297e-03		21.920
7		0.00		7.20		2.594e-02		-50.868		6.163e-03		22.701
7		0.00		6.80		2.643e-02		-52.047		6.942e-03		25.475
7		0.00		6.40		2.579e-02		-45.700		6.665e-03		22.201
7		0.00		6.00		2.528e-02		-42.786		7.184e-03		19.389
7		0.00		5.60		2.513e-02		-44.810		6.568e-03		21.637
7		0.00		5.20		2.424e-02		-49.237		6.268e-03		21.414
7		0.00		4.80		2.298e-02		-50.555		5.257e-03		23.936
7		0.00		4.40		2.443e-02		-53.033		5.423e-03		23.248
7		0.00		4.00		2.371e-02		-48.943		5.475e-03		26.138
7		0.00		3.60		2.381e-02		-47.290		6.038e-03		24.490
7		0.00		3.20		2.247e-02		-44.627		5.790e-03		23.522
7		0.00		2.80		2.197e-02		-44.049		5.399e-03		19.337
7		0.00		2.40		2.230e-02		-49.047		5.656e-03		24.329
7		0.00		2.00		2.265e-02		-51.183		5.677e-03		22.444
7		0.00		1.60		2.193e-02		-51.613		4.858e-03		24.727
7		0.00		1.20		2.125e-02		-53.356		4.799e-03		26.209
7		0.00		0.80		2.154e-02		-52.208		5.561e-03		27.800
7		0.00		0.40		2.042e-02		-44.252		5.206e-03		30.009
7		0.00		0.00		1.863e-02		-44.042		4.922e-03		28.646
7		0.00		-0.40		1.800e-02		-46.053		4.755e-03		25.030
7		0.00		-0.80		1.682e-02		-48.379		4.885e-03		24.423
7		0.00		-1.20		1.276e-02		-51.544		4.476e-03		29.559
7		0.00		-1.60		1.010e-02		-55.406		3.753e-03		27.331
7		0.00		-2.00		8.063e-03		-58.880		3.268e-03		29.467
7		0.00		-2.40		5.641e-03		-49.409		2.841e-03		43.076
7		0.00		-2.80		4.136e-03		-39.517		2.292e-03		73.959
7		0.00		-3.20		4.001e-03		27.965		1.973e-03		91.146
7		0.00		-3.60		5.336e-03		80.031		2.416e-03		89.030
7		0.00		-4.00		8.296e-03		96.657		3.230e-03		84.481
7		0.00		-4.40		1.058e-02		106.121		3.650e-03		66.260
7		0.00		-4.80		1.133e-02		105.860		4.425e-03		62.924
7		0.00		-5.20		1.304e-02		112.256		4.642e-03		58.936
7		0.00		-5.60		1.320e-02		117.574		4.495e-03		41.147
7		0.00		-6.00		1.553e-02		124.602		5.277e-03		29.642
7		0.00		-6.40		1.862e-02		125.679		5.971e-03		28.407
7		0.00		-6.80		1.747e-02		118.175		5.916e-03		41.235
7		0.00		-7.20		1.726e-02		106.272		5.592e-03		54.164
7		0.00		-7.60		1.905e-02		115.771		5.917e-03		49.288
7		0.00		-8.00		1.716e-02		114.574		5.195e-03		52.178
7		0.00		-8.40		1.905e-02		122.666		5.664e-03		35.654
7		0.00		-8.80		1.900e-02		123.787		5.189e-03		35.710
7		0.00		-9.20		2.187e-02		123.875		7.145e-03		28.036
7		0.00		-9.60		2.100e-02		120.071		6.998e-03		38.095
7		0.00		-10.00		2.195e-02		120.687		6.374e-03		40.934
7		0.00		-9.60		2.520e-02		129.414		7.722e-03		31.759
7		0.00		-9.20		2.280e-02		126.317		7.579e-03		33.041
7		0.00		-8.80		2.244e-02		120.535		6.832e-03		32.192
7		0.00		-8.40		2.402e-02		119.286		8.140e-03		38.978
7		0.00		-8.00		2.262e-02		117.815		7.776e-03		33.886
7		0.00		-7.60		2.249e-02		124.772		7.654e-03		27.175
7		0.00		-7.20		2.080e-02		118.601		6.471e-03		38.983
7		0.00		-6.80		1.940e-02		121.986		6.214e-03		39.525
7		0.00		-6.40		2.031e-02		109.867		6.510e-03		49.491
7		0.00		-6.00		2.251e-02		115.064		6.775e-03		41.402
7		0.00		-5.60		2.054e-02		116.139		6.487e-03		35.064
7		0.00		-5.20		2.170e-02		118.679		7.028e-03		29.289
7		0.00		-4.80		1.857e-02		117.523		5.853e-03		42.363
7		0.00		-4.40		1.703e-02		114.103		6.012e-03		51.051
7		0.00		-4.00		1.430e-02		108.606		5.057e-03		64.514
7		0.00		-3.60		1.462e-02		118.016		5.113e-03		40.865
7		0.00		-3.20		1.309e-02		120.899		4.657e-03		31.400
7		0.00		-2.80		1.227e-02		124.420		4.405e-03		24.935
7		0.00		-2.40		1.125e-02		115.038		4.399e-03		47.420
7		0.00		-2.00		9.905e-03		104.320		3.447e-03		63.856
7		0.00		-1.60		7.934e-03		105.897		3.058e-03		70.698
7		0.00		-1.20		6.480e-03		101.579		2.438e-03		60.437
7		0.00		-0.80		5.478e-03		105.168		2.505e-03		53.211
7		0.00		-0.40		3.733e-03		69.807		1.613e-03		77.573
8		0.00		0.00		3.501e-03		20.002		1.602e-03		95.197
8		0.00		0.40		3.317e-03		-21.378		1.758e-03		83.486
8		0.00		0.80		3.367e-03		-14.963		1.705e-03		77.134
8		0.00		1.20		3.635e-03		-33.017		1.621e-03		48.245
8		0.00		1.60		5.756e-03		-42.474		1.628e-03		33.293
8		0.00		2.00		7.220e-03		-47.930		2.340e-03		33.857
8		0.00		2.40		8.311e-03		-47.612		2.694e-03		25.900
8		0.00		2.80		9.360e-03		-46.015		3.032e-03		28.526
8		0.00		3.20		1.006e-02		-46.852		2.933e-03		27.396
8		0.00		3.60		1.173e-02		-50.544		3.395e-03		26.179
8		0.00		4.00		1.367e-02		-45.644		3.962e-03		25.017
8		0.00		4.40		1.561e-02		-46.635		4.523e-03		21.833
8		0.00		4.80		1.696e-02		-47.593		5.602e-03		27.866
8		0.00		5.20		1.808e-02		-47.497		5.704e-03		27.092
8		0.00		5.60		2.183e-02		-49.393		6.520e-03		27.398
8		0.00		6.00		2.444e-02		-49.991		6.745e-03		25.987
8		0.00		6.40		2.558e-02		-46.474		7.951e-03		27.121
8		0.00		6.80		2.629e-02		-42.570		8.550e-03		24.088
8		0.00		7.20		2.567e-02		-43.626		7.642e-03		21.698
8		0.00		7.60		2.750e-02		-47.651		7.366e-03		22.313
8		0.00		8.00		2.660e-02		-47.112		7.313e-03		25.119
8		0.00		8.40		2.811e-02		-47.656		8.385e-03		25.120
8		0.00		8.80		2.900e-02		-47.049		8.681e-03		25.028
8		0.00		9.20		2.765e-02		-38.949		9.517e-03		26.471
8		0.00		9.60		2.783e-02		-46.346		8.245e-03		21.634
8		0.00		10.00		2.821e-02		-46.719		8.413e-03		21.797
8		0.00		9.60		2.821e-02		-49.440		7.049e-03		25.759
8		0.00		9.20		2.659e-02		-50.597		6.853e-03		26.790
8		0.00		8.80		2.793e-02		-48.381		7.358e-03		25.380
8		0.00		8.40		2.499e-02		-45.088		6.601e-03		23.183
8		0.00		8.00		2.463e-02		-43.281		7.040e-03		21.986
8		0.00		7.60		2.436e-02		-47.338		6.133e-03		24.762
8		0.00		7.20		2.369e-02		-51.656		5.689e-03		28.479
8		0.00		6.80		2.487e-02		-49.959		5.882e-03		27.102
8		0.00		6.40		2.518e-02		-50.839		7.034e-03		30.298
8		0.00		6.00		2.276e-02		-43.247		6.081e-03		35.213
8		0.00		5.60		2.197e-02		-43.026		6.503e-03		24.296
8		0.00		5.20		2.262e-02		-48.639		5.898e-03		26.669
8		0.00		4.80		2.231e-02		-50.129		6.205e-03		29.738
8		0.00		4.40		2.246e-02		-50.705		5.919e-03		25.043
8		0.00		4.00		2.260e-02		-48.313		6.401e-03		25.934
8		0.00		3.60		2.151e-02		-43.824		6.777e-03		25.342
8		0.00		3.20		2.022e-02		-41.997		6.379e-03		24.789
8		0.00		2.80		2.069e-02		-45.329		6.469e-03		25.270
8		0.00		2.40		2.083e-02		-49.459		5.859e-03		27.614
8		0.00		2.00		2.047e-02		-47.847		5.671e-03		28.603
8		0.00		1.60		2.148e-02		-49.508		5.676e-03		28.575
8		0.00		1.20		2.001e-02		-43.984		5.171e-03		30.370
8		0.00		0.80		1.953e-02		-42.353		5.795e-03		24.472
8		0.00		0.40		1.868e-02		-45.249		5.117e-03		25.095
8		0.00		0.00		1.798e-02		-52.942		5.235e-03		24.603
8		0.00		-0.40		1.682e-02		-51.464		4.756e-03		26.191
8		0.00		-0.80		1.572e-02		-49.393		4.452e-03		27.401
8		0.00		-1.20		1.326e-02		-44.930		3.703e-03		29.671
8		0.00		-1.60		1.137e-02		-40.963		3.612e-03		28.010
8		0.00		-2.00		7.483e-03		-50.281		3.936e-03		33.086
8		0.00		-2.40		5.580e-03		-53.508		3.703e-03		42.463
8		0.00		-2.80		4.035e-03		-41.153		2.843e-03		69.613
8		0.00		-3.20		4.437e-03		17.882		1.719e-03		105.502
8		0.00		-3.60		5.366e-03		72.079		2.436e-03		87.721
8		0.00		-4.00		7.040e-03		105.509		3.034e-03		69.711
8		0.00		-4.40		1.034e-02		117.169		4.041e-03		56.422
8		0.00		-4.80		1.200e-02		113.520		4.739e-03		67.155
8		0.00		-5.20		1.429e-02		114.025		5.589e-03		57.023
8		0.00		-5.60		1.544e-02		117.342		6.517e-03		46.029
8		0.00		-6.00		1.827e-02		121.306		6.870e-03		31.093
8		0.00		-6.40		1.849e-02		121.728		6.434e-03		30.761
8		0.00		-6.80		2.239e-02		119.606		7.391e-03		40.011
8		0.00		-7.20		2.177e-02		120.508		7.092e-03		44.083
8		0.00		-7.60		2.125e-02		111.677		6.786e-03		49.176
8		0.00		-8.00		2.087e-02		115.159		6.682e-03		44.113
8		0.00		-8.40		1.952e-02		120.849		6.524e-03		37.023
8		0.00		-8.80		2.007e-02		123.914		6.508e-03		30.591
8		0.00		-9.20		1.624e-02		125.291		5.349e-03		29.573
8		0.00		-9.60		1.538e-02		123.550		5.666e-03		36.463
8		0.00		-10.00		1.485e-02		110.640		5.428e-03		50.505
8		0.00		-9.60		1.125e-02		109.491		4.197e-03		47.394
8		0.00		-9.20		1.629e-02		111.866		6.093e-03		39.068
8		0.00		-8.80		1.707e-02		107.147		6.552e-03		47.334
8		0.00		-8.40		1.588e-02		118.600		5.595e-03		33.388
8		0.00		-8.00		1.738e-02		122.957		6.156e-03		33.461
8		0.00		-7.60		1.688e-02		113.102		6.237e-03		43.559
8		0.00		-7.20		1.933e-02		114.905		7.283e-03		44.710
8		0.00		-6.80		2.046e-02		107.493		7.770e-03		42.903
8		0.00		-6.40		2.061e-02		116.562		7.351e-03		36.253
8		0.00		-6.00		2.036e-02		117.861		6.665e-03		34.900
8		0.00		-5.60		1.894e-02		117.851		6.578e-03		44.753
8		0.00		-5.20		1.868e-02		113.904		6.239e-03		43.907
8		0.00		-4.80		1.951e-02		119.072		6.643e-03		35.027
8		0.00		-4.40		1.851e-02		120.205		6.447e-03		30.181
8		0.00		-4.00		1.698e-02		120.689		5.804e-03		29.645
8		0.00		-3.60		1.538e-02		113.478		5.420e-03		52.047
8		0.00		-3.20		1.428e-02		113.302		5.106e-03		50.188
8		0.00		-2.80		1.321e-02		110.768		4.588e-03		56.805
8		0.00		-2.40		1.207e-02		112.534		3.934e-03		51.915
8		0.00		-2.00		1.048e-02		118.742		3.755e-03		34.097
8		0.00		-1.60		8.693e-03		115.654		3.405e-03		44.472
8		0.00		-1.20		7.175e-03		110.777		3.349e-03		56.913
8		0.00		-0.80		6.714e-03		104.606		3.112e-03		65.385
8		0.00		-0.40		4.830e-03		81.036		2.232e-03		83.686
