# Date of analysis: 2023-11-20 16;16
# 
# Loop index	Read Volt (V)	Write Volt (V)	Amplitude (a.u)	Phase (deg)	Sigma Amp (a.u)	Sigma Pha (deg)	
1		0.00		0.00		1.245e-02		-53.752		2.893e-03		13.146
1		0.00		0.40		1.266e-02		-54.183		2.819e-03		12.248
1		0.00		0.80		1.263e-02		-50.493		2.803e-03		11.920
1		0.00		1.20		1.295e-02		-55.076		3.004e-03		11.205
1		0.00		1.60		1.298e-02		-53.011		2.560e-03		13.819
1		0.00		2.00		1.340e-02		-50.808		2.675e-03		12.026
1		0.00		2.40		1.399e-02		-55.874		2.816e-03		11.314
1		0.00		2.80		1.398e-02		-50.898		2.935e-03		12.751
1		0.00		3.20		1.415e-02		-52.641		3.317e-03		11.106
1		0.00		3.60		1.442e-02		-48.954		3.724e-03		14.541
1		0.00		4.00		1.487e-02		-49.878		3.611e-03		13.130
1		0.00		4.40		1.581e-02		-54.173		3.979e-03		13.164
1		0.00		4.80		1.697e-02		-50.490		4.431e-03		12.706
1		0.00		5.20		1.814e-02		-51.428		4.239e-03		11.882
1		0.00		5.60		1.856e-02		-53.322		4.326e-03		11.821
1		0.00		6.00		1.960e-02		-53.599		4.230e-03		11.726
1		0.00		6.40		2.091e-02		-51.613		4.274e-03		11.475
1		0.00		6.80		2.228e-02		-51.978		4.188e-03		12.296
1		0.00		7.20		2.363e-02		-53.328		3.938e-03		10.320
1		0.00		7.60		2.510e-02		-51.428		4.577e-03		10.424
1		0.00		8.00		2.662e-02		-50.443		4.799e-03		10.812
1		0.00		8.40		2.876e-02		-50.916		5.817e-03		10.614
1		0.00		8.80		3.073e-02		-53.281		6.726e-03		10.248
1		0.00		9.20		3.287e-02		-52.663		8.087e-03		11.476
1		0.00		9.60		3.445e-02		-54.377		8.839e-03		11.773
1		0.00		10.00		3.672e-02		-55.236		9.135e-03		12.236
1		0.00		9.60		3.852e-02		-54.612		9.915e-03		11.947
1		0.00		9.20		3.925e-02		-55.808		1.011e-02		11.404
1		0.00		8.80		4.027e-02		-55.598		9.517e-03		10.722
1		0.00		8.40		4.089e-02		-55.672		8.719e-03		10.154
1		0.00		8.00		4.083e-02		-53.740		8.448e-03		10.225
1		0.00		7.60		4.032e-02		-54.576		8.133e-03		9.856
1		0.00		7.20		3.962e-02		-53.503		7.635e-03		9.271
1		0.00		6.80		3.877e-02		-51.928		7.025e-03		8.119
1		0.00		6.40		3.833e-02		-52.751		7.733e-03		11.012
1		0.00		6.00		3.748e-02		-51.863		8.313e-03		11.165
1		0.00		5.60		3.634e-02		-53.163		8.411e-03		10.698
1		0.00		5.20		3.571e-02		-53.298		8.375e-03		11.953
1		0.00		4.80		3.503e-02		-54.587		8.433e-03		13.510
1		0.00		4.40		3.474e-02		-54.999		8.202e-03		12.979
1		0.00		4.00		3.454e-02		-55.026		7.971e-03		11.608
1		0.00		3.60		3.469e-02		-54.732		7.266e-03		11.411
1		0.00		3.20		3.414e-02		-52.573		6.580e-03		9.425
1		0.00		2.80		3.377e-02		-52.724		6.765e-03		10.031
1		0.00		2.40		3.313e-02		-52.263		6.884e-03		9.861
1		0.00		2.00		3.190e-02		-52.089		7.428e-03		11.273
1		0.00		1.60		3.199e-02		-52.826		7.818e-03		13.297
1		0.00		1.20		3.207e-02		-53.437		8.070e-03		13.941
1		0.00		0.80		3.157e-02		-53.652		8.360e-03		16.993
1		0.00		0.40		3.150e-02		-54.310		8.196e-03		14.694
1		0.00		0.00		3.148e-02		-54.255		8.100e-03		12.477
1		0.00		-0.40		3.102e-02		-54.898		7.977e-03		11.386
1		0.00		-0.80		3.160e-02		-55.376		7.367e-03		12.225
1		0.00		-1.20		3.142e-02		-54.293		6.384e-03		12.201
1		0.00		-1.60		3.121e-02		-53.058		5.634e-03		10.280
1		0.00		-2.00		3.073e-02		-53.924		4.964e-03		10.346
1		0.00		-2.40		2.936e-02		-51.449		4.840e-03		10.655
1		0.00		-2.80		2.777e-02		-51.303		5.176e-03		10.963
1		0.00		-3.20		2.573e-02		-50.563		5.002e-03		10.233
1		0.00		-3.60		2.399e-02		-50.752		4.932e-03		11.724
1		0.00		-4.00		2.180e-02		-51.474		4.478e-03		12.058
1		0.00		-4.40		1.930e-02		-52.998		4.426e-03		15.461
1		0.00		-4.80		1.660e-02		-49.394		3.774e-03		14.607
1		0.00		-5.20		1.260e-02		-50.043		3.142e-03		14.273
1		0.00		-5.60		1.047e-02		-47.784		2.791e-03		15.958
1		0.00		-6.00		6.463e-03		-36.982		1.618e-03		19.407
1		0.00		-6.40		3.031e-03		-47.261		1.107e-03		32.158
1		0.00		-6.80		2.053e-03		46.598		7.847e-04		55.325
1		0.00		-7.20		4.138e-03		103.479		1.641e-03		22.493
1		0.00		-7.60		6.577e-03		110.908		1.784e-03		17.498
1		0.00		-8.00		8.029e-03		116.210		2.182e-03		15.503
1		0.00		-8.40		9.982e-03		120.357		2.395e-03		16.608
1		0.00		-8.80		1.036e-02		122.096		2.739e-03		14.473
1		0.00		-9.20		1.189e-02		122.170		3.142e-03		13.101
1		0.00		-9.60		1.293e-02		126.551		3.221e-03		13.194
1		0.00		-10.00		1.377e-02		123.721		3.529e-03		14.071
1		0.00		-9.60		1.451e-02		125.195		3.490e-03		15.218
1		0.00		-9.20		1.471e-02		125.621		3.723e-03		14.321
1		0.00		-8.80		1.385e-02		118.494		3.564e-03		16.317
1		0.00		-8.40		1.414e-02		121.849		3.618e-03		15.053
1		0.00		-8.00		1.398e-02		120.831		3.957e-03		13.437
1		0.00		-7.60		1.326e-02		122.995		3.390e-03		12.713
1		0.00		-7.20		1.270e-02		118.515		3.193e-03		12.782
1		0.00		-6.80		1.252e-02		122.180		3.180e-03		14.651
1		0.00		-6.40		1.209e-02		120.746		3.041e-03		12.662
1		0.00		-6.00		1.177e-02		121.629		3.015e-03		15.152
1		0.00		-5.60		1.088e-02		122.325		2.528e-03		17.744
1		0.00		-5.20		1.083e-02		119.754		2.411e-03		15.419
1		0.00		-4.80		1.027e-02		123.708		2.751e-03		16.400
1		0.00		-4.40		9.460e-03		122.674		2.534e-03		15.998
1		0.00		-4.00		8.967e-03		123.577		2.699e-03		15.783
1		0.00		-3.60		8.637e-03		121.050		2.668e-03		17.947
1		0.00		-3.20		7.895e-03		122.587		2.651e-03		17.385
1		0.00		-2.80		7.724e-03		119.139		2.419e-03		20.911
1		0.00		-2.40		7.494e-03		120.985		2.269e-03		18.609
1		0.00		-2.00		7.410e-03		119.744		2.261e-03		16.097
1		0.00		-1.60		6.647e-03		122.709		2.024e-03		15.299
1		0.00		-1.20		6.161e-03		116.432		1.978e-03		19.520
1		0.00		-0.80		6.021e-03		119.524		1.979e-03		19.844
1		0.00		-0.40		6.054e-03		120.930		1.914e-03		18.947
2		0.00		0.00		5.254e-03		113.017		1.660e-03		28.071
2		0.00		0.40		4.820e-03		117.725		1.437e-03		20.848
2		0.00		0.80		3.775e-03		105.571		1.616e-03		47.480
2		0.00		1.20		2.977e-03		92.491		1.183e-03		68.478
2		0.00		1.60		2.472e-03		81.399		1.173e-03		64.664
2		0.00		2.00		2.164e-03		65.972		9.518e-04		79.698
2		0.00		2.40		1.507e-03		7.831		6.332e-04		80.409
2		0.00		2.80		2.158e-03		-42.898		9.154e-04		41.020
2		0.00		3.20		3.355e-03		-51.679		1.422e-03		35.314
2		0.00		3.60		5.335e-03		-56.641		1.492e-03		22.027
2		0.00		4.00		6.576e-03		-55.676		1.791e-03		19.736
2		0.00		4.40		7.908e-03		-53.293		1.888e-03		17.349
2		0.00		4.80		9.009e-03		-54.823		1.924e-03		18.861
2		0.00		5.20		1.149e-02		-56.722		2.659e-03		15.925
2		0.00		5.60		1.370e-02		-57.423		2.964e-03		12.728
2		0.00		6.00		1.565e-02		-51.604		3.583e-03		13.104
2		0.00		6.40		1.812e-02		-53.757		4.291e-03		12.508
2		0.00		6.80		2.019e-02		-53.846		4.992e-03		13.204
2		0.00		7.20		2.296e-02		-53.220		5.195e-03		12.837
2		0.00		7.60		2.617e-02		-54.318		5.379e-03		11.381
2		0.00		8.00		2.852e-02		-54.459		5.680e-03		11.421
2		0.00		8.40		3.182e-02		-53.637		5.653e-03		11.288
2		0.00		8.80		3.434e-02		-53.998		6.233e-03		10.351
2		0.00		9.20		3.658e-02		-53.207		6.643e-03		10.476
2		0.00		9.60		3.762e-02		-52.131		7.927e-03		9.939
2		0.00		10.00		3.942e-02		-52.021		9.462e-03		10.057
2		0.00		9.60		4.065e-02		-53.184		1.060e-02		10.784
2		0.00		9.20		4.102e-02		-52.953		1.071e-02		10.046
2		0.00		8.80		4.095e-02		-53.667		1.072e-02		10.661
2		0.00		8.40		4.099e-02		-55.270		1.017e-02		12.101
2		0.00		8.00		4.018e-02		-56.190		1.022e-02		12.474
2		0.00		7.60		4.044e-02		-55.882		1.059e-02		13.029
2		0.00		7.20		3.927e-02		-56.553		9.497e-03		13.417
2		0.00		6.80		3.974e-02		-55.291		8.520e-03		11.479
2		0.00		6.40		3.869e-02		-54.853		7.841e-03		11.668
2		0.00		6.00		3.848e-02		-53.105		7.146e-03		10.615
2		0.00		5.60		3.770e-02		-52.266		7.035e-03		10.622
2		0.00		5.20		3.675e-02		-51.979		7.695e-03		10.705
2		0.00		4.80		3.630e-02		-54.373		7.785e-03		11.209
2		0.00		4.40		3.658e-02		-52.361		7.996e-03		9.388
2		0.00		4.00		3.510e-02		-52.597		8.032e-03		10.396
2		0.00		3.60		3.519e-02		-52.288		8.502e-03		9.776
2		0.00		3.20		3.521e-02		-54.156		8.437e-03		10.707
2		0.00		2.80		3.418e-02		-54.560		8.292e-03		12.629
2		0.00		2.40		3.401e-02		-56.473		8.915e-03		13.322
2		0.00		2.00		3.444e-02		-55.107		8.343e-03		11.758
2		0.00		1.60		3.413e-02		-56.234		7.840e-03		12.631
2		0.00		1.20		3.492e-02		-55.750		7.102e-03		10.940
2		0.00		0.80		3.429e-02		-53.930		6.334e-03		10.658
2		0.00		0.40		3.391e-02		-53.892		5.962e-03		11.100
2		0.00		0.00		3.395e-02		-52.748		6.009e-03		10.194
2		0.00		-0.40		3.331e-02		-52.726		6.691e-03		10.405
2		0.00		-0.80		3.283e-02		-52.907		6.096e-03		9.252
2		0.00		-1.20		3.186e-02		-52.152		6.594e-03		9.297
2		0.00		-1.60		3.171e-02		-53.868		6.540e-03		10.980
2		0.00		-2.00		3.033e-02		-52.328		6.624e-03		9.739
2		0.00		-2.40		2.888e-02		-51.913		6.424e-03		9.869
2		0.00		-2.80		2.771e-02		-52.120		6.496e-03		12.744
2		0.00		-3.20		2.542e-02		-53.465		5.947e-03		11.330
2		0.00		-3.60		2.398e-02		-54.052		5.706e-03		11.641
2		0.00		-4.00		2.114e-02		-53.057		5.083e-03		13.309
2		0.00		-4.40		1.700e-02		-52.027		4.042e-03		12.444
2		0.00		-4.80		1.359e-02		-51.741		3.227e-03		13.271
2		0.00		-5.20		1.046e-02		-49.242		2.408e-03		13.875
2		0.00		-5.60		7.276e-03		-46.629		2.055e-03		17.894
2		0.00		-6.00		4.472e-03		-49.288		1.295e-03		26.605
2		0.00		-6.40		2.158e-03		-47.552		8.464e-04		47.225
2		0.00		-6.80		2.825e-03		83.478		1.143e-03		50.529
2		0.00		-7.20		4.674e-03		111.148		1.562e-03		25.677
2		0.00		-7.60		6.909e-03		114.639		1.992e-03		22.812
2		0.00		-8.00		8.909e-03		121.100		2.514e-03		15.619
2		0.00		-8.40		9.636e-03		120.991		2.666e-03		15.192
2		0.00		-8.80		1.066e-02		123.515		2.882e-03		14.702
2		0.00		-9.20		1.160e-02		124.529		3.217e-03		12.952
2		0.00		-9.60		1.284e-02		124.335		3.472e-03		16.019
2		0.00		-10.00		1.416e-02		125.500		3.573e-03		13.386
2		0.00		-9.60		1.460e-02		123.724		4.059e-03		16.516
2		0.00		-9.20		1.446e-02		124.080		3.784e-03		15.491
2		0.00		-8.80		1.393e-02		124.391		3.722e-03		13.013
2		0.00		-8.40		1.428e-02		121.806		3.832e-03		12.338
2		0.00		-8.00		1.370e-02		121.950		3.686e-03		15.123
2		0.00		-7.60		1.385e-02		124.558		3.595e-03		11.952
2		0.00		-7.20		1.290e-02		119.894		3.157e-03		12.059
2		0.00		-6.80		1.278e-02		122.345		3.155e-03		12.343
2		0.00		-6.40		1.251e-02		122.295		2.951e-03		14.243
2		0.00		-6.00		1.203e-02		125.926		2.548e-03		14.289
2		0.00		-5.60		1.191e-02		121.162		2.898e-03		12.368
2		0.00		-5.20		1.125e-02		121.048		2.421e-03		16.237
2		0.00		-4.80		1.075e-02		121.161		2.426e-03		16.187
2		0.00		-4.40		9.986e-03		123.243		2.708e-03		16.475
2		0.00		-4.00		9.912e-03		124.204		2.167e-03		15.041
2		0.00		-3.60		1.019e-02		123.963		2.503e-03		15.506
2		0.00		-3.20		9.415e-03		124.974		2.327e-03		12.388
2		0.00		-2.80		8.169e-03		125.311		2.306e-03		14.214
2		0.00		-2.40		7.630e-03		123.878		2.061e-03		17.967
2		0.00		-2.00		7.301e-03		124.149		2.194e-03		22.158
2		0.00		-1.60		7.240e-03		124.279		2.225e-03		17.087
2		0.00		-1.20		7.423e-03		119.630		2.172e-03		16.776
2		0.00		-0.80		6.776e-03		122.844		2.080e-03		19.258
2		0.00		-0.40		6.301e-03		117.826		1.844e-03		23.952
3		0.00		0.00		6.102e-03		119.759		1.921e-03		20.609
3		0.00		0.40		5.343e-03		119.436		1.858e-03		28.196
3		0.00		0.80		4.714e-03		114.808		1.645e-03		39.980
3		0.00		1.20		3.791e-03		114.445		1.418e-03		36.427
3		0.00		1.60		2.973e-03		89.922		1.240e-03		63.433
3		0.00		2.00		2.225e-03		61.307		1.053e-03		68.385
3		0.00		2.40		1.739e-03		12.069		7.737e-04		82.264
3		0.00		2.80		1.915e-03		-36.225		8.500e-04		60.297
3		0.00		3.20		3.127e-03		-57.010		1.306e-03		41.377
3		0.00		3.60		4.712e-03		-56.163		1.258e-03		20.968
3		0.00		4.00		6.195e-03		-56.799		1.597e-03		19.899
3		0.00		4.40		7.990e-03		-56.693		2.149e-03		18.148
3		0.00		4.80		9.379e-03		-56.293		2.066e-03		16.334
3		0.00		5.20		1.137e-02		-55.683		2.578e-03		15.818
3		0.00		5.60		1.379e-02		-52.344		2.918e-03		14.054
3		0.00		6.00		1.653e-02		-54.521		3.377e-03		13.079
3		0.00		6.40		1.805e-02		-53.964		3.901e-03		12.654
3		0.00		6.80		2.179e-02		-55.368		4.473e-03		10.962
3		0.00		7.20		2.474e-02		-53.822		4.908e-03		11.985
3		0.00		7.60		2.740e-02		-53.929		5.327e-03		11.006
3		0.00		8.00		3.050e-02		-55.546		5.802e-03		11.379
3		0.00		8.40		3.386e-02		-55.181		6.288e-03		10.595
3		0.00		8.80		3.492e-02		-54.623		6.449e-03		11.978
3		0.00		9.20		3.821e-02		-55.643		7.395e-03		11.262
3		0.00		9.60		4.009e-02		-54.543		7.472e-03		11.926
3		0.00		10.00		4.120e-02		-54.046		7.939e-03		12.148
3		0.00		9.60		4.382e-02		-54.581		8.115e-03		11.224
3		0.00		9.20		4.410e-02		-54.504		8.202e-03		11.345
3		0.00		8.80		4.445e-02		-54.757		7.712e-03		10.891
3		0.00		8.40		4.419e-02		-53.768		7.594e-03		10.691
3		0.00		8.00		4.416e-02		-53.853		7.601e-03		11.425
3		0.00		7.60		4.294e-02		-53.884		7.339e-03		11.639
3		0.00		7.20		4.281e-02		-53.845		7.120e-03		10.133
3		0.00		6.80		4.218e-02		-53.198		7.339e-03		9.774
3		0.00		6.40		4.140e-02		-54.113		7.105e-03		10.001
3		0.00		6.00		3.947e-02		-52.437		6.455e-03		10.112
3		0.00		5.60		3.935e-02		-53.357		6.684e-03		10.032
3		0.00		5.20		3.946e-02		-51.957		6.221e-03		10.083
3		0.00		4.80		3.914e-02		-53.643		6.548e-03		9.449
3		0.00		4.40		3.896e-02		-53.703		6.862e-03		9.698
3		0.00		4.00		3.853e-02		-52.846		6.757e-03		9.299
3		0.00		3.60		3.694e-02		-52.477		6.562e-03		9.752
3		0.00		3.20		3.711e-02		-53.268		6.831e-03		9.563
3		0.00		2.80		3.635e-02		-52.975		7.535e-03		9.783
3		0.00		2.40		3.563e-02		-53.224		7.950e-03		10.259
3		0.00		2.00		3.598e-02		-52.190		8.152e-03		10.159
3		0.00		1.60		3.510e-02		-52.997		8.530e-03		11.532
3		0.00		1.20		3.527e-02		-52.497		8.956e-03		9.759
3		0.00		0.80		3.522e-02		-52.678		8.681e-03		10.255
3		0.00		0.40		3.468e-02		-53.149		8.946e-03		10.567
3		0.00		0.00		3.429e-02		-52.824		8.731e-03		11.258
3		0.00		-0.40		3.452e-02		-52.713		8.836e-03		10.936
3		0.00		-0.80		3.488e-02		-53.704		8.308e-03		11.933
3		0.00		-1.20		3.461e-02		-53.216		7.748e-03		10.308
3		0.00		-1.60		3.349e-02		-52.875		7.201e-03		10.599
3		0.00		-2.00		3.234e-02		-54.543		7.366e-03		11.434
3		0.00		-2.40		3.142e-02		-54.962		7.097e-03		12.336
3		0.00		-2.80		2.913e-02		-55.985		6.511e-03		11.488
3		0.00		-3.20		2.700e-02		-54.098		5.749e-03		12.026
3		0.00		-3.60		2.519e-02		-55.204		5.311e-03		12.757
3		0.00		-4.00		2.067e-02		-55.429		4.069e-03		11.476
3		0.00		-4.40		1.790e-02		-51.913		3.352e-03		12.787
3		0.00		-4.80		1.340e-02		-51.793		2.168e-03		14.197
3		0.00		-5.20		7.983e-03		-46.675		1.504e-03		21.318
3		0.00		-5.60		4.596e-03		-54.691		1.310e-03		22.378
3		0.00		-6.00		2.334e-03		-49.634		8.980e-04		42.625
3		0.00		-6.40		2.134e-03		33.600		9.400e-04		65.116
3		0.00		-6.80		3.041e-03		90.021		1.346e-03		38.577
3		0.00		-7.20		5.922e-03		126.711		1.578e-03		20.703
3		0.00		-7.60		7.664e-03		119.639		2.122e-03		17.001
3		0.00		-8.00		9.770e-03		120.757		2.568e-03		13.732
3		0.00		-8.40		1.105e-02		121.465		2.716e-03		15.411
3		0.00		-8.80		1.212e-02		126.324		2.976e-03		14.311
3		0.00		-9.20		1.294e-02		120.620		3.238e-03		33.525
3		0.00		-9.60		1.406e-02		124.088		3.550e-03		12.369
3		0.00		-10.00		1.447e-02		127.088		3.773e-03		14.169
3		0.00		-9.60		1.559e-02		123.310		3.954e-03		14.221
3		0.00		-9.20		1.497e-02		120.597		4.083e-03		15.689
3		0.00		-8.80		1.471e-02		122.396		4.025e-03		14.789
3		0.00		-8.40		1.504e-02		121.846		3.820e-03		14.436
3		0.00		-8.00		1.465e-02		120.790		3.886e-03		14.912
3		0.00		-7.60		1.454e-02		122.583		3.625e-03		13.874
3		0.00		-7.20		1.373e-02		122.112		3.564e-03		13.302
3		0.00		-6.80		1.292e-02		119.017		3.513e-03		13.798
3		0.00		-6.40		1.247e-02		122.778		3.104e-03		13.168
3		0.00		-6.00		1.199e-02		121.459		3.367e-03		13.482
3		0.00		-5.60		1.134e-02		121.988		2.759e-03		13.686
3		0.00		-5.20		1.129e-02		120.570		2.711e-03		14.081
3		0.00		-4.80		1.082e-02		124.568		2.516e-03		12.002
3		0.00		-4.40		9.894e-03		119.988		2.550e-03		14.405
3		0.00		-4.00		9.658e-03		124.503		2.574e-03		15.320
3		0.00		-3.60		8.757e-03		120.041		2.325e-03		17.248
3		0.00		-3.20		9.046e-03		124.665		2.045e-03		16.486
3		0.00		-2.80		8.884e-03		125.519		2.127e-03		15.581
3		0.00		-2.40		8.371e-03		122.125		2.119e-03		16.743
3		0.00		-2.00		8.105e-03		125.318		1.907e-03		15.416
3		0.00		-1.60		7.763e-03		123.008		1.995e-03		14.417
3		0.00		-1.20		6.994e-03		121.142		2.018e-03		15.401
3		0.00		-0.80		6.860e-03		125.573		1.686e-03		14.051
3		0.00		-0.40		5.994e-03		124.682		1.772e-03		21.596
4		0.00		0.00		5.594e-03		122.286		1.685e-03		21.069
4		0.00		0.40		4.722e-03		113.504		1.832e-03		36.552
4		0.00		0.80		3.857e-03		115.935		1.433e-03		30.697
4		0.00		1.20		4.013e-03		109.298		1.452e-03		36.643
4		0.00		1.60		3.259e-03		94.842		1.249e-03		55.416
4		0.00		2.00		2.182e-03		52.255		1.028e-03		80.395
4		0.00		2.40		1.897e-03		20.382		7.064e-04		70.660
4		0.00		2.80		1.858e-03		-36.089		7.471e-04		70.562
4		0.00		3.20		2.349e-03		-47.078		9.152e-04		46.291
4		0.00		3.60		3.936e-03		-66.157		9.915e-04		24.888
4		0.00		4.00		5.891e-03		-53.373		1.406e-03		18.293
4		0.00		4.40		7.899e-03		-48.470		1.540e-03		17.772
4		0.00		4.80		9.755e-03		-52.088		1.930e-03		14.649
4		0.00		5.20		1.175e-02		-52.360		1.818e-03		13.397
4		0.00		5.60		1.424e-02		-54.660		2.725e-03		11.809
4		0.00		6.00		1.657e-02		-51.468		3.252e-03		12.585
4		0.00		6.40		1.978e-02		-53.467		3.993e-03		10.977
4		0.00		6.80		2.268e-02		-53.006		4.717e-03		9.972
4		0.00		7.20		2.435e-02		-51.633		5.484e-03		11.137
4		0.00		7.60		2.703e-02		-54.829		6.317e-03		10.680
4		0.00		8.00		3.004e-02		-53.605		7.101e-03		10.749
4		0.00		8.40		3.281e-02		-54.449		8.542e-03		12.420
4		0.00		8.80		3.640e-02		-55.608		9.261e-03		11.793
4		0.00		9.20		3.797e-02		-55.938		9.310e-03		12.737
4		0.00		9.60		3.994e-02		-56.642		9.002e-03		12.317
4		0.00		10.00		4.298e-02		-56.478		9.233e-03		11.225
4		0.00		9.60		4.397e-02		-54.580		9.143e-03		11.111
4		0.00		9.20		4.443e-02		-53.741		8.348e-03		10.201
4		0.00		8.80		4.351e-02		-52.976		8.340e-03		10.249
4		0.00		8.40		4.313e-02		-53.368		9.110e-03		10.216
4		0.00		8.00		4.194e-02		-53.228		9.032e-03		9.880
4		0.00		7.60		4.227e-02		-53.161		8.827e-03		9.890
4		0.00		7.20		4.170e-02		-52.516		9.281e-03		9.701
4		0.00		6.80		4.032e-02		-51.857		9.201e-03		9.223
4		0.00		6.40		4.008e-02		-53.483		8.936e-03		10.667
4		0.00		6.00		4.073e-02		-53.989		9.263e-03		10.284
4		0.00		5.60		3.977e-02		-55.288		8.623e-03		11.425
4		0.00		5.20		3.992e-02		-55.343		8.740e-03		11.309
4		0.00		4.80		3.955e-02		-55.246		8.157e-03		11.939
4		0.00		4.40		3.936e-02		-54.901		7.547e-03		10.785
4		0.00		4.00		3.916e-02		-54.477		6.987e-03		9.480
4		0.00		3.60		3.862e-02		-53.718		6.428e-03		9.397
4		0.00		3.20		3.792e-02		-54.566		6.642e-03		10.404
4		0.00		2.80		3.855e-02		-53.844		6.464e-03		9.253
4		0.00		2.40		3.779e-02		-53.038		6.815e-03		8.194
4		0.00		2.00		3.776e-02		-51.851		7.089e-03		9.263
4		0.00		1.60		3.722e-02		-52.076		7.698e-03		9.993
4		0.00		1.20		3.681e-02		-52.459		8.068e-03		10.674
4		0.00		0.80		3.669e-02		-52.281		8.450e-03		11.067
4		0.00		0.40		3.675e-02		-51.583		8.705e-03		9.368
4		0.00		0.00		3.658e-02		-53.412		8.737e-03		10.146
4		0.00		-0.40		3.629e-02		-54.433		8.316e-03		11.953
4		0.00		-0.80		3.597e-02		-54.086		8.102e-03		11.409
4		0.00		-1.20		3.638e-02		-55.333		7.269e-03		10.288
4		0.00		-1.60		3.467e-02		-54.888		7.099e-03		11.356
4		0.00		-2.00		3.411e-02		-54.968		6.364e-03		10.377
4		0.00		-2.40		3.244e-02		-53.714		5.393e-03		10.226
4		0.00		-2.80		3.154e-02		-53.613		5.618e-03		10.189
4		0.00		-3.20		2.845e-02		-53.193		5.185e-03		10.928
4		0.00		-3.60		2.451e-02		-52.743		4.757e-03		10.644
4		0.00		-4.00		2.152e-02		-52.578		4.104e-03		11.388
4		0.00		-4.40		1.759e-02		-53.190		3.890e-03		13.245
4		0.00		-4.80		1.307e-02		-49.133		3.132e-03		13.363
4		0.00		-5.20		8.387e-03		-52.826		2.198e-03		18.115
4		0.00		-5.60		4.375e-03		-49.035		1.454e-03		24.550
4		0.00		-6.00		2.555e-03		-25.011		9.499e-04		46.421
4		0.00		-6.40		1.805e-03		37.110		7.829e-04		69.204
4		0.00		-6.80		3.489e-03		89.596		1.448e-03		57.475
4		0.00		-7.20		5.042e-03		117.225		1.756e-03		19.922
4		0.00		-7.60		6.998e-03		116.511		2.354e-03		16.483
4		0.00		-8.00		7.981e-03		120.525		2.617e-03		16.060
4		0.00		-8.40		9.491e-03		115.035		2.628e-03		13.527
4		0.00		-8.80		1.074e-02		119.810		2.553e-03		14.372
4		0.00		-9.20		1.202e-02		118.734		2.815e-03		15.380
4		0.00		-9.60		1.253e-02		122.080		2.798e-03		14.053
4		0.00		-10.00		1.393e-02		125.125		3.049e-03		12.625
4		0.00		-9.60		1.401e-02		124.054		3.232e-03		13.096
4		0.00		-9.20		1.310e-02		124.655		2.996e-03		13.082
4		0.00		-8.80		1.341e-02		125.528		3.283e-03		12.927
4		0.00		-8.40		1.349e-02		124.059		3.544e-03		14.280
4		0.00		-8.00		1.251e-02		125.741		3.526e-03		13.403
4		0.00		-7.60		1.181e-02		126.133		3.260e-03		14.981
4		0.00		-7.20		1.134e-02		124.180		3.305e-03		15.284
4		0.00		-6.80		1.067e-02		119.518		3.211e-03		15.412
4		0.00		-6.40		1.090e-02		122.285		2.715e-03		12.006
4		0.00		-6.00		1.095e-02		122.554		2.303e-03		13.522
4		0.00		-5.60		1.039e-02		124.112		2.368e-03		14.027
4		0.00		-5.20		9.720e-03		122.875		2.175e-03		14.870
4		0.00		-4.80		9.211e-03		127.843		2.098e-03		14.907
4		0.00		-4.40		8.811e-03		125.850		2.159e-03		16.129
4		0.00		-4.00		8.390e-03		128.791		2.228e-03		14.453
4		0.00		-3.60		7.857e-03		123.594		2.168e-03		13.389
4		0.00		-3.20		7.679e-03		123.966		1.975e-03		16.981
4		0.00		-2.80		6.786e-03		124.645		2.011e-03		19.859
4		0.00		-2.40		6.152e-03		119.152		2.012e-03		25.771
4		0.00		-2.00		5.943e-03		125.462		1.892e-03		20.060
4		0.00		-1.60		5.508e-03		120.913		1.905e-03		26.518
4		0.00		-1.20		5.060e-03		124.017		1.699e-03		24.522
4		0.00		-0.80		4.875e-03		121.198		1.598e-03		22.947
4		0.00		-0.40		4.079e-03		116.360		1.557e-03		35.001
5		0.00		0.00		4.207e-03		117.127		1.392e-03		24.512
5		0.00		0.40		3.857e-03		119.966		1.362e-03		29.329
5		0.00		0.80		3.397e-03		101.416		1.482e-03		40.598
5		0.00		1.20		2.715e-03		102.323		1.170e-03		47.582
5		0.00		1.60		2.469e-03		66.430		9.920e-04		76.011
5		0.00		2.00		1.855e-03		27.116		8.835e-04		79.783
5		0.00		2.40		1.702e-03		9.138		6.573e-04		81.717
5		0.00		2.80		2.230e-03		-31.508		9.369e-04		57.880
5		0.00		3.20		2.781e-03		-40.286		1.212e-03		44.476
5		0.00		3.60		3.900e-03		-55.929		1.311e-03		21.756
5		0.00		4.00		5.574e-03		-58.317		1.458e-03		25.884
5		0.00		4.40		7.936e-03		-53.663		2.009e-03		19.006
5		0.00		4.80		1.011e-02		-56.973		2.317e-03		16.635
5		0.00		5.20		1.246e-02		-55.038		2.424e-03		14.584
5		0.00		5.60		1.570e-02		-57.467		3.093e-03		14.067
5		0.00		6.00		1.804e-02		-55.460		3.398e-03		12.727
5		0.00		6.40		2.075e-02		-54.480		3.517e-03		13.306
5		0.00		6.80		2.262e-02		-53.280		4.164e-03		12.213
5		0.00		7.20		2.518e-02		-53.103		4.755e-03		11.719
5		0.00		7.60		2.772e-02		-53.452		5.170e-03		11.660
5		0.00		8.00		3.217e-02		-53.093		6.362e-03		10.614
5		0.00		8.40		3.395e-02		-53.528		7.513e-03		9.655
5		0.00		8.80		3.541e-02		-53.093		8.442e-03		11.951
5		0.00		9.20		3.841e-02		-53.572		9.270e-03		11.251
5		0.00		9.60		4.027e-02		-54.171		1.015e-02		13.130
5		0.00		10.00		4.233e-02		-54.328		9.319e-03		12.069
5		0.00		9.60		4.283e-02		-55.798		9.932e-03		12.950
5		0.00		9.20		4.448e-02		-54.940		8.980e-03		11.470
5		0.00		8.80		4.480e-02		-55.491		8.668e-03		11.004
5		0.00		8.40		4.394e-02		-55.156		8.018e-03		11.048
5		0.00		8.00		4.368e-02		-53.775		6.898e-03		10.670
5		0.00		7.60		4.327e-02		-54.033		7.029e-03		11.121
5		0.00		7.20		4.356e-02		-53.148		6.761e-03		9.585
5		0.00		6.80		4.321e-02		-52.432		7.092e-03		9.322
5		0.00		6.40		4.213e-02		-51.894		7.179e-03		9.543
5		0.00		6.00		4.165e-02		-51.378		7.650e-03		8.253
5		0.00		5.60		4.162e-02		-51.776		8.089e-03		9.179
5		0.00		5.20		4.008e-02		-52.513		8.282e-03		9.812
5		0.00		4.80		3.977e-02		-53.119		8.632e-03		9.687
5		0.00		4.40		3.982e-02		-53.399		8.799e-03		10.488
5		0.00		4.00		3.944e-02		-52.900		9.276e-03		9.515
5		0.00		3.60		3.879e-02		-54.759		9.565e-03		10.940
5		0.00		3.20		3.871e-02		-55.317		9.328e-03		11.742
5		0.00		2.80		3.796e-02		-55.999		9.701e-03		14.223
5		0.00		2.40		3.708e-02		-56.890		8.645e-03		11.444
5		0.00		2.00		3.736e-02		-57.163		8.584e-03		11.690
5		0.00		1.60		3.707e-02		-55.158		7.396e-03		11.205
5		0.00		1.20		3.758e-02		-55.936		7.463e-03		10.955
5		0.00		0.80		3.671e-02		-54.483		7.290e-03		11.233
5		0.00		0.40		3.704e-02		-54.158		7.253e-03		9.967
5		0.00		0.00		3.668e-02		-54.438		7.318e-03		10.916
5		0.00		-0.40		3.646e-02		-53.101		7.001e-03		10.576
5		0.00		-0.80		3.669e-02		-53.137		7.053e-03		9.754
5		0.00		-1.20		3.506e-02		-53.103		7.234e-03		10.218
5		0.00		-1.60		3.412e-02		-52.379		7.339e-03		10.059
5		0.00		-2.00		3.311e-02		-53.011		7.271e-03		11.579
5		0.00		-2.40		3.070e-02		-54.085		6.850e-03		11.990
5		0.00		-2.80		2.794e-02		-54.302		6.201e-03		11.247
5		0.00		-3.20		2.509e-02		-54.234		5.412e-03		12.499
5		0.00		-3.60		2.166e-02		-55.040		4.634e-03		12.690
5		0.00		-4.00		1.923e-02		-56.663		3.949e-03		13.537
5		0.00		-4.40		1.563e-02		-56.185		2.896e-03		13.408
5		0.00		-4.80		1.292e-02		-54.281		2.513e-03		14.349
5		0.00		-5.20		8.375e-03		-51.704		1.752e-03		17.248
5		0.00		-5.60		4.676e-03		-47.533		1.373e-03		21.836
5		0.00		-6.00		2.418e-03		-55.586		1.059e-03		49.839
5		0.00		-6.40		1.779e-03		39.475		7.659e-04		75.191
5		0.00		-6.80		2.806e-03		86.281		1.128e-03		38.157
5		0.00		-7.20		4.922e-03		114.431		1.599e-03		29.993
5		0.00		-7.60		6.831e-03		120.134		2.158e-03		17.790
5		0.00		-8.00		7.846e-03		124.280		2.244e-03		14.070
5		0.00		-8.40		9.483e-03		121.285		2.772e-03		16.096
5		0.00		-8.80		9.885e-03		126.350		2.802e-03		17.523
5		0.00		-9.20		1.115e-02		123.191		2.931e-03		17.873
5		0.00		-9.60		1.147e-02		122.298		3.173e-03		17.364
5		0.00		-10.00		1.254e-02		124.260		3.371e-03		14.067
5		0.00		-9.60		1.242e-02		122.275		3.360e-03		15.077
5		0.00		-9.20		1.249e-02		126.773		3.155e-03		14.060
5		0.00		-8.80		1.122e-02		120.149		2.871e-03		13.298
5		0.00		-8.40		1.146e-02		121.397		2.688e-03		14.890
5		0.00		-8.00		1.120e-02		122.792		2.780e-03		12.087
5		0.00		-7.60		1.091e-02		125.946		2.702e-03		11.529
5		0.00		-7.20		1.066e-02		121.548		2.851e-03		15.547
5		0.00		-6.80		1.030e-02		121.009		2.736e-03		13.040
5		0.00		-6.40		9.728e-03		119.516		2.443e-03		15.518
5		0.00		-6.00		9.644e-03		123.837		2.458e-03		17.915
5		0.00		-5.60		8.996e-03		122.715		2.280e-03		16.193
5		0.00		-5.20		8.089e-03		126.086		2.314e-03		18.176
5		0.00		-4.80		7.494e-03		119.614		2.013e-03		16.740
5		0.00		-4.40		7.209e-03		119.151		2.165e-03		18.133
5		0.00		-4.00		6.689e-03		117.334		1.923e-03		19.738
5		0.00		-3.60		6.470e-03		118.408		1.896e-03		16.086
5		0.00		-3.20		6.190e-03		118.762		1.949e-03		17.128
5		0.00		-2.80		5.761e-03		128.237		1.621e-03		18.558
5		0.00		-2.40		5.111e-03		120.856		1.743e-03		20.596
5		0.00		-2.00		4.809e-03		113.867		1.570e-03		43.568
5		0.00		-1.60		4.935e-03		128.517		1.564e-03		21.630
5		0.00		-1.20		4.329e-03		123.605		1.532e-03		22.920
5		0.00		-0.80		3.780e-03		113.613		1.264e-03		28.888
5		0.00		-0.40		3.267e-03		102.758		1.263e-03		59.757
6		0.00		0.00		2.951e-03		94.272		1.156e-03		51.378
6		0.00		0.40		2.827e-03		88.880		1.149e-03		56.004
6		0.00		0.80		2.071e-03		62.395		1.006e-03		74.002
6		0.00		1.20		1.877e-03		6.735		8.576e-04		91.739
6		0.00		1.60		1.653e-03		-5.161		7.170e-04		83.177
6		0.00		2.00		1.885e-03		-0.013		7.026e-04		82.642
6		0.00		2.40		1.976e-03		-37.170		9.118e-04		60.892
6		0.00		2.80		2.724e-03		-52.335		1.178e-03		35.127
6		0.00		3.20		3.461e-03		-49.079		1.408e-03		35.028
6		0.00		3.60		4.902e-03		-62.083		1.584e-03		24.174
6		0.00		4.00		6.268e-03		-58.542		1.499e-03		19.367
6		0.00		4.40		7.397e-03		-55.692		1.649e-03		16.994
6		0.00		4.80		9.687e-03		-57.078		1.718e-03		15.455
6		0.00		5.20		1.145e-02		-59.448		2.297e-03		13.862
6		0.00		5.60		1.392e-02		-57.054		2.945e-03		14.404
6		0.00		6.00		1.708e-02		-57.913		3.312e-03		12.922
6		0.00		6.40		2.066e-02		-56.278		3.590e-03		12.429
6		0.00		6.80		2.349e-02		-55.281		3.821e-03		12.045
6		0.00		7.20		2.626e-02		-55.625		4.402e-03		11.072
6		0.00		7.60		2.869e-02		-55.448		4.817e-03		11.802
6		0.00		8.00		3.098e-02		-55.040		5.318e-03		11.841
6		0.00		8.40		3.349e-02		-55.833		5.947e-03		11.039
6		0.00		8.80		3.552e-02		-54.347		6.631e-03		10.975
6		0.00		9.20		3.704e-02		-52.660		7.104e-03		11.099
6		0.00		9.60		4.073e-02		-52.575		7.464e-03		10.593
6		0.00		10.00		4.184e-02		-52.983		8.604e-03		10.233
6		0.00		9.60		4.230e-02		-51.962		8.104e-03		11.472
6		0.00		9.20		4.199e-02		-52.832		8.752e-03		11.796
6		0.00		8.80		4.189e-02		-52.555		8.742e-03		11.629
6		0.00		8.40		4.241e-02		-52.392		9.033e-03		10.264
6		0.00		8.00		4.134e-02		-52.953		8.040e-03		10.552
6		0.00		7.60		4.192e-02		-52.803		8.088e-03		10.359
6		0.00		7.20		4.121e-02		-52.706		7.852e-03		10.410
6		0.00		6.80		4.083e-02		-52.667		7.671e-03		10.233
6		0.00		6.40		4.055e-02		-52.589		7.552e-03		9.145
6		0.00		6.00		4.018e-02		-52.404		7.273e-03		9.664
6		0.00		5.60		3.967e-02		-52.790		7.496e-03		9.649
6		0.00		5.20		3.870e-02		-52.690		7.354e-03		9.524
6		0.00		4.80		3.990e-02		-52.468		7.744e-03		8.535
6		0.00		4.40		3.841e-02		-52.588		7.071e-03		8.665
6		0.00		4.00		3.751e-02		-52.815		7.719e-03		9.335
6		0.00		3.60		3.636e-02		-52.324		7.708e-03		9.404
6		0.00		3.20		3.638e-02		-53.038		8.136e-03		10.037
6		0.00		2.80		3.638e-02		-52.488		7.903e-03		9.935
6		0.00		2.40		3.615e-02		-53.694		7.861e-03		9.987
6		0.00		2.00		3.603e-02		-52.047		8.040e-03		10.273
6		0.00		1.60		3.623e-02		-52.873		7.892e-03		9.276
6		0.00		1.20		3.557e-02		-52.580		7.936e-03		9.550
6		0.00		0.80		3.604e-02		-53.073		8.004e-03		10.738
6		0.00		0.40		3.587e-02		-52.249		7.902e-03		9.695
6		0.00		0.00		3.583e-02		-52.883		7.654e-03		10.230
6		0.00		-0.40		3.557e-02		-52.607		8.180e-03		9.289
6		0.00		-0.80		3.564e-02		-52.434		7.663e-03		10.046
6		0.00		-1.20		3.486e-02		-52.215		7.859e-03		9.836
6		0.00		-1.60		3.416e-02		-52.737		7.718e-03		9.196
6		0.00		-2.00		3.183e-02		-52.583		7.110e-03		9.554
6		0.00		-2.40		2.915e-02		-53.750		6.851e-03		10.032
6		0.00		-2.80		2.757e-02		-53.088		6.253e-03		10.033
6		0.00		-3.20		2.461e-02		-53.890		5.767e-03		11.375
6		0.00		-3.60		2.141e-02		-53.518		5.499e-03		12.128
6		0.00		-4.00		1.681e-02		-54.933		3.913e-03		12.475
6		0.00		-4.40		1.422e-02		-54.883		3.573e-03		12.722
6		0.00		-4.80		1.047e-02		-56.085		2.567e-03		15.759
6		0.00		-5.20		7.613e-03		-50.055		1.895e-03		18.722
6		0.00		-5.60		3.943e-03		-47.544		1.340e-03		28.228
6		0.00		-6.00		2.565e-03		-52.404		1.130e-03		44.614
6		0.00		-6.40		2.036e-03		21.593		8.810e-04		75.290
6		0.00		-6.80		2.410e-03		54.435		1.125e-03		82.759
6		0.00		-7.20		4.108e-03		100.691		1.748e-03		54.587
6		0.00		-7.60		5.184e-03		118.647		1.887e-03		22.955
6		0.00		-8.00		7.245e-03		123.467		2.306e-03		36.342
6		0.00		-8.40		8.557e-03		116.231		2.603e-03		16.581
6		0.00		-8.80		8.975e-03		123.667		2.742e-03		16.941
6		0.00		-9.20		9.507e-03		124.615		2.745e-03		14.001
6		0.00		-9.60		1.065e-02		123.388		2.809e-03		15.148
6		0.00		-10.00		1.129e-02		122.130		3.283e-03		16.612
6		0.00		-9.60		1.164e-02		121.275		3.410e-03		15.125
6		0.00		-9.20		1.229e-02		121.509		3.265e-03		13.220
6		0.00		-8.80		1.184e-02		122.058		3.391e-03		15.448
6		0.00		-8.40		1.149e-02		121.913		3.105e-03		15.117
6		0.00		-8.00		1.090e-02		122.060		3.218e-03		14.757
6		0.00		-7.60		1.077e-02		124.400		3.047e-03		14.260
6		0.00		-7.20		1.065e-02		124.446		3.003e-03		13.666
6		0.00		-6.80		1.025e-02		125.497		2.776e-03		14.656
6		0.00		-6.40		9.612e-03		123.003		2.883e-03		15.211
6		0.00		-6.00		9.366e-03		121.843		2.529e-03		15.151
6		0.00		-5.60		8.472e-03		123.016		2.337e-03		16.711
6		0.00		-5.20		7.619e-03		124.406		2.073e-03		14.917
6		0.00		-4.80		7.052e-03		123.630		2.101e-03		15.114
6		0.00		-4.40		6.639e-03		125.332		2.201e-03		19.548
6		0.00		-4.00		6.221e-03		124.662		1.954e-03		16.937
6		0.00		-3.60		6.123e-03		120.218		1.788e-03		15.023
6		0.00		-3.20		5.711e-03		124.324		1.680e-03		28.092
6		0.00		-2.80		5.154e-03		122.682		1.754e-03		24.405
6		0.00		-2.40		4.635e-03		119.294		1.726e-03		24.161
6		0.00		-2.00		4.496e-03		117.716		1.604e-03		25.098
6		0.00		-1.60		4.042e-03		110.894		1.382e-03		48.789
6		0.00		-1.20		3.611e-03		98.296		1.512e-03		56.469
6		0.00		-0.80		3.261e-03		111.011		1.295e-03		42.424
6		0.00		-0.40		2.805e-03		82.539		1.143e-03		65.601
7		0.00		0.00		2.608e-03		78.860		1.270e-03		83.150
7		0.00		0.40		2.190e-03		49.955		9.410e-04		83.892
7		0.00		0.80		1.893e-03		26.155		7.894e-04		89.099
7		0.00		1.20		1.798e-03		-6.632		8.027e-04		96.467
7		0.00		1.60		1.807e-03		-26.333		7.610e-04		81.885
7		0.00		2.00		1.988e-03		-46.946		8.122e-04		64.624
7		0.00		2.40		2.438e-03		-69.138		1.032e-03		46.266
7		0.00		2.80		3.512e-03		-69.105		1.359e-03		32.398
7		0.00		3.20		3.882e-03		-63.792		1.136e-03		28.047
7		0.00		3.60		5.145e-03		-60.975		1.542e-03		23.001
7		0.00		4.00		6.657e-03		-58.962		1.699e-03		17.254
7		0.00		4.40		8.145e-03		-55.120		2.101e-03		18.971
7		0.00		4.80		9.560e-03		-53.522		2.249e-03		14.105
7		0.00		5.20		1.199e-02		-56.472		2.675e-03		15.445
7		0.00		5.60		1.413e-02		-55.078		3.370e-03		14.799
7		0.00		6.00		1.659e-02		-53.708		3.796e-03		13.312
7		0.00		6.40		1.962e-02		-55.861		4.588e-03		13.882
7		0.00		6.80		2.219e-02		-57.812		5.586e-03		12.467
7		0.00		7.20		2.452e-02		-55.060		5.964e-03		12.884
7		0.00		7.60		2.733e-02		-56.948		6.529e-03		12.348
7		0.00		8.00		2.927e-02		-54.403		7.029e-03		12.938
7		0.00		8.40		3.243e-02		-55.628		7.373e-03		13.031
7		0.00		8.80		3.481e-02		-55.098		7.426e-03		11.753
7		0.00		9.20		3.677e-02		-56.003		7.276e-03		12.257
7		0.00		9.60		3.974e-02		-54.365		7.540e-03		12.573
7		0.00		10.00		4.225e-02		-53.377		7.728e-03		11.622
7		0.00		9.60		4.321e-02		-52.527		7.862e-03		11.287
7		0.00		9.20		4.273e-02		-52.697		8.182e-03		11.713
7		0.00		8.80		4.274e-02		-52.473		7.866e-03		11.436
7		0.00		8.40		4.329e-02		-51.392		7.983e-03		10.307
7		0.00		8.00		4.222e-02		-51.224		8.129e-03		10.579
7		0.00		7.60		4.297e-02		-52.312		8.674e-03		9.668
7		0.00		7.20		4.064e-02		-52.952		9.459e-03		10.243
7		0.00		6.80		4.109e-02		-52.013		9.519e-03		10.341
7		0.00		6.40		4.035e-02		-53.078		9.821e-03		10.464
7		0.00		6.00		4.048e-02		-53.768		9.474e-03		11.134
7		0.00		5.60		3.957e-02		-54.983		9.645e-03		11.291
7		0.00		5.20		3.906e-02		-54.577		9.748e-03		11.516
7		0.00		4.80		3.810e-02		-56.802		9.530e-03		12.781
7		0.00		4.40		3.836e-02		-55.753		8.952e-03		12.290
7		0.00		4.00		3.734e-02		-55.633		7.912e-03		12.107
7		0.00		3.60		3.677e-02		-56.000		7.757e-03		11.922
7		0.00		3.20		3.681e-02		-54.274		6.812e-03		10.908
7		0.00		2.80		3.602e-02		-53.228		7.085e-03		11.826
7		0.00		2.40		3.540e-02		-53.789		7.142e-03		10.895
7		0.00		2.00		3.590e-02		-53.665		7.773e-03		10.933
7		0.00		1.60		3.576e-02		-52.628		7.909e-03		10.292
7		0.00		1.20		3.613e-02		-52.645		8.094e-03		10.270
7		0.00		0.80		3.623e-02		-53.181		8.258e-03		9.489
7		0.00		0.40		3.639e-02		-53.218		8.410e-03		9.364
7		0.00		0.00		3.620e-02		-54.241		8.725e-03		10.382
7		0.00		-0.40		3.626e-02		-54.849		8.477e-03		10.268
7		0.00		-0.80		3.559e-02		-55.921		8.135e-03		12.723
7		0.00		-1.20		3.429e-02		-56.157		7.491e-03		11.500
7		0.00		-1.60		3.256e-02		-55.852		6.328e-03		11.926
7		0.00		-2.00		3.172e-02		-55.249		5.758e-03		11.069
7		0.00		-2.40		2.870e-02		-54.537		4.605e-03		11.207
7		0.00		-2.80		2.643e-02		-55.142		4.682e-03		11.712
7		0.00		-3.20		2.292e-02		-53.598		4.448e-03		13.034
7		0.00		-3.60		2.013e-02		-53.452		4.120e-03		12.512
7		0.00		-4.00		1.697e-02		-52.659		3.964e-03		12.898
7		0.00		-4.40		1.388e-02		-54.508		3.548e-03		13.674
7		0.00		-4.80		1.001e-02		-51.525		2.533e-03		16.221
7		0.00		-5.20		6.719e-03		-49.829		1.898e-03		17.811
7		0.00		-5.60		4.209e-03		-56.140		1.272e-03		26.034
7		0.00		-6.00		2.152e-03		-22.344		1.018e-03		63.754
7		0.00		-6.40		1.949e-03		35.558		9.030e-04		78.751
7		0.00		-6.80		3.577e-03		92.744		1.386e-03		52.449
7		0.00		-7.20		4.374e-03		114.054		1.537e-03		40.917
7		0.00		-7.60		5.728e-03		118.909		1.729e-03		24.370
7		0.00		-8.00		7.449e-03		125.572		2.097e-03		14.360
7		0.00		-8.40		9.206e-03		127.241		2.581e-03		16.795
7		0.00		-8.80		9.838e-03		123.552		3.097e-03		15.945
7		0.00		-9.20		9.894e-03		124.339		3.047e-03		15.949
7		0.00		-9.60		1.140e-02		126.457		2.974e-03		13.735
7		0.00		-10.00		1.133e-02		121.613		2.990e-03		13.911
7		0.00		-9.60		1.155e-02		122.006		2.789e-03		16.184
7		0.00		-9.20		1.190e-02		124.590		2.843e-03		15.082
7		0.00		-8.80		1.118e-02		123.683		3.065e-03		16.368
7		0.00		-8.40		1.084e-02		124.780		2.897e-03		16.237
7		0.00		-8.00		1.009e-02		129.501		3.060e-03		14.969
7		0.00		-7.60		1.010e-02		124.903		3.262e-03		16.942
7		0.00		-7.20		9.181e-03		122.640		3.167e-03		16.234
7		0.00		-6.80		9.064e-03		120.786		2.993e-03		17.544
7		0.00		-6.40		7.548e-03		123.482		2.588e-03		15.789
7		0.00		-6.00		8.213e-03		123.691		2.351e-03		18.392
7		0.00		-5.60		7.648e-03		118.089		2.397e-03		18.517
7		0.00		-5.20		7.382e-03		126.920		2.259e-03		19.039
7		0.00		-4.80		6.695e-03		125.082		1.856e-03		17.815
7		0.00		-4.40		6.280e-03		123.953		2.009e-03		20.391
7		0.00		-4.00		5.868e-03		121.506		1.929e-03		20.745
7		0.00		-3.60		4.890e-03		120.346		1.906e-03		33.633
7		0.00		-3.20		4.948e-03		123.742		1.831e-03		23.280
7		0.00		-2.80		4.126e-03		109.353		1.730e-03		35.714
7		0.00		-2.40		3.892e-03		105.677		1.494e-03		47.486
7		0.00		-2.00		3.404e-03		107.478		1.366e-03		43.062
7		0.00		-1.60		3.311e-03		103.336		1.332e-03		61.176
7		0.00		-1.20		2.648e-03		80.282		1.120e-03		65.583
7		0.00		-0.80		2.449e-03		75.613		1.189e-03		68.563
7		0.00		-0.40		2.206e-03		46.509		8.797e-04		84.952
8		0.00		0.00		2.026e-03		38.775		8.238e-04		80.777
8		0.00		0.40		1.788e-03		17.655		7.610e-04		78.460
8		0.00		0.80		1.849e-03		-9.062		8.101e-04		80.540
8		0.00		1.20		2.031e-03		-48.892		9.107e-04		58.996
8		0.00		1.60		2.616e-03		-67.998		1.002e-03		45.166
8		0.00		2.00		2.979e-03		-60.552		9.553e-04		36.596
8		0.00		2.40		3.711e-03		-74.178		1.089e-03		27.850
8		0.00		2.80		4.053e-03		-61.607		1.376e-03		23.513
8		0.00		3.20		5.145e-03		-60.678		1.414e-03		21.279
8		0.00		3.60		5.825e-03		-53.230		1.513e-03		20.866
8		0.00		4.00		6.594e-03		-52.152		1.525e-03		18.536
8		0.00		4.40		7.912e-03		-55.468		1.667e-03		18.576
8		0.00		4.80		9.383e-03		-54.362		1.717e-03		16.291
8		0.00		5.20		1.121e-02		-55.573		1.961e-03		15.040
8		0.00		5.60		1.442e-02		-53.689		2.556e-03		14.255
8		0.00		6.00		1.622e-02		-52.528		3.119e-03		13.284
8		0.00		6.40		1.844e-02		-53.808		3.974e-03		13.848
8		0.00		6.80		2.181e-02		-54.518		4.822e-03		13.511
8		0.00		7.20		2.439e-02		-54.028		6.176e-03		12.882
8		0.00		7.60		2.754e-02		-56.566		6.277e-03		12.173
8		0.00		8.00		2.922e-02		-56.653		6.143e-03		13.387
8		0.00		8.40		3.089e-02		-54.395		5.999e-03		12.287
8		0.00		8.80		3.485e-02		-54.149		7.004e-03		12.015
8		0.00		9.20		3.729e-02		-53.913		8.563e-03		11.875
8		0.00		9.60		3.924e-02		-52.820		9.911e-03		10.657
8		0.00		10.00		4.028e-02		-52.783		1.063e-02		11.860
8		0.00		9.60		4.114e-02		-54.533		1.133e-02		14.448
8		0.00		9.20		4.089e-02		-55.162		1.004e-02		12.447
8		0.00		8.80		4.220e-02		-57.763		1.008e-02		13.217
8		0.00		8.40		4.131e-02		-55.661		7.999e-03		13.623
8		0.00		8.00		4.109e-02		-53.153		7.225e-03		11.928
8		0.00		7.60		4.010e-02		-52.718		7.824e-03		11.959
8		0.00		7.20		3.933e-02		-52.506		7.600e-03		10.667
8		0.00		6.80		3.881e-02		-52.605		8.460e-03		11.151
8		0.00		6.40		3.855e-02		-54.120		9.105e-03		11.332
8		0.00		6.00		3.803e-02		-55.513		8.783e-03		12.710
8		0.00		5.60		3.778e-02		-56.287		8.070e-03		13.679
8		0.00		5.20		3.698e-02		-57.280		7.146e-03		13.447
8		0.00		4.80		3.680e-02		-54.218		6.399e-03		12.021
8		0.00		4.40		3.666e-02		-54.030		6.301e-03		11.961
8		0.00		4.00		3.592e-02		-53.425		6.700e-03		11.374
8		0.00		3.60		3.569e-02		-52.812		7.167e-03		10.740
8		0.00		3.20		3.487e-02		-54.378		8.295e-03		11.072
8		0.00		2.80		3.430e-02		-53.495		8.474e-03		11.742
8		0.00		2.40		3.431e-02		-55.681		8.614e-03		12.963
8		0.00		2.00		3.417e-02		-55.707		7.813e-03		12.821
8		0.00		1.60		3.395e-02		-54.962		6.096e-03		12.505
8		0.00		1.20		3.347e-02		-53.742		5.674e-03		11.679
8		0.00		0.80		3.330e-02		-54.684		5.714e-03		10.925
8		0.00		0.40		3.288e-02		-53.474		6.391e-03		10.918
8		0.00		0.00		3.301e-02		-53.311		6.764e-03		8.611
8		0.00		-0.40		3.306e-02		-53.158		7.322e-03		9.918
8		0.00		-0.80		3.220e-02		-54.718		7.564e-03		10.412
8		0.00		-1.20		3.190e-02		-55.833		7.025e-03		11.109
8		0.00		-1.60		3.079e-02		-54.612		6.298e-03		12.002
8		0.00		-2.00		2.975e-02		-56.052		5.624e-03		11.646
8		0.00		-2.40		2.712e-02		-56.275		4.384e-03		11.373
8		0.00		-2.80		2.548e-02		-54.829		4.226e-03		11.727
8		0.00		-3.20		2.213e-02		-54.843		4.151e-03		11.575
8		0.00		-3.60		1.866e-02		-54.651		3.833e-03		12.320
8		0.00		-4.00		1.584e-02		-54.633		3.833e-03		13.760
8		0.00		-4.40		1.289e-02		-56.422		3.109e-03		12.692
8		0.00		-4.80		1.086e-02		-54.839		2.600e-03		17.300
8		0.00		-5.20		8.065e-03		-54.803		1.936e-03		18.745
8		0.00		-5.60		5.313e-03		-59.722		1.436e-03		26.956
8		0.00		-6.00		2.624e-03		-42.041		1.041e-03		45.152
8		0.00		-6.40		1.841e-03		-26.240		7.969e-04		68.558
8		0.00		-6.80		2.430e-03		68.437		1.035e-03		61.778
8		0.00		-7.20		3.497e-03		101.081		1.489e-03		41.242
8		0.00		-7.60		4.876e-03		106.215		2.113e-03		53.074
8		0.00		-8.00		6.446e-03		122.317		2.239e-03		23.050
8		0.00		-8.40		7.044e-03		118.734		2.435e-03		18.564
8		0.00		-8.80		8.447e-03		123.832		2.634e-03		15.230
8		0.00		-9.20		8.821e-03		120.102		2.580e-03		17.470
8		0.00		-9.60		1.054e-02		122.768		2.534e-03		15.796
8		0.00		-10.00		1.145e-02		127.680		2.788e-03		14.857
8		0.00		-9.60		1.232e-02		125.686		3.168e-03		15.580
8		0.00		-9.20		1.125e-02		124.574		3.293e-03		16.233
8		0.00		-8.80		1.139e-02		123.477		3.279e-03		15.490
8		0.00		-8.40		1.050e-02		121.095		3.169e-03		15.342
8		0.00		-8.00		1.007e-02		121.964		3.212e-03		14.403
8		0.00		-7.60		9.613e-03		121.684		2.734e-03		14.812
8		0.00		-7.20		9.479e-03		124.040		2.284e-03		15.841
8		0.00		-6.80		8.653e-03		125.361		2.250e-03		16.359
8		0.00		-6.40		8.613e-03		129.162		2.300e-03		13.884
8		0.00		-6.00		7.361e-03		126.328		2.270e-03		18.146
8		0.00		-5.60		6.877e-03		127.838		2.327e-03		16.517
8		0.00		-5.20		6.010e-03		121.776		2.006e-03		33.010
8		0.00		-4.80		5.251e-03		121.839		1.942e-03		20.032
8		0.00		-4.40		4.802e-03		122.207		1.718e-03		34.550
8		0.00		-4.00		5.392e-03		118.499		1.687e-03		29.442
8		0.00		-3.60		4.990e-03		116.033		1.704e-03		29.476
8		0.00		-3.20		4.276e-03		117.060		1.676e-03		36.175
8		0.00		-2.80		3.653e-03		115.944		1.498e-03		37.263
8		0.00		-2.40		3.567e-03		103.094		1.441e-03		59.707
8		0.00		-2.00		2.915e-03		92.121		1.131e-03		73.789
8		0.00		-1.60		2.654e-03		76.621		1.326e-03		76.803
8		0.00		-1.20		2.414e-03		61.703		9.783e-04		75.463
8		0.00		-0.80		2.147e-03		41.176		9.046e-04		84.196
8		0.00		-0.40		1.881e-03		36.470		7.514e-04		87.524
