# Date of analysis: 2024-03-08 10;59
# Segment other properties: height: -66.6315112146798, diff height: 522.6344028587266, deflection: 33.04502562787705, deflection error: 2.839827985554752, adhesion: 36.634670297717236, phase offset: 0
# 
# Loop index	Read Volt (V)	Write Volt (V)	Amplitude (a.u)	Phase (deg)	Sigma Amp (a.u)	Sigma Pha (deg)	
1		0.00		0.00		1.073e-02		-47.993		2.588e-03		13.414
1		0.00		0.40		1.051e-02		-45.721		2.519e-03		14.185
1		0.00		0.80		1.070e-02		-47.796		2.686e-03		14.995
1		0.00		1.20		1.012e-02		-50.677		2.547e-03		15.553
1		0.00		1.60		1.026e-02		-50.322		2.685e-03		13.908
1		0.00		2.00		1.051e-02		-46.638		2.547e-03		11.941
1		0.00		2.40		1.056e-02		-42.290		2.860e-03		14.279
1		0.00		2.80		1.057e-02		-49.235		2.668e-03		12.671
1		0.00		3.20		1.106e-02		-46.934		2.547e-03		13.897
1		0.00		3.60		1.128e-02		-50.699		2.751e-03		12.961
1		0.00		4.00		1.202e-02		-49.363		2.533e-03		13.127
1		0.00		4.40		1.275e-02		-47.434		2.550e-03		12.242
1		0.00		4.80		1.319e-02		-50.178		2.565e-03		11.277
1		0.00		5.20		1.377e-02		-49.937		2.550e-03		9.476
1		0.00		5.60		1.472e-02		-52.727		2.886e-03		9.476
1		0.00		6.00		1.527e-02		-49.161		2.621e-03		9.584
1		0.00		6.40		1.658e-02		-48.591		2.922e-03		9.663
1		0.00		6.80		1.760e-02		-52.948		3.115e-03		8.576
1		0.00		7.20		1.798e-02		-51.524		3.238e-03		8.886
1		0.00		7.60		1.921e-02		-51.213		3.347e-03		8.532
1		0.00		8.00		1.971e-02		-52.856		3.790e-03		8.761
1		0.00		8.40		2.080e-02		-51.655		3.852e-03		9.778
1		0.00		8.80		2.139e-02		-51.699		4.044e-03		8.915
1		0.00		9.20		2.242e-02		-53.085		4.375e-03		10.024
1		0.00		9.60		2.388e-02		-52.565		5.174e-03		9.625
1		0.00		10.00		2.573e-02		-51.694		5.771e-03		8.342
1		0.00		9.60		2.660e-02		-51.139		6.084e-03		8.588
1		0.00		9.20		2.714e-02		-50.799		6.392e-03		9.574
1		0.00		8.80		2.735e-02		-51.398		6.451e-03		9.571
1		0.00		8.40		2.762e-02		-51.896		6.397e-03		9.162
1		0.00		8.00		2.780e-02		-51.851		6.271e-03		8.680
1		0.00		7.60		2.747e-02		-51.303		6.537e-03		9.244
1		0.00		7.20		2.686e-02		-52.465		6.373e-03		9.823
1		0.00		6.80		2.651e-02		-50.213		6.000e-03		10.331
1		0.00		6.40		2.667e-02		-51.124		6.247e-03		10.155
1		0.00		6.00		2.660e-02		-50.666		5.992e-03		9.473
1		0.00		5.60		2.659e-02		-52.448		6.141e-03		11.209
1		0.00		5.20		2.628e-02		-51.741		5.685e-03		11.123
1		0.00		4.80		2.555e-02		-52.222		5.588e-03		11.878
1		0.00		4.40		2.555e-02		-51.777		5.886e-03		12.217
1		0.00		4.00		2.536e-02		-50.692		5.942e-03		8.744
1		0.00		3.60		2.522e-02		-52.034		5.753e-03		10.684
1		0.00		3.20		2.495e-02		-50.842		5.706e-03		8.693
1		0.00		2.80		2.507e-02		-49.872		5.258e-03		8.828
1		0.00		2.40		2.457e-02		-50.490		5.155e-03		8.426
1		0.00		2.00		2.423e-02		-50.516		4.836e-03		7.973
1		0.00		1.60		2.454e-02		-48.988		5.042e-03		7.290
1		0.00		1.20		2.468e-02		-50.209		4.974e-03		8.526
1		0.00		0.80		2.483e-02		-50.151		4.633e-03		7.937
1		0.00		0.40		2.492e-02		-50.628		4.225e-03		7.408
1		0.00		0.00		2.480e-02		-50.371		3.858e-03		7.152
1		0.00		-0.40		2.513e-02		-50.748		3.948e-03		7.305
1		0.00		-0.80		2.464e-02		-51.870		4.053e-03		8.348
1		0.00		-1.20		2.424e-02		-52.157		4.084e-03		8.498
1		0.00		-1.60		2.368e-02		-50.543		3.759e-03		7.654
1		0.00		-2.00		2.358e-02		-49.475		4.137e-03		8.401
1		0.00		-2.40		2.335e-02		-51.632		4.168e-03		9.158
1		0.00		-2.80		2.296e-02		-49.382		4.312e-03		8.251
1		0.00		-3.20		2.223e-02		-51.994		4.374e-03		8.079
1		0.00		-3.60		2.145e-02		-50.324		4.012e-03		9.043
1		0.00		-4.00		2.105e-02		-50.216		4.362e-03		7.518
1		0.00		-4.40		1.979e-02		-48.411		4.343e-03		9.643
1		0.00		-4.80		1.966e-02		-50.883		4.152e-03		10.203
1		0.00		-5.20		1.819e-02		-51.093		4.284e-03		10.853
1		0.00		-5.60		1.696e-02		-50.739		4.155e-03		9.749
1		0.00		-6.00		1.561e-02		-49.097		3.739e-03		11.132
1		0.00		-6.40		1.349e-02		-48.289		3.294e-03		12.314
1		0.00		-6.80		1.180e-02		-47.328		2.745e-03		11.662
1		0.00		-7.20		9.612e-03		-46.749		2.205e-03		11.943
1		0.00		-7.60		6.498e-03		-44.590		1.645e-03		13.566
1		0.00		-8.00		4.120e-03		-36.070		1.525e-03		27.255
1		0.00		-8.40		1.841e-03		-11.044		8.068e-04		53.002
1		0.00		-8.80		2.056e-03		59.203		8.746e-04		62.076
1		0.00		-9.20		4.066e-03		108.715		1.371e-03		35.309
1		0.00		-9.60		6.421e-03		123.483		2.014e-03		22.316
1		0.00		-10.00		8.497e-03		123.274		2.215e-03		17.462
1		0.00		-9.60		9.172e-03		122.038		2.381e-03		16.719
1		0.00		-9.20		9.361e-03		117.361		2.645e-03		17.285
1		0.00		-8.80		1.023e-02		121.565		2.850e-03		18.721
1		0.00		-8.40		1.036e-02		123.784		2.720e-03		16.413
1		0.00		-8.00		9.454e-03		120.235		2.649e-03		15.844
1		0.00		-7.60		1.018e-02		125.615		2.936e-03		15.214
1		0.00		-7.20		9.685e-03		120.711		2.558e-03		16.089
1		0.00		-6.80		9.571e-03		124.002		2.665e-03		13.890
1		0.00		-6.40		9.399e-03		122.872		2.568e-03		16.809
1		0.00		-6.00		9.558e-03		123.674		2.482e-03		15.433
1		0.00		-5.60		8.940e-03		120.189		2.134e-03		14.271
1		0.00		-5.20		8.873e-03		122.267		2.134e-03		12.426
1		0.00		-4.80		8.946e-03		122.196		1.830e-03		11.922
1		0.00		-4.40		8.803e-03		122.286		2.136e-03		13.585
1		0.00		-4.00		8.570e-03		125.762		1.915e-03		13.171
1		0.00		-3.60		8.851e-03		124.232		2.244e-03		11.480
1		0.00		-3.20		8.397e-03		128.365		2.061e-03		11.860
1		0.00		-2.80		8.281e-03		124.586		1.827e-03		14.090
1		0.00		-2.40		8.087e-03		122.035		2.228e-03		12.747
1		0.00		-2.00		7.896e-03		119.309		1.801e-03		11.886
1		0.00		-1.60		7.414e-03		123.123		2.023e-03		15.566
1		0.00		-1.20		7.424e-03		125.603		1.822e-03		12.450
1		0.00		-0.80		7.162e-03		122.511		1.758e-03		14.586
1		0.00		-0.40		7.622e-03		124.743		1.936e-03		14.098
2		0.00		0.00		7.487e-03		126.565		1.643e-03		13.830
2		0.00		0.40		7.720e-03		125.403		2.006e-03		11.760
2		0.00		0.80		7.111e-03		128.637		1.871e-03		12.274
2		0.00		1.20		6.553e-03		122.673		1.793e-03		15.429
2		0.00		1.60		6.399e-03		122.477		1.625e-03		22.345
2		0.00		2.00		6.296e-03		119.804		1.643e-03		15.198
2		0.00		2.40		5.583e-03		120.525		1.552e-03		20.022
2		0.00		2.80		4.765e-03		120.447		1.436e-03		23.627
2		0.00		3.20		4.123e-03		108.195		1.276e-03		31.592
2		0.00		3.60		3.026e-03		111.567		1.065e-03		43.002
2		0.00		4.00		2.627e-03		91.326		1.023e-03		56.120
2		0.00		4.40		1.972e-03		48.037		8.809e-04		70.386
2		0.00		4.80		1.966e-03		25.415		7.625e-04		78.493
2		0.00		5.20		1.920e-03		-18.710		7.393e-04		74.320
2		0.00		5.60		2.033e-03		-53.869		8.922e-04		47.656
2		0.00		6.00		2.608e-03		-53.767		1.012e-03		37.326
2		0.00		6.40		3.252e-03		-48.358		1.114e-03		31.699
2		0.00		6.80		4.140e-03		-56.338		1.290e-03		22.576
2		0.00		7.20		5.318e-03		-54.375		1.347e-03		18.245
2		0.00		7.60		6.457e-03		-52.047		1.781e-03		13.061
2		0.00		8.00		7.610e-03		-47.312		2.141e-03		15.382
2		0.00		8.40		8.824e-03		-59.247		2.329e-03		16.349
2		0.00		8.80		1.021e-02		-50.263		2.495e-03		13.567
2		0.00		9.20		1.234e-02		-58.530		3.147e-03		12.630
2		0.00		9.60		1.490e-02		-51.340		3.111e-03		10.834
2		0.00		10.00		1.714e-02		-53.167		3.764e-03		10.864
2		0.00		9.60		1.886e-02		-51.585		3.862e-03		8.934
2		0.00		9.20		2.045e-02		-50.325		4.170e-03		9.623
2		0.00		8.80		2.073e-02		-51.952		4.369e-03		9.353
2		0.00		8.40		2.064e-02		-51.632		4.702e-03		11.622
2		0.00		8.00		2.082e-02		-50.081		4.559e-03		8.559
2		0.00		7.60		2.052e-02		-50.893		4.552e-03		10.376
2		0.00		7.20		2.030e-02		-51.475		4.757e-03		9.337
2		0.00		6.80		1.998e-02		-50.515		4.752e-03		11.717
2		0.00		6.40		1.990e-02		-50.603		4.906e-03		12.559
2		0.00		6.00		1.938e-02		-51.994		5.257e-03		12.314
2		0.00		5.60		1.910e-02		-51.402		5.074e-03		12.158
2		0.00		5.20		1.911e-02		-52.503		5.054e-03		9.553
2		0.00		4.80		1.950e-02		-51.988		5.101e-03		9.649
2		0.00		4.40		1.882e-02		-48.177		5.022e-03		9.689
2		0.00		4.00		1.896e-02		-51.210		5.110e-03		10.714
2		0.00		3.60		1.894e-02		-53.107		4.980e-03		9.422
2		0.00		3.20		1.864e-02		-52.321		4.673e-03		10.315
2		0.00		2.80		1.874e-02		-51.883		4.095e-03		8.455
2		0.00		2.40		1.883e-02		-51.693		4.357e-03		9.380
2		0.00		2.00		1.903e-02		-49.192		4.156e-03		9.636
2		0.00		1.60		1.892e-02		-48.856		3.755e-03		9.616
2		0.00		1.20		1.860e-02		-50.576		3.383e-03		7.931
2		0.00		0.80		1.833e-02		-52.031		3.681e-03		9.204
2		0.00		0.40		1.829e-02		-50.781		3.466e-03		8.383
2		0.00		0.00		1.818e-02		-50.908		3.143e-03		8.077
2		0.00		-0.40		1.779e-02		-52.138		3.285e-03		8.806
2		0.00		-0.80		1.769e-02		-48.436		3.279e-03		9.853
2		0.00		-1.20		1.738e-02		-47.096		3.543e-03		9.445
2		0.00		-1.60		1.707e-02		-50.612		3.325e-03		9.092
2		0.00		-2.00		1.650e-02		-47.763		3.724e-03		10.610
2		0.00		-2.40		1.592e-02		-52.396		3.835e-03		10.965
2		0.00		-2.80		1.502e-02		-48.582		3.578e-03		11.908
2		0.00		-3.20		1.505e-02		-51.386		3.890e-03		11.796
2		0.00		-3.60		1.465e-02		-50.576		3.675e-03		12.510
2		0.00		-4.00		1.373e-02		-52.427		3.632e-03		14.910
2		0.00		-4.40		1.296e-02		-47.550		3.664e-03		13.045
2		0.00		-4.80		1.288e-02		-53.036		3.453e-03		15.495
2		0.00		-5.20		1.204e-02		-49.326		3.147e-03		13.142
2		0.00		-5.60		1.142e-02		-49.245		3.108e-03		9.996
2		0.00		-6.00		1.077e-02		-47.386		2.726e-03		12.019
2		0.00		-6.40		9.716e-03		-50.365		2.578e-03		13.017
2		0.00		-6.80		8.770e-03		-49.504		2.186e-03		12.631
2		0.00		-7.20		6.949e-03		-45.191		1.636e-03		20.512
2		0.00		-7.60		5.713e-03		-43.213		1.568e-03		19.539
2		0.00		-8.00		4.712e-03		-33.341		1.547e-03		17.541
2		0.00		-8.40		2.606e-03		-44.520		1.023e-03		38.374
2		0.00		-8.80		1.900e-03		26.467		9.329e-04		63.199
2		0.00		-9.20		3.390e-03		104.451		1.240e-03		37.498
2		0.00		-9.60		4.707e-03		119.624		1.423e-03		20.945
2		0.00		-10.00		6.135e-03		122.391		1.636e-03		15.974
2		0.00		-9.60		7.770e-03		122.437		2.154e-03		14.818
2		0.00		-9.20		7.859e-03		121.062		2.211e-03		16.362
2		0.00		-8.80		8.265e-03		120.898		2.317e-03		18.756
2		0.00		-8.40		8.810e-03		120.110		2.685e-03		14.890
2		0.00		-8.00		9.159e-03		123.512		2.823e-03		20.397
2		0.00		-7.60		9.006e-03		117.372		3.005e-03		26.064
2		0.00		-7.20		8.991e-03		120.492		2.495e-03		15.767
2		0.00		-6.80		8.880e-03		119.308		2.417e-03		11.504
2		0.00		-6.40		8.797e-03		118.389		2.382e-03		10.895
2		0.00		-6.00		8.691e-03		122.182		2.116e-03		10.681
2		0.00		-5.60		8.610e-03		122.324		2.091e-03		12.352
2		0.00		-5.20		8.104e-03		123.179		1.965e-03		11.306
2		0.00		-4.80		7.897e-03		123.294		2.079e-03		15.199
2		0.00		-4.40		7.664e-03		127.384		1.888e-03		10.916
2		0.00		-4.00		7.662e-03		122.913		2.175e-03		16.789
2		0.00		-3.60		7.381e-03		125.088		1.926e-03		18.686
2		0.00		-3.20		7.057e-03		118.149		2.043e-03		21.176
2		0.00		-2.80		7.173e-03		122.451		2.142e-03		16.843
2		0.00		-2.40		7.154e-03		119.946		2.260e-03		18.233
2		0.00		-2.00		6.993e-03		118.617		2.361e-03		20.918
2		0.00		-1.60		6.846e-03		120.406		2.131e-03		14.056
2		0.00		-1.20		7.007e-03		127.651		2.035e-03		13.863
2		0.00		-0.80		6.769e-03		119.319		1.972e-03		15.993
2		0.00		-0.40		6.776e-03		119.528		1.793e-03		13.104
3		0.00		0.00		6.775e-03		123.710		1.756e-03		15.219
3		0.00		0.40		6.441e-03		124.012		1.934e-03		15.455
3		0.00		0.80		6.297e-03		118.231		2.037e-03		20.534
3		0.00		1.20		6.344e-03		122.287		1.964e-03		19.112
3		0.00		1.60		6.267e-03		115.428		1.784e-03		29.523
3		0.00		2.00		5.792e-03		114.982		1.784e-03		22.188
3		0.00		2.40		5.092e-03		118.530		1.661e-03		40.690
3		0.00		2.80		4.471e-03		113.072		1.498e-03		25.783
3		0.00		3.20		3.853e-03		120.743		1.482e-03		34.027
3		0.00		3.60		2.797e-03		95.032		1.177e-03		58.441
3		0.00		4.00		2.270e-03		78.898		9.992e-04		58.087
3		0.00		4.40		1.986e-03		53.770		8.280e-04		68.093
3		0.00		4.80		1.730e-03		-3.222		6.862e-04		65.218
3		0.00		5.20		1.966e-03		-22.756		8.830e-04		61.787
3		0.00		5.60		2.111e-03		-31.801		9.122e-04		45.040
3		0.00		6.00		2.402e-03		-32.887		1.011e-03		48.831
3		0.00		6.40		3.348e-03		-57.391		1.339e-03		32.205
3		0.00		6.80		4.343e-03		-40.717		1.367e-03		21.877
3		0.00		7.20		5.187e-03		-49.682		1.515e-03		22.055
3		0.00		7.60		6.572e-03		-59.694		1.863e-03		14.299
3		0.00		8.00		6.989e-03		-47.992		1.464e-03		13.973
3		0.00		8.40		8.645e-03		-50.397		2.002e-03		12.682
3		0.00		8.80		9.693e-03		-53.615		2.282e-03		12.617
3		0.00		9.20		1.169e-02		-50.135		2.902e-03		11.349
3		0.00		9.60		1.376e-02		-50.092		3.342e-03		10.522
3		0.00		10.00		1.623e-02		-53.092		4.185e-03		11.665
3		0.00		9.60		1.783e-02		-52.142		4.262e-03		9.446
3		0.00		9.20		1.837e-02		-50.644		4.559e-03		9.488
3		0.00		8.80		1.912e-02		-51.701		4.214e-03		9.372
3		0.00		8.40		1.956e-02		-52.318		3.875e-03		7.006
3		0.00		8.00		1.914e-02		-50.665		3.510e-03		8.967
3		0.00		7.60		1.968e-02		-51.071		3.622e-03		7.447
3		0.00		7.20		1.976e-02		-50.694		3.478e-03		8.317
3		0.00		6.80		1.939e-02		-51.438		3.446e-03		7.765
3		0.00		6.40		1.905e-02		-49.241		3.553e-03		8.646
3		0.00		6.00		1.868e-02		-50.285		4.035e-03		10.225
3		0.00		5.60		1.832e-02		-52.857		4.211e-03		10.516
3		0.00		5.20		1.758e-02		-52.440		4.610e-03		11.430
3		0.00		4.80		1.752e-02		-52.246		4.674e-03		11.559
3		0.00		4.40		1.741e-02		-50.242		4.855e-03		13.072
3		0.00		4.00		1.756e-02		-51.887		4.881e-03		9.255
3		0.00		3.60		1.742e-02		-52.374		4.325e-03		9.422
3		0.00		3.20		1.737e-02		-51.851		4.058e-03		8.315
3		0.00		2.80		1.745e-02		-54.416		3.629e-03		9.253
3		0.00		2.40		1.755e-02		-50.756		3.465e-03		10.132
3		0.00		2.00		1.731e-02		-53.629		3.044e-03		8.279
3		0.00		1.60		1.707e-02		-49.883		3.293e-03		9.227
3		0.00		1.20		1.744e-02		-52.045		3.247e-03		7.719
3		0.00		0.80		1.696e-02		-50.327		3.581e-03		9.212
3		0.00		0.40		1.741e-02		-50.067		3.544e-03		9.946
3		0.00		0.00		1.693e-02		-48.394		3.646e-03		10.836
3		0.00		-0.40		1.704e-02		-49.173		4.066e-03		11.238
3		0.00		-0.80		1.645e-02		-49.503		4.038e-03		11.203
3		0.00		-1.20		1.592e-02		-48.489		3.824e-03		11.319
3		0.00		-1.60		1.631e-02		-48.103		4.066e-03		9.195
3		0.00		-2.00		1.560e-02		-49.034		3.551e-03		10.107
3		0.00		-2.40		1.521e-02		-50.979		3.397e-03		9.384
3		0.00		-2.80		1.545e-02		-50.268		3.024e-03		9.556
3		0.00		-3.20		1.522e-02		-50.674		2.998e-03		8.945
3		0.00		-3.60		1.455e-02		-51.841		2.636e-03		7.849
3		0.00		-4.00		1.395e-02		-47.674		2.625e-03		9.272
3		0.00		-4.40		1.366e-02		-50.652		2.638e-03		9.291
3		0.00		-4.80		1.264e-02		-47.910		2.386e-03		11.596
3		0.00		-5.20		1.243e-02		-51.785		2.350e-03		10.755
3		0.00		-5.60		1.136e-02		-49.815		2.615e-03		11.755
3		0.00		-6.00		1.069e-02		-47.363		2.441e-03		15.209
3		0.00		-6.40		9.263e-03		-45.176		2.154e-03		12.586
3		0.00		-6.80		8.054e-03		-43.181		2.029e-03		15.386
3		0.00		-7.20		6.824e-03		-45.068		1.787e-03		19.073
3		0.00		-7.60		5.925e-03		-51.978		1.706e-03		18.226
3		0.00		-8.00		4.691e-03		-42.875		1.489e-03		23.562
3		0.00		-8.40		3.081e-03		-41.073		1.288e-03		32.677
3		0.00		-8.80		2.155e-03		-9.755		8.167e-04		54.651
3		0.00		-9.20		2.262e-03		57.748		1.025e-03		67.918
3		0.00		-9.60		3.715e-03		103.287		1.514e-03		26.533
3		0.00		-10.00		6.418e-03		116.996		1.692e-03		15.665
3		0.00		-9.60		6.483e-03		118.277		1.967e-03		30.407
3		0.00		-9.20		6.659e-03		114.807		2.028e-03		13.882
3		0.00		-8.80		7.297e-03		120.289		1.980e-03		12.539
3		0.00		-8.40		7.885e-03		120.596		2.016e-03		12.794
3		0.00		-8.00		8.007e-03		120.370		2.281e-03		12.901
3		0.00		-7.60		8.373e-03		123.948		2.170e-03		14.616
3		0.00		-7.20		8.095e-03		123.156		1.975e-03		12.403
3		0.00		-6.80		7.894e-03		124.882		2.047e-03		13.921
3		0.00		-6.40		7.729e-03		118.994		1.925e-03		13.489
3		0.00		-6.00		7.705e-03		124.393		1.622e-03		12.578
3		0.00		-5.60		7.463e-03		121.361		1.831e-03		12.114
3		0.00		-5.20		7.632e-03		124.738		1.909e-03		14.439
3		0.00		-4.80		7.183e-03		121.849		1.598e-03		11.369
3		0.00		-4.40		7.186e-03		122.247		1.601e-03		14.730
3		0.00		-4.00		7.139e-03		124.430		1.633e-03		14.836
3		0.00		-3.60		7.125e-03		119.433		1.555e-03		14.400
3		0.00		-3.20		6.753e-03		120.433		1.558e-03		15.479
3		0.00		-2.80		6.978e-03		121.461		1.748e-03		14.650
3		0.00		-2.40		6.428e-03		126.890		1.461e-03		12.241
3		0.00		-2.00		6.588e-03		119.177		1.695e-03		16.050
3		0.00		-1.60		6.647e-03		122.542		1.740e-03		13.479
3		0.00		-1.20		6.919e-03		122.396		1.738e-03		15.957
3		0.00		-0.80		6.553e-03		125.990		1.833e-03		14.937
3		0.00		-0.40		6.590e-03		123.006		1.760e-03		16.407
4		0.00		0.00		6.786e-03		125.208		1.730e-03		14.943
4		0.00		0.40		6.732e-03		120.503		1.826e-03		18.490
4		0.00		0.80		6.716e-03		120.589		1.670e-03		15.838
4		0.00		1.20		6.409e-03		126.411		1.564e-03		15.485
4		0.00		1.60		6.218e-03		126.550		1.696e-03		19.087
4		0.00		2.00		5.765e-03		121.962		1.568e-03		17.437
4		0.00		2.40		5.144e-03		121.199		1.463e-03		22.832
4		0.00		2.80		4.556e-03		126.060		1.262e-03		23.512
4		0.00		3.20		4.213e-03		119.473		1.105e-03		20.977
4		0.00		3.60		3.429e-03		115.401		1.065e-03		35.022
4		0.00		4.00		2.726e-03		91.886		1.154e-03		61.606
4		0.00		4.40		1.865e-03		48.414		7.289e-04		79.672
4		0.00		4.80		1.878e-03		21.004		7.144e-04		69.494
4		0.00		5.20		2.089e-03		-57.050		8.946e-04		53.774
4		0.00		5.60		2.235e-03		-53.316		9.254e-04		53.437
4		0.00		6.00		2.732e-03		-62.988		1.112e-03		35.015
4		0.00		6.40		3.404e-03		-41.871		1.190e-03		31.830
4		0.00		6.80		4.404e-03		-60.052		1.272e-03		22.201
4		0.00		7.20		5.510e-03		-50.151		1.390e-03		17.192
4		0.00		7.60		6.721e-03		-48.804		1.701e-03		12.304
4		0.00		8.00		7.353e-03		-51.039		1.799e-03		14.548
4		0.00		8.40		8.821e-03		-48.938		1.840e-03		14.839
4		0.00		8.80		1.071e-02		-48.339		1.861e-03		12.749
4		0.00		9.20		1.294e-02		-52.084		2.332e-03		13.015
4		0.00		9.60		1.445e-02		-51.941		2.682e-03		10.139
4		0.00		10.00		1.640e-02		-53.443		3.035e-03		8.320
4		0.00		9.60		1.760e-02		-50.489		3.101e-03		8.690
4		0.00		9.20		1.792e-02		-52.823		3.362e-03		7.715
4		0.00		8.80		1.831e-02		-52.398		3.521e-03		7.940
4		0.00		8.40		1.878e-02		-53.412		3.853e-03		8.437
4		0.00		8.00		1.890e-02		-51.150		3.936e-03		8.738
4		0.00		7.60		1.876e-02		-52.865		3.983e-03		8.752
4		0.00		7.20		1.823e-02		-48.845		4.395e-03		9.536
4		0.00		6.80		1.786e-02		-48.063		4.520e-03		10.088
4		0.00		6.40		1.835e-02		-52.344		4.609e-03		9.891
4		0.00		6.00		1.775e-02		-53.953		4.641e-03		10.015
4		0.00		5.60		1.783e-02		-49.321		4.668e-03		10.964
4		0.00		5.20		1.745e-02		-52.126		4.397e-03		10.973
4		0.00		4.80		1.727e-02		-49.771		4.234e-03		11.958
4		0.00		4.40		1.721e-02		-51.020		4.107e-03		10.508
4		0.00		4.00		1.739e-02		-50.421		3.938e-03		9.405
4		0.00		3.60		1.710e-02		-49.216		3.910e-03		10.366
4		0.00		3.20		1.719e-02		-49.179		3.307e-03		9.524
4		0.00		2.80		1.755e-02		-49.733		3.408e-03		10.248
4		0.00		2.40		1.691e-02		-47.751		3.126e-03		8.586
4		0.00		2.00		1.727e-02		-50.114		3.076e-03		8.714
4		0.00		1.60		1.717e-02		-49.519		2.668e-03		10.055
4		0.00		1.20		1.695e-02		-50.049		2.842e-03		8.720
4		0.00		0.80		1.717e-02		-52.093		2.928e-03		9.035
4		0.00		0.40		1.694e-02		-47.761		2.940e-03		10.094
4		0.00		0.00		1.663e-02		-49.432		2.898e-03		8.602
4		0.00		-0.40		1.654e-02		-48.747		3.388e-03		7.948
4		0.00		-0.80		1.601e-02		-50.732		3.433e-03		10.358
4		0.00		-1.20		1.596e-02		-50.541		3.715e-03		9.228
4		0.00		-1.60		1.530e-02		-47.079		3.805e-03		8.438
4		0.00		-2.00		1.480e-02		-52.199		3.777e-03		10.823
4		0.00		-2.40		1.474e-02		-49.365		4.233e-03		11.685
4		0.00		-2.80		1.411e-02		-46.499		3.844e-03		15.389
4		0.00		-3.20		1.414e-02		-49.398		3.516e-03		13.679
4		0.00		-3.60		1.377e-02		-45.549		3.176e-03		12.059
4		0.00		-4.00		1.337e-02		-49.757		2.920e-03		9.598
4		0.00		-4.40		1.284e-02		-46.794		2.689e-03		11.128
4		0.00		-4.80		1.259e-02		-45.337		2.403e-03		9.238
4		0.00		-5.20		1.237e-02		-49.001		2.133e-03		11.215
4		0.00		-5.60		1.201e-02		-45.445		1.915e-03		9.523
4		0.00		-6.00		1.114e-02		-44.835		1.921e-03		10.270
4		0.00		-6.40		9.620e-03		-46.607		1.694e-03		11.644
4		0.00		-6.80		8.468e-03		-47.365		1.664e-03		10.592
4		0.00		-7.20		7.492e-03		-44.914		1.573e-03		12.605
4		0.00		-7.60		5.776e-03		-46.232		1.629e-03		20.277
4		0.00		-8.00		4.435e-03		-41.925		1.468e-03		23.126
4		0.00		-8.40		3.417e-03		-34.005		1.484e-03		33.994
4		0.00		-8.80		2.244e-03		-30.612		9.397e-04		41.689
4		0.00		-9.20		2.050e-03		47.505		7.888e-04		69.023
4		0.00		-9.60		3.529e-03		109.242		1.264e-03		33.087
4		0.00		-10.00		5.329e-03		119.559		1.483e-03		17.676
4		0.00		-9.60		6.818e-03		127.263		1.596e-03		15.101
4		0.00		-9.20		6.812e-03		125.238		1.735e-03		13.732
4		0.00		-8.80		7.549e-03		122.071		1.676e-03		12.323
4		0.00		-8.40		7.674e-03		121.944		1.781e-03		11.569
4		0.00		-8.00		7.893e-03		119.139		1.823e-03		14.004
4		0.00		-7.60		7.716e-03		119.316		1.948e-03		13.988
4		0.00		-7.20		7.456e-03		123.050		1.867e-03		14.747
4		0.00		-6.80		7.546e-03		117.915		1.997e-03		14.889
4		0.00		-6.40		6.872e-03		119.445		2.059e-03		17.586
4		0.00		-6.00		7.148e-03		115.809		2.218e-03		20.455
4		0.00		-5.60		7.087e-03		117.361		1.922e-03		19.517
4		0.00		-5.20		6.883e-03		124.243		1.731e-03		14.653
4		0.00		-4.80		6.801e-03		122.912		1.907e-03		13.346
4		0.00		-4.40		6.586e-03		123.276		1.651e-03		16.095
4		0.00		-4.00		6.605e-03		118.742		1.593e-03		13.228
4		0.00		-3.60		6.753e-03		118.836		1.944e-03		16.340
4		0.00		-3.20		6.800e-03		120.780		1.690e-03		15.988
4		0.00		-2.80		6.742e-03		123.179		1.798e-03		17.398
4		0.00		-2.40		6.582e-03		121.477		1.836e-03		14.986
4		0.00		-2.00		6.348e-03		122.671		1.786e-03		18.022
4		0.00		-1.60		6.514e-03		120.559		1.867e-03		16.445
4		0.00		-1.20		6.492e-03		125.256		1.692e-03		15.914
4		0.00		-0.80		6.680e-03		122.357		1.615e-03		15.790
4		0.00		-0.40		6.769e-03		120.206		1.492e-03		16.544
5		0.00		0.00		6.781e-03		121.903		1.488e-03		15.037
5		0.00		0.40		6.822e-03		121.088		1.515e-03		15.524
5		0.00		0.80		6.610e-03		124.152		1.551e-03		14.356
5		0.00		1.20		6.104e-03		115.226		1.475e-03		13.258
5		0.00		1.60		5.778e-03		120.705		1.621e-03		15.093
5		0.00		2.00		5.662e-03		119.096		1.715e-03		18.058
5		0.00		2.40		4.956e-03		113.114		1.577e-03		21.444
5		0.00		2.80		4.404e-03		112.176		1.552e-03		27.559
5		0.00		3.20		3.893e-03		120.814		1.387e-03		27.174
5		0.00		3.60		3.326e-03		107.905		1.189e-03		41.071
5		0.00		4.00		2.638e-03		83.286		9.227e-04		63.466
5		0.00		4.40		1.891e-03		54.552		7.830e-04		70.496
5		0.00		4.80		1.695e-03		-1.932		6.202e-04		70.586
5		0.00		5.20		2.045e-03		-32.798		9.843e-04		59.759
5		0.00		5.60		2.126e-03		-54.757		8.607e-04		51.242
5		0.00		6.00		2.828e-03		-40.013		1.041e-03		40.826
5		0.00		6.40		3.232e-03		-49.695		1.220e-03		30.964
5		0.00		6.80		3.943e-03		-41.516		1.426e-03		22.866
5		0.00		7.20		4.258e-03		-50.409		1.378e-03		21.623
5		0.00		7.60		5.439e-03		-55.088		1.525e-03		18.536
5		0.00		8.00		7.169e-03		-48.498		1.534e-03		16.573
5		0.00		8.40		7.970e-03		-55.415		1.710e-03		13.521
5		0.00		8.80		9.697e-03		-50.266		1.724e-03		12.537
5		0.00		9.20		1.109e-02		-53.333		2.094e-03		11.833
5		0.00		9.60		1.308e-02		-49.305		2.500e-03		9.081
5		0.00		10.00		1.431e-02		-51.146		2.991e-03		8.632
5		0.00		9.60		1.570e-02		-51.672		3.596e-03		11.071
5		0.00		9.20		1.607e-02		-50.600		4.332e-03		9.559
5		0.00		8.80		1.638e-02		-50.690		4.249e-03		9.599
5		0.00		8.40		1.669e-02		-52.101		4.374e-03		12.890
5		0.00		8.00		1.670e-02		-50.542		3.821e-03		11.342
5		0.00		7.60		1.720e-02		-50.967		3.773e-03		11.485
5		0.00		7.20		1.711e-02		-49.568		3.344e-03		8.448
5		0.00		6.80		1.740e-02		-50.060		2.919e-03		8.451
5		0.00		6.40		1.735e-02		-51.058		2.815e-03		9.123
5		0.00		6.00		1.718e-02		-51.568		3.141e-03		7.690
5		0.00		5.60		1.646e-02		-48.874		3.047e-03		9.444
5		0.00		5.20		1.654e-02		-48.831		3.116e-03		9.109
5		0.00		4.80		1.642e-02		-52.307		3.588e-03		7.987
5		0.00		4.40		1.611e-02		-51.064		3.687e-03		9.394
5		0.00		4.00		1.625e-02		-49.311		3.493e-03		9.149
5		0.00		3.60		1.637e-02		-50.537		3.585e-03		10.765
5		0.00		3.20		1.627e-02		-50.422		3.216e-03		11.398
5		0.00		2.80		1.651e-02		-51.003		3.399e-03		9.403
5		0.00		2.40		1.630e-02		-50.352		2.564e-03		9.085
5		0.00		2.00		1.632e-02		-52.062		2.504e-03		10.173
5		0.00		1.60		1.593e-02		-49.111		2.862e-03		9.362
5		0.00		1.20		1.637e-02		-50.448		2.887e-03		9.735
5		0.00		0.80		1.602e-02		-52.047		3.190e-03		9.713
5		0.00		0.40		1.576e-02		-51.439		3.376e-03		10.229
5		0.00		0.00		1.533e-02		-47.999		3.671e-03		11.515
5		0.00		-0.40		1.553e-02		-49.086		3.514e-03		11.134
5		0.00		-0.80		1.520e-02		-46.262		3.316e-03		13.299
5		0.00		-1.20		1.561e-02		-49.379		3.115e-03		10.653
5		0.00		-1.60		1.512e-02		-49.417		2.915e-03		7.499
5		0.00		-2.00		1.482e-02		-47.108		2.490e-03		8.122
5		0.00		-2.40		1.449e-02		-49.565		2.398e-03		10.235
5		0.00		-2.80		1.449e-02		-48.463		2.439e-03		10.165
5		0.00		-3.20		1.376e-02		-50.038		2.525e-03		9.337
5		0.00		-3.60		1.293e-02		-51.268		2.911e-03		10.410
5		0.00		-4.00		1.219e-02		-51.001		2.910e-03		13.927
5		0.00		-4.40		1.210e-02		-49.131		3.147e-03		13.660
5		0.00		-4.80		1.144e-02		-47.088		2.859e-03		11.086
5		0.00		-5.20		1.123e-02		-50.171		2.534e-03		14.856
5		0.00		-5.60		1.067e-02		-51.672		2.407e-03		9.009
5		0.00		-6.00		9.884e-03		-51.462		1.991e-03		12.316
5		0.00		-6.40		9.060e-03		-51.009		1.869e-03		12.809
5		0.00		-6.80		7.804e-03		-45.662		1.769e-03		15.573
5		0.00		-7.20		6.969e-03		-44.333		1.615e-03		11.259
5		0.00		-7.60		5.359e-03		-52.067		1.518e-03		19.012
5		0.00		-8.00		4.013e-03		-38.742		1.321e-03		29.682
5		0.00		-8.40		2.637e-03		-44.383		1.153e-03		35.365
5		0.00		-8.80		1.783e-03		17.952		6.881e-04		70.019
5		0.00		-9.20		2.198e-03		63.611		8.951e-04		67.975
5		0.00		-9.60		3.161e-03		106.237		1.234e-03		42.605
5		0.00		-10.00		4.933e-03		111.846		1.512e-03		17.858
5		0.00		-9.60		6.295e-03		116.910		1.640e-03		14.697
5		0.00		-9.20		7.177e-03		120.965		2.047e-03		13.544
5		0.00		-8.80		7.338e-03		124.103		2.056e-03		12.566
5		0.00		-8.40		7.551e-03		121.931		2.051e-03		15.263
5		0.00		-8.00		7.513e-03		117.138		2.172e-03		16.649
5		0.00		-7.60		7.481e-03		122.135		2.031e-03		18.412
5		0.00		-7.20		7.668e-03		122.382		1.929e-03		12.183
5		0.00		-6.80		8.124e-03		129.333		1.948e-03		12.031
5		0.00		-6.40		7.688e-03		121.813		1.740e-03		11.155
5		0.00		-6.00		7.666e-03		124.465		1.520e-03		12.058
5		0.00		-5.60		7.514e-03		127.098		1.564e-03		11.360
5		0.00		-5.20		7.342e-03		125.597		1.567e-03		10.615
5		0.00		-4.80		7.423e-03		121.414		1.734e-03		12.356
5		0.00		-4.40		7.353e-03		120.515		1.877e-03		15.916
5		0.00		-4.00		6.876e-03		115.980		1.914e-03		23.608
5		0.00		-3.60		7.404e-03		118.663		1.852e-03		17.288
5		0.00		-3.20		7.061e-03		121.595		1.907e-03		19.541
5		0.00		-2.80		6.837e-03		125.355		1.681e-03		15.459
5		0.00		-2.40		7.211e-03		123.399		1.658e-03		12.477
5		0.00		-2.00		7.167e-03		121.147		1.752e-03		14.575
5		0.00		-1.60		6.862e-03		118.727		1.752e-03		12.956
5		0.00		-1.20		6.959e-03		121.112		1.524e-03		10.722
5		0.00		-0.80		6.742e-03		123.310		1.711e-03		12.766
5		0.00		-0.40		6.625e-03		119.482		1.997e-03		12.887
6		0.00		0.00		6.944e-03		125.697		1.954e-03		12.527
6		0.00		0.40		6.494e-03		121.308		1.997e-03		17.942
6		0.00		0.80		6.450e-03		118.520		1.855e-03		18.901
6		0.00		1.20		6.037e-03		116.588		1.852e-03		20.255
6		0.00		1.60		6.072e-03		124.709		1.722e-03		16.115
6		0.00		2.00		5.515e-03		120.877		1.498e-03		17.217
6		0.00		2.40		5.501e-03		125.376		1.409e-03		20.922
6		0.00		2.80		4.886e-03		126.274		1.475e-03		16.504
6		0.00		3.20		4.276e-03		119.131		1.353e-03		19.269
6		0.00		3.60		3.697e-03		110.553		1.265e-03		25.559
6		0.00		4.00		2.376e-03		87.631		1.020e-03		55.834
6		0.00		4.40		2.327e-03		70.627		9.017e-04		58.155
6		0.00		4.80		1.852e-03		34.881		7.157e-04		74.791
6		0.00		5.20		1.741e-03		-22.716		6.273e-04		67.068
6		0.00		5.60		1.972e-03		-34.611		8.919e-04		55.628
6		0.00		6.00		2.692e-03		-55.818		1.037e-03		32.269
6		0.00		6.40		3.279e-03		-48.467		1.089e-03		27.432
6		0.00		6.80		4.185e-03		-55.588		1.082e-03		20.614
6		0.00		7.20		5.034e-03		-50.048		1.344e-03		16.768
6		0.00		7.60		5.715e-03		-48.104		1.208e-03		13.620
6		0.00		8.00		6.518e-03		-53.320		1.546e-03		18.017
6		0.00		8.40		8.124e-03		-54.113		2.178e-03		11.335
6		0.00		8.80		9.249e-03		-55.323		2.461e-03		14.422
6		0.00		9.20		1.040e-02		-47.953		2.429e-03		11.546
6		0.00		9.60		1.229e-02		-51.307		2.248e-03		9.865
6		0.00		10.00		1.478e-02		-48.009		2.541e-03		10.711
6		0.00		9.60		1.523e-02		-48.946		2.443e-03		9.131
6		0.00		9.20		1.603e-02		-54.563		2.797e-03		9.467
6		0.00		8.80		1.625e-02		-50.339		2.928e-03		8.157
6		0.00		8.40		1.613e-02		-53.754		3.298e-03		9.139
6		0.00		8.00		1.612e-02		-50.209		3.533e-03		9.426
6		0.00		7.60		1.626e-02		-51.070		3.628e-03		10.651
6		0.00		7.20		1.573e-02		-50.971		3.722e-03		12.739
6		0.00		6.80		1.570e-02		-50.100		3.570e-03		10.692
6		0.00		6.40		1.605e-02		-51.169		3.136e-03		7.333
6		0.00		6.00		1.619e-02		-51.328		3.332e-03		8.574
6		0.00		5.60		1.571e-02		-50.320		3.229e-03		10.037
6		0.00		5.20		1.546e-02		-50.300		3.224e-03		8.472
6		0.00		4.80		1.518e-02		-52.138		3.606e-03		8.651
6		0.00		4.40		1.467e-02		-48.536		3.704e-03		12.331
6		0.00		4.00		1.480e-02		-47.414		3.526e-03		8.810
6		0.00		3.60		1.514e-02		-47.149		3.217e-03		11.210
6		0.00		3.20		1.514e-02		-47.823		3.140e-03		11.528
6		0.00		2.80		1.514e-02		-48.276		2.677e-03		10.000
6		0.00		2.40		1.520e-02		-49.893		2.518e-03		9.204
6		0.00		2.00		1.494e-02		-48.508		2.402e-03		9.578
6		0.00		1.60		1.476e-02		-48.445		2.503e-03		9.970
6		0.00		1.20		1.447e-02		-49.177		2.592e-03		7.991
6		0.00		0.80		1.452e-02		-48.472		2.896e-03		9.114
6		0.00		0.40		1.431e-02		-48.849		3.243e-03		9.776
6		0.00		0.00		1.436e-02		-50.290		3.630e-03		9.987
6		0.00		-0.40		1.437e-02		-52.362		3.546e-03		14.131
6		0.00		-0.80		1.438e-02		-50.821		3.358e-03		12.151
6		0.00		-1.20		1.419e-02		-49.866		3.181e-03		9.482
6		0.00		-1.60		1.411e-02		-48.416		3.024e-03		11.183
6		0.00		-2.00		1.366e-02		-48.599		3.014e-03		11.274
6		0.00		-2.40		1.338e-02		-49.165		2.570e-03		9.505
6		0.00		-2.80		1.333e-02		-46.331		2.194e-03		9.948
6		0.00		-3.20		1.327e-02		-49.761		2.512e-03		8.660
6		0.00		-3.60		1.278e-02		-49.683		2.431e-03		9.784
6		0.00		-4.00		1.220e-02		-51.395		2.360e-03		10.007
6		0.00		-4.40		1.186e-02		-47.259		2.442e-03		10.969
6		0.00		-4.80		1.131e-02		-50.536		2.416e-03		9.984
6		0.00		-5.20		1.068e-02		-46.126		2.621e-03		12.220
6		0.00		-5.60		1.006e-02		-45.528		2.404e-03		10.769
6		0.00		-6.00		9.133e-03		-48.935		2.354e-03		12.755
6		0.00		-6.40		7.967e-03		-38.948		2.073e-03		15.536
6		0.00		-6.80		7.232e-03		-52.308		1.848e-03		14.734
6		0.00		-7.20		5.782e-03		-44.639		1.483e-03		18.655
6		0.00		-7.60		4.757e-03		-43.963		1.386e-03		21.033
6		0.00		-8.00		3.536e-03		-44.333		1.146e-03		26.342
6		0.00		-8.40		2.113e-03		-19.673		8.763e-04		53.391
6		0.00		-8.80		1.753e-03		5.915		6.274e-04		69.326
6		0.00		-9.20		2.961e-03		86.042		1.165e-03		50.064
6		0.00		-9.60		4.281e-03		112.535		1.477e-03		28.189
6		0.00		-10.00		5.089e-03		121.344		1.425e-03		18.150
6		0.00		-9.60		6.173e-03		117.680		1.848e-03		17.577
6		0.00		-9.20		7.198e-03		120.007		1.777e-03		13.087
6		0.00		-8.80		7.391e-03		121.303		1.851e-03		14.317
6		0.00		-8.40		7.715e-03		122.528		2.197e-03		14.478
6		0.00		-8.00		7.391e-03		120.251		2.114e-03		20.821
6		0.00		-7.60		7.736e-03		125.391		2.019e-03		16.929
6		0.00		-7.20		7.414e-03		121.629		1.878e-03		20.486
6		0.00		-6.80		7.294e-03		122.205		2.057e-03		15.145
6		0.00		-6.40		7.409e-03		124.641		1.808e-03		13.515
6		0.00		-6.00		7.231e-03		126.148		1.886e-03		15.717
6		0.00		-5.60		7.052e-03		125.597		1.632e-03		12.499
6		0.00		-5.20		7.109e-03		124.115		1.667e-03		12.994
6		0.00		-4.80		7.055e-03		120.369		1.620e-03		12.949
6		0.00		-4.40		7.126e-03		119.565		1.690e-03		13.572
6		0.00		-4.00		6.650e-03		120.792		1.329e-03		14.606
6		0.00		-3.60		6.562e-03		124.364		1.789e-03		13.302
6		0.00		-3.20		6.747e-03		123.918		1.654e-03		13.743
6		0.00		-2.80		6.622e-03		119.207		1.953e-03		11.912
6		0.00		-2.40		6.678e-03		123.970		1.812e-03		17.106
6		0.00		-2.00		6.660e-03		120.267		1.681e-03		14.255
6		0.00		-1.60		6.818e-03		121.591		1.838e-03		15.450
6		0.00		-1.20		6.440e-03		121.548		1.759e-03		16.371
6		0.00		-0.80		6.582e-03		123.308		1.681e-03		20.227
6		0.00		-0.40		6.894e-03		122.444		1.710e-03		18.536
7		0.00		0.00		6.969e-03		121.736		1.849e-03		16.337
7		0.00		0.40		6.567e-03		124.911		1.791e-03		15.376
7		0.00		0.80		6.773e-03		123.207		1.587e-03		14.360
7		0.00		1.20		6.276e-03		120.417		1.605e-03		16.061
7		0.00		1.60		6.300e-03		120.745		1.411e-03		13.884
7		0.00		2.00		5.846e-03		125.442		1.599e-03		18.844
7		0.00		2.40		5.138e-03		121.955		1.567e-03		16.673
7		0.00		2.80		4.797e-03		114.896		1.357e-03		29.628
7		0.00		3.20		3.977e-03		113.513		1.471e-03		24.547
7		0.00		3.60		3.282e-03		102.920		1.146e-03		40.558
7		0.00		4.00		2.952e-03		104.369		1.124e-03		40.517
7		0.00		4.40		2.047e-03		67.308		8.072e-04		66.671
7		0.00		4.80		1.768e-03		43.744		7.394e-04		66.466
7		0.00		5.20		1.702e-03		-12.545		7.184e-04		62.581
7		0.00		5.60		1.994e-03		-40.608		8.596e-04		57.986
7		0.00		6.00		2.629e-03		-45.083		1.112e-03		38.862
7		0.00		6.40		2.952e-03		-38.749		1.177e-03		42.755
7		0.00		6.80		3.697e-03		-56.518		1.122e-03		22.947
7		0.00		7.20		4.882e-03		-51.404		1.369e-03		18.917
7		0.00		7.60		5.431e-03		-50.471		1.299e-03		22.274
7		0.00		8.00		6.415e-03		-53.522		1.536e-03		14.466
7		0.00		8.40		7.620e-03		-51.894		1.782e-03		12.584
7		0.00		8.80		8.941e-03		-47.412		2.193e-03		13.407
7		0.00		9.20		1.049e-02		-54.196		2.744e-03		11.373
7		0.00		9.60		1.217e-02		-51.388		3.316e-03		10.978
7		0.00		10.00		1.361e-02		-48.885		3.699e-03		10.380
7		0.00		9.60		1.394e-02		-50.925		3.742e-03		13.591
7		0.00		9.20		1.508e-02		-50.470		3.834e-03		10.709
7		0.00		8.80		1.582e-02		-50.313		3.742e-03		10.261
7		0.00		8.40		1.601e-02		-51.315		3.583e-03		12.742
7		0.00		8.00		1.603e-02		-47.808		3.346e-03		8.979
7		0.00		7.60		1.620e-02		-48.370		3.256e-03		9.330
7		0.00		7.20		1.648e-02		-51.081		3.116e-03		10.609
7		0.00		6.80		1.606e-02		-51.939		3.039e-03		8.433
7		0.00		6.40		1.601e-02		-52.417		3.032e-03		9.342
7		0.00		6.00		1.583e-02		-50.987		2.836e-03		8.294
7		0.00		5.60		1.564e-02		-49.748		2.968e-03		8.022
7		0.00		5.20		1.576e-02		-53.253		3.081e-03		9.411
7		0.00		4.80		1.574e-02		-50.604		3.007e-03		8.968
7		0.00		4.40		1.503e-02		-51.251		3.095e-03		10.099
7		0.00		4.00		1.477e-02		-50.756		3.392e-03		9.015
7		0.00		3.60		1.473e-02		-51.236		3.367e-03		9.465
7		0.00		3.20		1.457e-02		-50.796		3.675e-03		10.429
7		0.00		2.80		1.430e-02		-52.058		3.733e-03		10.708
7		0.00		2.40		1.377e-02		-50.457		3.951e-03		12.680
7		0.00		2.00		1.447e-02		-49.941		3.906e-03		12.648
7		0.00		1.60		1.385e-02		-48.893		3.573e-03		11.551
7		0.00		1.20		1.404e-02		-50.358		3.465e-03		12.830
7		0.00		0.80		1.395e-02		-48.763		3.475e-03		11.629
7		0.00		0.40		1.407e-02		-45.630		3.455e-03		11.375
7		0.00		0.00		1.399e-02		-44.713		3.151e-03		9.534
7		0.00		-0.40		1.411e-02		-47.634		2.558e-03		8.934
7		0.00		-0.80		1.445e-02		-50.692		2.641e-03		8.552
7		0.00		-1.20		1.400e-02		-50.276		2.446e-03		10.378
7		0.00		-1.60		1.426e-02		-50.187		2.346e-03		9.057
7		0.00		-2.00		1.412e-02		-49.978		2.336e-03		9.324
7		0.00		-2.40		1.370e-02		-48.408		2.262e-03		8.790
7		0.00		-2.80		1.336e-02		-51.834		2.349e-03		9.989
7		0.00		-3.20		1.271e-02		-51.254		2.279e-03		11.500
7		0.00		-3.60		1.211e-02		-45.135		2.203e-03		9.047
7		0.00		-4.00		1.142e-02		-46.331		2.138e-03		10.329
7		0.00		-4.40		1.109e-02		-49.889		2.531e-03		11.762
7		0.00		-4.80		1.068e-02		-48.661		2.480e-03		10.676
7		0.00		-5.20		1.011e-02		-48.836		2.557e-03		10.019
7		0.00		-5.60		9.502e-03		-46.278		2.340e-03		13.933
7		0.00		-6.00		8.634e-03		-49.765		2.124e-03		13.708
7		0.00		-6.40		7.907e-03		-51.154		2.147e-03		16.158
7		0.00		-6.80		7.080e-03		-51.456		1.846e-03		15.758
7		0.00		-7.20		5.843e-03		-53.030		1.680e-03		17.535
7		0.00		-7.60		4.470e-03		-38.733		1.328e-03		20.065
7		0.00		-8.00		3.575e-03		-48.060		1.346e-03		33.367
7		0.00		-8.40		2.832e-03		-29.948		1.165e-03		37.515
7		0.00		-8.80		1.710e-03		28.904		6.437e-04		63.784
7		0.00		-9.20		2.500e-03		74.654		1.069e-03		63.804
7		0.00		-9.60		3.528e-03		97.085		1.233e-03		50.602
7		0.00		-10.00		5.463e-03		111.844		1.544e-03		20.545
7		0.00		-9.60		6.068e-03		119.568		1.627e-03		15.279
7		0.00		-9.20		6.573e-03		121.575		1.409e-03		13.071
7		0.00		-8.80		6.916e-03		123.240		1.734e-03		12.706
7		0.00		-8.40		7.313e-03		120.884		1.772e-03		13.973
7		0.00		-8.00		7.027e-03		124.183		1.737e-03		14.620
7		0.00		-7.60		6.962e-03		119.067		2.096e-03		17.812
7		0.00		-7.20		7.005e-03		120.225		2.033e-03		14.150
7		0.00		-6.80		6.689e-03		120.696		2.163e-03		17.691
7		0.00		-6.40		6.435e-03		115.863		1.800e-03		18.742
7		0.00		-6.00		6.446e-03		121.747		2.081e-03		18.366
7		0.00		-5.60		6.525e-03		114.459		2.095e-03		26.231
7		0.00		-5.20		6.313e-03		115.127		1.914e-03		16.771
7		0.00		-4.80		6.488e-03		122.555		1.850e-03		17.941
7		0.00		-4.40		6.187e-03		118.630		1.778e-03		19.816
7		0.00		-4.00		6.434e-03		119.494		1.900e-03		20.649
7		0.00		-3.60		6.233e-03		123.549		1.776e-03		18.974
7		0.00		-3.20		6.096e-03		120.043		1.555e-03		21.527
7		0.00		-2.80		6.092e-03		120.787		1.641e-03		21.504
7		0.00		-2.40		5.965e-03		125.229		1.501e-03		16.459
7		0.00		-2.00		6.124e-03		122.183		1.645e-03		17.482
7		0.00		-1.60		6.393e-03		125.890		1.890e-03		14.799
7		0.00		-1.20		6.034e-03		120.556		1.620e-03		17.578
7		0.00		-0.80		5.989e-03		122.248		1.570e-03		12.948
7		0.00		-0.40		6.095e-03		121.519		1.681e-03		16.371
8		0.00		0.00		6.069e-03		123.884		1.683e-03		15.455
8		0.00		0.40		5.737e-03		127.012		1.445e-03		15.506
8		0.00		0.80		5.929e-03		119.667		1.583e-03		15.433
8		0.00		1.20		5.682e-03		122.536		1.543e-03		16.264
8		0.00		1.60		5.516e-03		124.288		1.473e-03		15.446
8		0.00		2.00		5.124e-03		121.829		1.453e-03		17.534
8		0.00		2.40		5.055e-03		123.561		1.497e-03		20.562
8		0.00		2.80		4.808e-03		127.823		1.150e-03		18.081
8		0.00		3.20		4.151e-03		116.001		1.260e-03		33.278
8		0.00		3.60		3.196e-03		109.871		1.115e-03		35.876
8		0.00		4.00		2.856e-03		93.394		1.085e-03		67.323
8		0.00		4.40		2.050e-03		72.908		8.361e-04		58.118
8		0.00		4.80		1.877e-03		29.013		8.141e-04		74.011
8		0.00		5.20		1.838e-03		-30.156		7.512e-04		61.900
8		0.00		5.60		2.172e-03		-55.916		7.862e-04		46.189
8		0.00		6.00		2.719e-03		-45.317		1.003e-03		44.344
8		0.00		6.40		3.175e-03		-53.248		1.173e-03		28.312
8		0.00		6.80		4.147e-03		-53.428		1.237e-03		19.977
8		0.00		7.20		4.728e-03		-58.021		1.343e-03		18.947
8		0.00		7.60		4.898e-03		-41.568		1.486e-03		18.224
8		0.00		8.00		6.260e-03		-51.560		1.768e-03		17.402
8		0.00		8.40		7.185e-03		-50.399		1.710e-03		12.312
8		0.00		8.80		8.510e-03		-55.727		2.346e-03		15.322
8		0.00		9.20		9.944e-03		-52.821		2.666e-03		9.816
8		0.00		9.60		1.102e-02		-51.280		2.807e-03		8.892
8		0.00		10.00		1.292e-02		-51.608		3.088e-03		11.022
8		0.00		9.60		1.446e-02		-52.647		3.559e-03		8.681
8		0.00		9.20		1.472e-02		-50.648		3.430e-03		10.359
8		0.00		8.80		1.526e-02		-55.340		3.552e-03		12.647
8		0.00		8.40		1.549e-02		-52.092		3.432e-03		11.965
8		0.00		8.00		1.556e-02		-47.081		3.605e-03		9.140
8		0.00		7.60		1.527e-02		-49.497		3.559e-03		11.221
8		0.00		7.20		1.524e-02		-49.666		3.730e-03		12.322
8		0.00		6.80		1.503e-02		-51.272		3.206e-03		13.443
8		0.00		6.40		1.500e-02		-50.092		3.303e-03		14.367
8		0.00		6.00		1.522e-02		-50.135		3.170e-03		10.773
8		0.00		5.60		1.501e-02		-48.613		3.186e-03		12.878
8		0.00		5.20		1.461e-02		-52.758		3.283e-03		12.165
8		0.00		4.80		1.501e-02		-48.449		3.124e-03		11.762
8		0.00		4.40		1.421e-02		-51.831		3.092e-03		10.492
8		0.00		4.00		1.430e-02		-46.999		2.824e-03		11.225
8		0.00		3.60		1.454e-02		-49.756		2.961e-03		9.026
8		0.00		3.20		1.458e-02		-47.833		2.728e-03		9.257
8		0.00		2.80		1.400e-02		-52.275		2.758e-03		9.676
8		0.00		2.40		1.424e-02		-51.762		2.561e-03		8.551
8		0.00		2.00		1.443e-02		-50.113		2.354e-03		7.713
8		0.00		1.60		1.458e-02		-50.171		2.685e-03		9.817
8		0.00		1.20		1.427e-02		-49.138		2.307e-03		8.513
8		0.00		0.80		1.446e-02		-50.752		2.518e-03		8.474
8		0.00		0.40		1.415e-02		-48.849		2.559e-03		9.271
8		0.00		0.00		1.438e-02		-52.032		2.666e-03		8.520
8		0.00		-0.40		1.429e-02		-49.942		2.372e-03		9.200
8		0.00		-0.80		1.406e-02		-46.888		2.426e-03		10.286
8		0.00		-1.20		1.417e-02		-49.313		2.401e-03		8.489
8		0.00		-1.60		1.346e-02		-49.223		2.554e-03		10.429
8		0.00		-2.00		1.317e-02		-46.293		2.708e-03		8.671
8		0.00		-2.40		1.239e-02		-49.511		2.697e-03		9.774
8		0.00		-2.80		1.227e-02		-49.610		2.689e-03		9.554
8		0.00		-3.20		1.196e-02		-51.179		2.795e-03		10.219
8		0.00		-3.60		1.163e-02		-50.259		2.923e-03		11.946
8		0.00		-4.00		1.099e-02		-49.246		2.875e-03		10.012
8		0.00		-4.40		1.053e-02		-48.430		2.684e-03		13.290
8		0.00		-4.80		1.018e-02		-49.053		2.435e-03		11.904
8		0.00		-5.20		9.572e-03		-45.988		2.323e-03		12.068
8		0.00		-5.60		9.191e-03		-49.139		2.205e-03		11.407
8		0.00		-6.00		8.926e-03		-49.727		2.292e-03		13.688
8		0.00		-6.40		8.060e-03		-48.875		2.191e-03		15.517
8		0.00		-6.80		7.194e-03		-47.473		1.902e-03		13.034
8		0.00		-7.20		6.013e-03		-51.377		1.654e-03		19.653
8		0.00		-7.60		4.862e-03		-42.726		1.489e-03		24.343
8		0.00		-8.00		3.540e-03		-40.024		1.242e-03		32.592
8		0.00		-8.40		2.391e-03		-57.754		9.098e-04		45.262
8		0.00		-8.80		1.757e-03		-4.485		6.476e-04		69.710
8		0.00		-9.20		2.402e-03		77.944		1.010e-03		58.943
8		0.00		-9.60		3.703e-03		103.319		1.382e-03		31.747
8		0.00		-10.00		5.756e-03		113.858		1.826e-03		26.848
8		0.00		-9.60		6.741e-03		122.043		1.696e-03		17.009
8		0.00		-9.20		8.156e-03		120.606		2.034e-03		14.255
8		0.00		-8.80		8.219e-03		123.392		2.088e-03		13.269
8		0.00		-8.40		8.096e-03		122.212		2.280e-03		12.604
8		0.00		-8.00		7.816e-03		122.825		2.155e-03		15.048
8		0.00		-7.60		8.104e-03		124.893		2.142e-03		14.628
8		0.00		-7.20		8.460e-03		120.781		2.151e-03		13.782
8		0.00		-6.80		8.193e-03		123.712		2.018e-03		18.093
8		0.00		-6.40		7.863e-03		118.502		1.940e-03		17.025
8		0.00		-6.00		7.885e-03		125.787		1.865e-03		19.817
8		0.00		-5.60		7.373e-03		124.648		1.862e-03		15.163
8		0.00		-5.20		7.736e-03		121.837		1.815e-03		14.263
8		0.00		-4.80		7.309e-03		124.944		1.805e-03		12.299
8		0.00		-4.40		7.586e-03		122.886		1.817e-03		14.368
8		0.00		-4.00		7.249e-03		124.555		1.681e-03		13.877
8		0.00		-3.60		7.339e-03		120.519		1.679e-03		14.828
8		0.00		-3.20		7.347e-03		128.162		1.673e-03		13.686
8		0.00		-2.80		7.162e-03		125.541		1.841e-03		13.115
8		0.00		-2.40		7.063e-03		122.751		1.758e-03		14.994
8		0.00		-2.00		7.004e-03		125.211		1.570e-03		13.412
8		0.00		-1.60		7.134e-03		121.025		1.816e-03		13.687
8		0.00		-1.20		6.654e-03		124.195		1.642e-03		16.141
8		0.00		-0.80		7.011e-03		117.619		1.892e-03		16.895
8		0.00		-0.40		6.845e-03		120.628		1.770e-03		14.485
