# Date of analysis: 2023-11-20 16;16
# 
# Loop index	Read Volt (V)	Write Volt (V)	Amplitude (a.u)	Phase (deg)	Sigma Amp (a.u)	Sigma Pha (deg)	
1		0.00		0.00		5.381e-03		-46.595		1.404e-03		18.652
1		0.00		0.40		5.240e-03		-49.743		1.273e-03		16.568
1		0.00		0.80		5.297e-03		-45.996		1.411e-03		18.899
1		0.00		1.20		5.136e-03		-46.383		1.505e-03		21.719
1		0.00		1.60		5.144e-03		-48.328		1.694e-03		21.689
1		0.00		2.00		4.839e-03		-51.297		1.680e-03		25.440
1		0.00		2.40		4.847e-03		-53.970		1.445e-03		16.873
1		0.00		2.80		5.075e-03		-47.751		1.529e-03		20.211
1		0.00		3.20		5.487e-03		-56.353		1.485e-03		16.783
1		0.00		3.60		5.734e-03		-48.771		1.721e-03		19.478
1		0.00		4.00		6.604e-03		-52.644		1.752e-03		14.962
1		0.00		4.40		7.173e-03		-51.362		1.923e-03		18.339
1		0.00		4.80		7.668e-03		-55.224		2.296e-03		18.696
1		0.00		5.20		8.106e-03		-49.985		2.431e-03		18.091
1		0.00		5.60		8.898e-03		-57.194		2.126e-03		17.373
1		0.00		6.00		9.647e-03		-53.273		2.229e-03		15.016
1		0.00		6.40		1.022e-02		-51.018		2.149e-03		15.160
1		0.00		6.80		1.091e-02		-50.973		2.489e-03		14.846
1		0.00		7.20		1.229e-02		-49.327		3.071e-03		14.238
1		0.00		7.60		1.297e-02		-53.143		3.464e-03		15.770
1		0.00		8.00		1.395e-02		-53.654		3.671e-03		9.533
1		0.00		8.40		1.548e-02		-55.539		3.614e-03		9.855
1		0.00		8.80		1.725e-02		-56.101		3.689e-03		11.840
1		0.00		9.20		1.973e-02		-53.182		3.926e-03		10.167
1		0.00		9.60		2.206e-02		-50.500		4.695e-03		11.078
1		0.00		10.00		2.411e-02		-51.465		5.906e-03		9.823
1		0.00		9.60		2.562e-02		-52.088		7.006e-03		11.296
1		0.00		9.20		2.581e-02		-52.082		6.903e-03		10.894
1		0.00		8.80		2.678e-02		-53.553		6.843e-03		9.242
1		0.00		8.40		2.729e-02		-52.702		5.759e-03		9.518
1		0.00		8.00		2.724e-02		-53.149		5.899e-03		9.767
1		0.00		7.60		2.679e-02		-52.123		6.508e-03		10.361
1		0.00		7.20		2.717e-02		-51.283		6.836e-03		11.511
1		0.00		6.80		2.618e-02		-52.855		7.400e-03		11.965
1		0.00		6.40		2.595e-02		-52.750		7.211e-03		8.864
1		0.00		6.00		2.672e-02		-53.370		6.336e-03		9.228
1		0.00		5.60		2.699e-02		-54.604		5.648e-03		9.001
1		0.00		5.20		2.705e-02		-51.858		5.513e-03		8.525
1		0.00		4.80		2.619e-02		-49.578		5.443e-03		10.013
1		0.00		4.40		2.564e-02		-50.941		5.747e-03		9.202
1		0.00		4.00		2.507e-02		-51.713		6.015e-03		10.288
1		0.00		3.60		2.482e-02		-50.340		6.052e-03		9.281
1		0.00		3.20		2.555e-02		-51.430		5.600e-03		9.468
1		0.00		2.80		2.587e-02		-54.441		5.016e-03		8.349
1		0.00		2.40		2.579e-02		-52.945		5.249e-03		9.641
1		0.00		2.00		2.635e-02		-51.778		5.228e-03		7.744
1		0.00		1.60		2.523e-02		-53.061		6.249e-03		12.087
1		0.00		1.20		2.490e-02		-49.305		6.506e-03		11.196
1		0.00		0.80		2.423e-02		-51.475		6.832e-03		11.984
1		0.00		0.40		2.441e-02		-51.534		6.649e-03		10.487
1		0.00		0.00		2.431e-02		-51.955		5.905e-03		9.360
1		0.00		-0.40		2.454e-02		-53.395		5.915e-03		10.423
1		0.00		-0.80		2.481e-02		-53.128		5.867e-03		11.149
1		0.00		-1.20		2.379e-02		-51.077		5.522e-03		10.443
1		0.00		-1.60		2.333e-02		-51.254		5.723e-03		12.000
1		0.00		-2.00		2.171e-02		-51.448		6.163e-03		14.423
1		0.00		-2.40		2.220e-02		-51.578		6.201e-03		10.650
1		0.00		-2.80		2.162e-02		-50.571		5.581e-03		9.262
1		0.00		-3.20		2.188e-02		-52.809		4.831e-03		8.801
1		0.00		-3.60		2.133e-02		-52.143		4.057e-03		9.372
1		0.00		-4.00		1.986e-02		-51.294		4.299e-03		10.505
1		0.00		-4.40		1.877e-02		-49.443		4.308e-03		10.629
1		0.00		-4.80		1.744e-02		-48.241		4.107e-03		12.310
1		0.00		-5.20		1.569e-02		-49.689		4.202e-03		12.083
1		0.00		-5.60		1.452e-02		-52.429		3.658e-03		9.189
1		0.00		-6.00		1.211e-02		-49.898		2.782e-03		11.491
1		0.00		-6.40		8.996e-03		-50.434		2.287e-03		13.980
1		0.00		-6.80		5.844e-03		-46.363		1.616e-03		22.947
1		0.00		-7.20		2.807e-03		-43.242		1.209e-03		39.375
1		0.00		-7.60		2.011e-03		43.410		8.919e-04		57.952
1		0.00		-8.00		3.883e-03		99.042		1.503e-03		43.181
1		0.00		-8.40		5.716e-03		120.216		2.108e-03		18.475
1		0.00		-8.80		8.030e-03		119.484		2.395e-03		18.199
1		0.00		-9.20		1.014e-02		125.265		2.604e-03		11.499
1		0.00		-9.60		1.225e-02		125.081		2.841e-03		10.221
1		0.00		-10.00		1.439e-02		123.846		3.405e-03		10.932
1		0.00		-9.60		1.490e-02		125.661		3.828e-03		12.603
1		0.00		-9.20		1.498e-02		123.382		4.181e-03		14.336
1		0.00		-8.80		1.576e-02		125.419		4.241e-03		11.217
1		0.00		-8.40		1.570e-02		123.973		3.761e-03		9.166
1		0.00		-8.00		1.633e-02		125.167		3.742e-03		9.895
1		0.00		-7.60		1.578e-02		122.377		3.533e-03		10.691
1		0.00		-7.20		1.531e-02		125.498		3.758e-03		10.391
1		0.00		-6.80		1.478e-02		127.726		3.817e-03		18.747
1		0.00		-6.40		1.423e-02		125.838		3.801e-03		13.350
1		0.00		-6.00		1.416e-02		121.440		3.716e-03		10.373
1		0.00		-5.60		1.432e-02		123.685		3.418e-03		9.652
1		0.00		-5.20		1.386e-02		124.245		3.042e-03		10.576
1		0.00		-4.80		1.361e-02		126.402		3.221e-03		12.692
1		0.00		-4.40		1.328e-02		123.884		3.853e-03		14.692
1		0.00		-4.00		1.271e-02		123.977		3.840e-03		14.835
1		0.00		-3.60		1.230e-02		123.432		3.587e-03		12.913
1		0.00		-3.20		1.237e-02		123.885		3.232e-03		9.814
1		0.00		-2.80		1.216e-02		125.364		3.024e-03		10.137
1		0.00		-2.40		1.158e-02		125.802		2.927e-03		11.442
1		0.00		-2.00		1.179e-02		126.276		3.067e-03		11.774
1		0.00		-1.60		1.117e-02		121.128		3.422e-03		22.075
1		0.00		-1.20		1.073e-02		125.042		3.115e-03		14.036
1		0.00		-0.80		1.070e-02		121.136		3.045e-03		13.782
1		0.00		-0.40		1.072e-02		122.569		2.643e-03		11.652
2		0.00		0.00		1.047e-02		127.204		2.634e-03		13.982
2		0.00		0.40		1.039e-02		130.021		2.529e-03		12.453
2		0.00		0.80		9.837e-03		121.330		2.691e-03		18.824
2		0.00		1.20		9.667e-03		123.512		2.596e-03		18.369
2		0.00		1.60		8.984e-03		122.904		2.349e-03		17.575
2		0.00		2.00		8.471e-03		125.712		2.405e-03		11.642
2		0.00		2.40		7.911e-03		127.269		2.060e-03		13.258
2		0.00		2.80		7.119e-03		128.016		1.991e-03		15.631
2		0.00		3.20		6.685e-03		125.770		1.839e-03		14.017
2		0.00		3.60		5.459e-03		119.437		1.594e-03		23.799
2		0.00		4.00		4.395e-03		115.918		1.606e-03		34.951
2		0.00		4.40		3.833e-03		113.510		1.336e-03		44.877
2		0.00		4.80		3.048e-03		100.062		1.327e-03		54.866
2		0.00		5.20		2.403e-03		90.340		1.047e-03		60.192
2		0.00		5.60		1.798e-03		-14.800		6.821e-04		82.890
2		0.00		6.00		1.903e-03		-36.361		8.811e-04		70.222
2		0.00		6.40		2.015e-03		-45.917		8.137e-04		45.804
2		0.00		6.80		2.739e-03		-63.694		9.839e-04		37.302
2		0.00		7.20		3.858e-03		-54.232		1.113e-03		18.060
2		0.00		7.60		5.238e-03		-54.624		1.513e-03		19.150
2		0.00		8.00		6.925e-03		-60.299		1.657e-03		18.434
2		0.00		8.40		8.293e-03		-54.791		1.954e-03		17.275
2		0.00		8.80		9.866e-03		-52.565		2.484e-03		14.249
2		0.00		9.20		1.330e-02		-49.102		3.432e-03		14.846
2		0.00		9.60		1.547e-02		-51.259		3.878e-03		11.684
2		0.00		10.00		1.880e-02		-52.724		3.877e-03		9.215
2		0.00		9.60		2.090e-02		-52.078		4.299e-03		8.043
2		0.00		9.20		2.165e-02		-50.504		4.440e-03		9.763
2		0.00		8.80		2.266e-02		-52.486		5.005e-03		9.401
2		0.00		8.40		2.245e-02		-51.153		5.260e-03		10.087
2		0.00		8.00		2.235e-02		-50.863		5.980e-03		10.684
2		0.00		7.60		2.276e-02		-55.011		6.510e-03		9.208
2		0.00		7.20		2.321e-02		-53.146		5.738e-03		8.628
2		0.00		6.80		2.319e-02		-52.999		5.588e-03		8.452
2		0.00		6.40		2.276e-02		-53.420		5.474e-03		11.072
2		0.00		6.00		2.232e-02		-53.797		5.462e-03		11.867
2		0.00		5.60		2.104e-02		-55.004		6.200e-03		12.865
2		0.00		5.20		2.038e-02		-53.835		5.790e-03		13.085
2		0.00		4.80		2.098e-02		-52.188		5.562e-03		10.281
2		0.00		4.40		2.062e-02		-53.953		5.107e-03		9.940
2		0.00		4.00		2.016e-02		-54.836		4.933e-03		11.868
2		0.00		3.60		1.975e-02		-51.169		5.085e-03		12.385
2		0.00		3.20		2.012e-02		-51.413		4.866e-03		11.557
2		0.00		2.80		1.977e-02		-52.845		5.108e-03		11.535
2		0.00		2.40		2.010e-02		-51.717		5.081e-03		9.153
2		0.00		2.00		2.005e-02		-52.287		4.153e-03		9.190
2		0.00		1.60		2.012e-02		-53.443		4.053e-03		9.817
2		0.00		1.20		2.005e-02		-49.519		4.130e-03		8.116
2		0.00		0.80		1.924e-02		-52.198		4.609e-03		11.428
2		0.00		0.40		1.917e-02		-50.484		4.954e-03		11.321
2		0.00		0.00		1.904e-02		-50.168		4.977e-03		10.009
2		0.00		-0.40		1.903e-02		-50.964		4.435e-03		8.134
2		0.00		-0.80		1.907e-02		-52.008		3.893e-03		9.752
2		0.00		-1.20		1.865e-02		-54.053		4.228e-03		10.371
2		0.00		-1.60		1.844e-02		-49.389		4.268e-03		10.223
2		0.00		-2.00		1.779e-02		-50.803		4.901e-03		12.581
2		0.00		-2.40		1.723e-02		-49.407		4.925e-03		11.133
2		0.00		-2.80		1.736e-02		-52.939		4.096e-03		10.727
2		0.00		-3.20		1.730e-02		-50.636		3.555e-03		10.487
2		0.00		-3.60		1.699e-02		-54.151		3.707e-03		11.444
2		0.00		-4.00		1.580e-02		-50.588		3.629e-03		9.697
2		0.00		-4.40		1.473e-02		-53.153		4.007e-03		15.681
2		0.00		-4.80		1.351e-02		-53.281		3.504e-03		11.288
2		0.00		-5.20		1.248e-02		-51.988		2.715e-03		9.944
2		0.00		-5.60		1.078e-02		-54.440		2.297e-03		11.636
2		0.00		-6.00		9.098e-03		-43.530		2.108e-03		12.752
2		0.00		-6.40		7.432e-03		-48.640		1.955e-03		14.469
2		0.00		-6.80		5.137e-03		-44.745		1.539e-03		17.053
2		0.00		-7.20		3.143e-03		-51.159		1.109e-03		33.767
2		0.00		-7.60		1.760e-03		21.636		6.864e-04		63.816
2		0.00		-8.00		3.740e-03		107.409		1.366e-03		40.715
2		0.00		-8.40		5.910e-03		118.712		1.620e-03		15.940
2		0.00		-8.80		7.767e-03		121.685		1.948e-03		16.194
2		0.00		-9.20		9.478e-03		125.199		2.829e-03		21.742
2		0.00		-9.60		1.151e-02		124.950		3.614e-03		14.275
2		0.00		-10.00		1.354e-02		124.619		3.638e-03		10.397
2		0.00		-9.60		1.481e-02		125.666		3.694e-03		10.573
2		0.00		-9.20		1.545e-02		124.125		3.819e-03		10.233
2		0.00		-8.80		1.528e-02		124.965		3.931e-03		12.056
2		0.00		-8.40		1.517e-02		122.497		3.963e-03		15.235
2		0.00		-8.00		1.455e-02		124.307		4.177e-03		15.798
2		0.00		-7.60		1.463e-02		126.672		4.222e-03		10.141
2		0.00		-7.20		1.482e-02		123.076		3.731e-03		9.255
2		0.00		-6.80		1.446e-02		124.635		3.571e-03		11.033
2		0.00		-6.40		1.481e-02		124.455		3.262e-03		11.559
2		0.00		-6.00		1.424e-02		127.146		3.196e-03		14.983
2		0.00		-5.60		1.370e-02		124.618		3.484e-03		16.060
2		0.00		-5.20		1.355e-02		125.151		3.542e-03		11.732
2		0.00		-4.80		1.346e-02		123.208		3.071e-03		10.088
2		0.00		-4.40		1.324e-02		124.365		2.746e-03		12.035
2		0.00		-4.00		1.303e-02		127.876		2.749e-03		10.661
2		0.00		-3.60		1.305e-02		126.314		2.822e-03		9.905
2		0.00		-3.20		1.267e-02		127.635		3.085e-03		13.646
2		0.00		-2.80		1.246e-02		122.060		3.075e-03		18.843
2		0.00		-2.40		1.204e-02		125.628		3.043e-03		11.625
2		0.00		-2.00		1.201e-02		124.625		2.966e-03		11.325
2		0.00		-1.60		1.199e-02		126.854		2.725e-03		11.140
2		0.00		-1.20		1.216e-02		123.194		2.544e-03		9.384
2		0.00		-0.80		1.198e-02		126.222		2.665e-03		11.338
2		0.00		-0.40		1.158e-02		127.189		2.611e-03		12.787
3		0.00		0.00		1.170e-02		127.241		3.130e-03		16.029
3		0.00		0.40		1.132e-02		126.045		2.971e-03		12.877
3		0.00		0.80		1.112e-02		125.154		2.703e-03		10.505
3		0.00		1.20		1.086e-02		126.465		2.509e-03		12.399
3		0.00		1.60		1.028e-02		128.464		2.210e-03		9.802
3		0.00		2.00		9.992e-03		125.912		2.343e-03		12.638
3		0.00		2.40		9.201e-03		128.796		2.094e-03		14.336
3		0.00		2.80		8.679e-03		125.959		2.132e-03		23.010
3		0.00		3.20		7.305e-03		123.411		2.008e-03		20.276
3		0.00		3.60		6.498e-03		122.205		1.696e-03		15.931
3		0.00		4.00		5.500e-03		124.931		1.721e-03		32.762
3		0.00		4.40		4.666e-03		122.060		1.474e-03		19.590
3		0.00		4.80		3.843e-03		112.717		1.228e-03		39.211
3		0.00		5.20		3.275e-03		100.162		1.078e-03		60.068
3		0.00		5.60		2.358e-03		60.807		1.017e-03		82.403
3		0.00		6.00		1.931e-03		49.992		8.534e-04		76.292
3		0.00		6.40		1.789e-03		-38.202		6.206e-04		77.855
3		0.00		6.80		2.870e-03		-59.626		1.195e-03		41.940
3		0.00		7.20		3.252e-03		-71.559		1.294e-03		35.435
3		0.00		7.60		4.442e-03		-51.672		1.429e-03		27.435
3		0.00		8.00		5.837e-03		-58.160		1.672e-03		19.443
3		0.00		8.40		6.896e-03		-54.754		2.213e-03		18.680
3		0.00		8.80		7.731e-03		-52.232		2.387e-03		19.945
3		0.00		9.20		1.056e-02		-57.076		2.633e-03		12.262
3		0.00		9.60		1.347e-02		-54.160		3.087e-03		12.890
3		0.00		10.00		1.642e-02		-53.404		3.527e-03		11.055
3		0.00		9.60		1.844e-02		-52.790		3.691e-03		10.915
3		0.00		9.20		1.942e-02		-50.731		4.204e-03		9.637
3		0.00		8.80		2.018e-02		-51.020		4.712e-03		11.909
3		0.00		8.40		2.034e-02		-50.613		4.634e-03		9.525
3		0.00		8.00		2.091e-02		-53.648		4.342e-03		8.765
3		0.00		7.60		2.109e-02		-53.269		3.780e-03		7.824
3		0.00		7.20		2.135e-02		-52.317		3.927e-03		8.374
3		0.00		6.80		2.116e-02		-52.718		3.669e-03		7.840
3		0.00		6.40		2.051e-02		-50.783		4.085e-03		8.786
3		0.00		6.00		2.017e-02		-49.863		4.643e-03		10.073
3		0.00		5.60		1.976e-02		-50.238		4.159e-03		10.983
3		0.00		5.20		1.937e-02		-53.068		4.223e-03		10.527
3		0.00		4.80		1.987e-02		-53.337		3.631e-03		8.144
3		0.00		4.40		2.004e-02		-52.613		3.511e-03		8.630
3		0.00		4.00		1.987e-02		-51.886		3.764e-03		9.952
3		0.00		3.60		1.942e-02		-50.387		3.851e-03		9.813
3		0.00		3.20		1.910e-02		-51.016		3.945e-03		9.357
3		0.00		2.80		1.840e-02		-50.598		4.167e-03		11.045
3		0.00		2.40		1.844e-02		-52.244		3.965e-03		10.038
3		0.00		2.00		1.854e-02		-51.643		3.708e-03		9.889
3		0.00		1.60		1.885e-02		-52.448		3.522e-03		10.362
3		0.00		1.20		1.886e-02		-50.772		3.072e-03		8.812
3		0.00		0.80		1.870e-02		-52.738		3.449e-03		9.152
3		0.00		0.40		1.825e-02		-52.188		3.483e-03		8.983
3		0.00		0.00		1.827e-02		-49.913		3.895e-03		10.916
3		0.00		-0.40		1.814e-02		-49.899		4.074e-03		8.958
3		0.00		-0.80		1.764e-02		-48.945		3.996e-03		9.664
3		0.00		-1.20		1.800e-02		-48.944		3.925e-03		9.800
3		0.00		-1.60		1.744e-02		-52.531		3.532e-03		11.401
3		0.00		-2.00		1.749e-02		-52.359		3.057e-03		9.716
3		0.00		-2.40		1.690e-02		-49.758		3.067e-03		9.776
3		0.00		-2.80		1.640e-02		-50.033		2.959e-03		10.302
3		0.00		-3.20		1.548e-02		-49.276		3.301e-03		11.894
3		0.00		-3.60		1.461e-02		-50.655		3.583e-03		12.915
3		0.00		-4.00		1.376e-02		-50.162		3.351e-03		11.046
3		0.00		-4.40		1.316e-02		-54.514		3.601e-03		14.731
3		0.00		-4.80		1.240e-02		-47.463		3.241e-03		11.499
3		0.00		-5.20		1.158e-02		-51.543		2.717e-03		11.658
3		0.00		-5.60		1.048e-02		-55.200		2.609e-03		11.149
3		0.00		-6.00		8.389e-03		-49.738		2.027e-03		11.637
3		0.00		-6.40		7.312e-03		-49.021		1.875e-03		15.055
3		0.00		-6.80		5.359e-03		-50.204		1.384e-03		17.016
3		0.00		-7.20		3.484e-03		-55.684		1.222e-03		32.043
3		0.00		-7.60		1.709e-03		-33.706		7.127e-04		64.721
3		0.00		-8.00		2.366e-03		74.049		8.810e-04		68.875
3		0.00		-8.40		3.975e-03		110.920		1.184e-03		37.971
3		0.00		-8.80		5.625e-03		114.578		1.656e-03		21.277
3		0.00		-9.20		8.017e-03		120.185		2.061e-03		16.900
3		0.00		-9.60		1.015e-02		127.490		2.450e-03		12.742
3		0.00		-10.00		1.280e-02		122.338		2.855e-03		9.401
3		0.00		-9.60		1.450e-02		125.055		3.153e-03		10.803
3		0.00		-9.20		1.507e-02		125.956		2.897e-03		9.619
3		0.00		-8.80		1.621e-02		125.805		2.539e-03		7.676
3		0.00		-8.40		1.567e-02		128.809		3.008e-03		9.408
3		0.00		-8.00		1.562e-02		127.648		2.906e-03		9.179
3		0.00		-7.60		1.488e-02		126.585		3.145e-03		10.709
3		0.00		-7.20		1.464e-02		122.430		3.198e-03		16.464
3		0.00		-6.80		1.400e-02		125.381		3.053e-03		16.564
3		0.00		-6.40		1.416e-02		126.376		3.033e-03		11.834
3		0.00		-6.00		1.419e-02		127.889		3.216e-03		16.494
3		0.00		-5.60		1.374e-02		126.682		3.181e-03		11.112
3		0.00		-5.20		1.354e-02		126.134		3.085e-03		9.838
3		0.00		-4.80		1.364e-02		128.926		2.837e-03		9.293
3		0.00		-4.40		1.313e-02		125.288		2.381e-03		10.293
3		0.00		-4.00		1.284e-02		126.760		2.743e-03		10.248
3		0.00		-3.60		1.286e-02		128.620		2.571e-03		10.245
3		0.00		-3.20		1.298e-02		128.765		2.409e-03		9.136
3		0.00		-2.80		1.257e-02		127.352		2.385e-03		10.986
3		0.00		-2.40		1.265e-02		128.045		2.454e-03		11.360
3		0.00		-2.00		1.232e-02		130.211		2.334e-03		10.113
3		0.00		-1.60		1.201e-02		128.985		2.320e-03		11.536
3		0.00		-1.20		1.203e-02		125.575		2.456e-03		11.742
3		0.00		-0.80		1.158e-02		126.741		2.594e-03		9.872
3		0.00		-0.40		1.128e-02		127.221		2.633e-03		13.632
4		0.00		0.00		1.153e-02		119.844		2.937e-03		18.185
4		0.00		0.40		1.086e-02		125.064		2.550e-03		14.126
4		0.00		0.80		1.071e-02		122.061		2.770e-03		13.065
4		0.00		1.20		1.027e-02		126.150		2.913e-03		15.668
4		0.00		1.60		9.417e-03		123.195		2.586e-03		13.526
4		0.00		2.00		9.286e-03		124.205		2.489e-03		12.457
4		0.00		2.40		8.739e-03		124.625		2.215e-03		11.495
4		0.00		2.80		8.348e-03		122.225		2.120e-03		13.729
4		0.00		3.20		7.128e-03		125.865		1.804e-03		13.915
4		0.00		3.60		6.029e-03		129.263		1.833e-03		21.322
4		0.00		4.00		5.084e-03		130.140		1.557e-03		18.156
4		0.00		4.40		4.086e-03		116.696		1.189e-03		29.488
4		0.00		4.80		3.520e-03		107.496		1.281e-03		53.815
4		0.00		5.20		2.541e-03		85.118		1.096e-03		68.692
4		0.00		5.60		1.954e-03		21.899		8.081e-04		90.007
4		0.00		6.00		1.907e-03		-14.967		8.012e-04		70.466
4		0.00		6.40		1.922e-03		-30.176		7.905e-04		58.143
4		0.00		6.80		2.623e-03		-43.787		1.042e-03		39.528
4		0.00		7.20		3.406e-03		-52.926		1.261e-03		26.998
4		0.00		7.60		4.694e-03		-54.515		1.525e-03		23.477
4		0.00		8.00		5.997e-03		-59.508		1.317e-03		14.471
4		0.00		8.40		7.348e-03		-51.820		1.949e-03		15.258
4		0.00		8.80		9.446e-03		-53.870		2.510e-03		11.281
4		0.00		9.20		1.074e-02		-52.462		2.880e-03		11.949
4		0.00		9.60		1.376e-02		-53.683		3.617e-03		10.418
4		0.00		10.00		1.628e-02		-52.084		4.042e-03		13.405
4		0.00		9.60		1.763e-02		-52.800		4.422e-03		9.073
4		0.00		9.20		1.881e-02		-51.603		4.178e-03		10.061
4		0.00		8.80		1.941e-02		-54.202		4.076e-03		9.340
4		0.00		8.40		1.927e-02		-53.867		3.676e-03		9.374
4		0.00		8.00		2.001e-02		-52.244		3.952e-03		8.330
4		0.00		7.60		1.973e-02		-52.505		3.859e-03		8.958
4		0.00		7.20		1.975e-02		-52.418		3.690e-03		9.540
4		0.00		6.80		2.042e-02		-53.835		3.823e-03		8.530
4		0.00		6.40		2.022e-02		-53.777		3.468e-03		9.866
4		0.00		6.00		1.999e-02		-51.394		3.391e-03		7.719
4		0.00		5.60		2.000e-02		-52.631		3.865e-03		9.484
4		0.00		5.20		1.934e-02		-51.133		4.013e-03		9.694
4		0.00		4.80		1.902e-02		-54.832		4.028e-03		10.538
4		0.00		4.40		1.927e-02		-52.863		4.029e-03		8.524
4		0.00		4.00		1.873e-02		-51.701		4.271e-03		10.373
4		0.00		3.60		1.792e-02		-51.008		4.206e-03		10.274
4		0.00		3.20		1.831e-02		-52.643		4.565e-03		11.158
4		0.00		2.80		1.788e-02		-50.902		4.415e-03		13.044
4		0.00		2.40		1.762e-02		-52.151		4.613e-03		12.844
4		0.00		2.00		1.686e-02		-50.064		4.409e-03		14.205
4		0.00		1.60		1.676e-02		-50.614		4.643e-03		14.556
4		0.00		1.20		1.690e-02		-50.294		4.153e-03		11.857
4		0.00		0.80		1.723e-02		-50.334		4.387e-03		10.985
4		0.00		0.40		1.697e-02		-50.873		4.277e-03		11.157
4		0.00		0.00		1.731e-02		-50.551		3.977e-03		8.719
4		0.00		-0.40		1.667e-02		-49.754		4.002e-03		9.013
4		0.00		-0.80		1.670e-02		-49.870		3.690e-03		9.221
4		0.00		-1.20		1.658e-02		-53.475		3.490e-03		9.759
4		0.00		-1.60		1.676e-02		-52.969		3.398e-03		10.002
4		0.00		-2.00		1.683e-02		-51.150		3.292e-03		10.512
4		0.00		-2.40		1.585e-02		-50.476		3.317e-03		11.069
4		0.00		-2.80		1.562e-02		-53.266		3.190e-03		9.454
4		0.00		-3.20		1.529e-02		-51.915		2.798e-03		10.945
4		0.00		-3.60		1.509e-02		-52.590		2.928e-03		10.395
4		0.00		-4.00		1.402e-02		-51.861		2.761e-03		8.995
4		0.00		-4.40		1.370e-02		-53.085		2.582e-03		9.510
4		0.00		-4.80		1.299e-02		-52.013		2.306e-03		10.988
4		0.00		-5.20		1.213e-02		-51.666		2.581e-03		8.447
4		0.00		-5.60		1.046e-02		-50.817		2.279e-03		12.525
4		0.00		-6.00		9.222e-03		-52.283		1.856e-03		12.965
4		0.00		-6.40		7.931e-03		-53.341		1.870e-03		14.031
4		0.00		-6.80		6.172e-03		-42.954		1.648e-03		14.572
4		0.00		-7.20		3.654e-03		-60.379		1.152e-03		31.102
4		0.00		-7.60		1.943e-03		-20.699		7.355e-04		65.743
4		0.00		-8.00		2.149e-03		65.929		8.497e-04		61.134
4		0.00		-8.40		3.376e-03		109.948		1.315e-03		46.276
4		0.00		-8.80		5.745e-03		124.540		1.533e-03		15.547
4		0.00		-9.20		7.641e-03		126.028		2.225e-03		16.130
4		0.00		-9.60		9.866e-03		124.807		2.526e-03		15.141
4		0.00		-10.00		1.206e-02		124.503		2.684e-03		11.105
4		0.00		-9.60		1.373e-02		124.916		3.282e-03		12.659
4		0.00		-9.20		1.365e-02		126.940		3.617e-03		13.180
4		0.00		-8.80		1.413e-02		126.723		3.635e-03		13.869
4		0.00		-8.40		1.425e-02		125.435		3.729e-03		15.491
4		0.00		-8.00		1.439e-02		123.141		3.889e-03		15.300
4		0.00		-7.60		1.396e-02		126.104		3.696e-03		14.576
4		0.00		-7.20		1.398e-02		124.333		3.587e-03		15.969
4		0.00		-6.80		1.322e-02		125.620		3.594e-03		14.565
4		0.00		-6.40		1.288e-02		124.311		3.339e-03		16.442
4		0.00		-6.00		1.246e-02		124.125		3.532e-03		18.988
4		0.00		-5.60		1.290e-02		126.311		3.459e-03		15.448
4		0.00		-5.20		1.244e-02		128.867		3.204e-03		17.290
4		0.00		-4.80		1.207e-02		126.611		3.185e-03		18.987
4		0.00		-4.40		1.178e-02		124.475		2.821e-03		13.953
4		0.00		-4.00		1.171e-02		124.491		3.137e-03		18.230
4		0.00		-3.60		1.190e-02		125.227		2.833e-03		16.721
4		0.00		-3.20		1.160e-02		125.564		2.928e-03		13.809
4		0.00		-2.80		1.151e-02		126.771		2.566e-03		18.281
4		0.00		-2.40		1.134e-02		122.563		2.932e-03		16.039
4		0.00		-2.00		1.118e-02		123.973		2.935e-03		19.565
4		0.00		-1.60		1.117e-02		121.667		2.893e-03		15.576
4		0.00		-1.20		1.083e-02		123.514		2.927e-03		20.327
4		0.00		-0.80		1.080e-02		122.905		2.980e-03		19.380
4		0.00		-0.40		1.063e-02		127.745		2.880e-03		13.048
5		0.00		0.00		1.073e-02		119.534		3.131e-03		20.487
5		0.00		0.40		1.076e-02		129.229		2.903e-03		13.886
5		0.00		0.80		1.042e-02		128.421		2.796e-03		16.496
5		0.00		1.20		1.012e-02		124.193		2.653e-03		15.349
5		0.00		1.60		9.322e-03		127.762		2.262e-03		14.491
5		0.00		2.00		8.892e-03		126.051		2.454e-03		17.012
5		0.00		2.40		8.303e-03		128.393		2.404e-03		15.901
5		0.00		2.80		8.075e-03		127.053		2.242e-03		17.003
5		0.00		3.20		6.847e-03		123.047		2.104e-03		17.974
5		0.00		3.60		5.806e-03		126.909		1.917e-03		22.617
5		0.00		4.00		5.392e-03		123.919		1.708e-03		27.679
5		0.00		4.40		4.211e-03		121.445		1.515e-03		31.388
5		0.00		4.80		3.723e-03		122.081		1.423e-03		37.003
5		0.00		5.20		3.106e-03		106.445		1.105e-03		51.069
5		0.00		5.60		2.345e-03		69.914		9.043e-04		69.452
5		0.00		6.00		1.919e-03		38.469		7.108e-04		87.469
5		0.00		6.40		1.783e-03		-20.687		6.576e-04		76.298
5		0.00		6.80		2.166e-03		-46.534		8.644e-04		51.282
5		0.00		7.20		2.995e-03		-56.933		1.098e-03		29.352
5		0.00		7.60		3.644e-03		-48.448		1.330e-03		32.739
5		0.00		8.00		4.657e-03		-50.128		1.631e-03		22.178
5		0.00		8.40		6.437e-03		-52.877		2.010e-03		20.920
5		0.00		8.80		7.443e-03		-53.053		2.441e-03		16.514
5		0.00		9.20		9.037e-03		-55.951		2.591e-03		13.020
5		0.00		9.60		1.052e-02		-55.538		3.097e-03		11.108
5		0.00		10.00		1.369e-02		-51.512		3.616e-03		11.713
5		0.00		9.60		1.475e-02		-58.632		4.063e-03		16.532
5		0.00		9.20		1.622e-02		-49.440		4.116e-03		9.600
5		0.00		8.80		1.636e-02		-53.490		4.093e-03		8.787
5		0.00		8.40		1.671e-02		-52.474		4.069e-03		11.016
5		0.00		8.00		1.674e-02		-52.271		3.918e-03		10.518
5		0.00		7.60		1.706e-02		-54.353		3.912e-03		10.077
5		0.00		7.20		1.714e-02		-50.849		3.939e-03		8.819
5		0.00		6.80		1.690e-02		-51.686		3.636e-03		10.356
5		0.00		6.40		1.721e-02		-52.080		3.707e-03		9.798
5		0.00		6.00		1.685e-02		-50.687		3.962e-03		9.176
5		0.00		5.60		1.641e-02		-53.178		3.925e-03		13.398
5		0.00		5.20		1.674e-02		-52.513		3.698e-03		9.175
5		0.00		4.80		1.657e-02		-50.482		3.365e-03		11.068
5		0.00		4.40		1.626e-02		-52.698		3.256e-03		10.024
5		0.00		4.00		1.611e-02		-50.220		3.624e-03		10.583
5		0.00		3.60		1.587e-02		-51.875		3.247e-03		10.009
5		0.00		3.20		1.552e-02		-51.752		3.136e-03		9.709
5		0.00		2.80		1.516e-02		-51.048		3.309e-03		11.561
5		0.00		2.40		1.534e-02		-54.257		3.023e-03		9.408
5		0.00		2.00		1.514e-02		-52.592		3.059e-03		10.298
5		0.00		1.60		1.545e-02		-52.023		3.403e-03		9.431
5		0.00		1.20		1.566e-02		-52.775		3.077e-03		9.573
5		0.00		0.80		1.518e-02		-50.693		3.406e-03		10.775
5		0.00		0.40		1.529e-02		-52.178		3.222e-03		13.087
5		0.00		0.00		1.453e-02		-50.177		3.399e-03		10.181
5		0.00		-0.40		1.465e-02		-48.178		3.345e-03		12.034
5		0.00		-0.80		1.430e-02		-49.937		3.357e-03		11.321
5		0.00		-1.20		1.426e-02		-49.268		3.405e-03		11.136
5		0.00		-1.60		1.414e-02		-50.061		3.592e-03		13.530
5		0.00		-2.00		1.363e-02		-51.225		3.735e-03		14.553
5		0.00		-2.40		1.353e-02		-52.180		3.866e-03		17.953
5		0.00		-2.80		1.289e-02		-51.983		3.487e-03		14.234
5		0.00		-3.20		1.259e-02		-51.740		3.785e-03		12.629
5		0.00		-3.60		1.238e-02		-47.535		3.605e-03		12.272
5		0.00		-4.00		1.201e-02		-49.151		3.397e-03		10.802
5		0.00		-4.40		1.130e-02		-50.803		3.161e-03		10.647
5		0.00		-4.80		1.072e-02		-49.531		2.913e-03		11.430
5		0.00		-5.20		9.437e-03		-50.444		2.419e-03		12.297
5		0.00		-5.60		8.674e-03		-59.044		2.222e-03		15.734
5		0.00		-6.00		7.958e-03		-48.538		1.768e-03		13.567
5		0.00		-6.40		5.935e-03		-59.098		1.506e-03		21.934
5		0.00		-6.80		4.817e-03		-50.968		1.357e-03		22.138
5		0.00		-7.20		3.297e-03		-47.950		1.262e-03		32.803
5		0.00		-7.60		2.130e-03		-38.023		9.247e-04		50.987
5		0.00		-8.00		1.982e-03		56.201		1.036e-03		80.741
5		0.00		-8.40		3.465e-03		105.089		1.314e-03		46.679
5		0.00		-8.80		5.041e-03		117.813		1.681e-03		34.147
5		0.00		-9.20		7.402e-03		119.462		1.999e-03		17.108
5		0.00		-9.60		9.186e-03		121.462		2.677e-03		20.769
5		0.00		-10.00		1.157e-02		123.684		3.355e-03		15.294
5		0.00		-9.60		1.229e-02		123.211		3.642e-03		13.599
5		0.00		-9.20		1.300e-02		126.181		3.823e-03		10.223
5		0.00		-8.80		1.330e-02		126.963		3.415e-03		10.110
5		0.00		-8.40		1.344e-02		126.061		3.397e-03		8.383
5		0.00		-8.00		1.364e-02		123.735		2.997e-03		8.704
5		0.00		-7.60		1.305e-02		126.503		3.098e-03		10.381
5		0.00		-7.20		1.306e-02		126.811		2.831e-03		11.894
5		0.00		-6.80		1.266e-02		125.548		2.751e-03		10.265
5		0.00		-6.40		1.260e-02		127.686		3.030e-03		11.740
5		0.00		-6.00		1.219e-02		124.431		2.855e-03		14.852
5		0.00		-5.60		1.170e-02		124.715		2.807e-03		15.596
5		0.00		-5.20		1.204e-02		125.032		3.172e-03		14.977
5		0.00		-4.80		1.133e-02		128.408		2.987e-03		15.767
5		0.00		-4.40		1.173e-02		126.399		3.024e-03		11.839
5		0.00		-4.00		1.138e-02		125.920		2.912e-03		12.256
5		0.00		-3.60		1.136e-02		125.245		2.693e-03		10.347
5		0.00		-3.20		1.127e-02		125.301		2.590e-03		9.717
5		0.00		-2.80		1.087e-02		125.756		2.382e-03		11.123
5		0.00		-2.40		1.066e-02		125.826		2.410e-03		10.723
5		0.00		-2.00		1.007e-02		124.360		2.668e-03		13.647
5		0.00		-1.60		1.011e-02		121.935		2.647e-03		13.582
5		0.00		-1.20		1.032e-02		124.158		2.828e-03		16.684
5		0.00		-0.80		9.858e-03		120.674		2.951e-03		24.741
5		0.00		-0.40		9.818e-03		125.020		2.973e-03		16.945
6		0.00		0.00		9.372e-03		125.937		2.693e-03		13.990
6		0.00		0.40		9.526e-03		124.614		2.724e-03		13.595
6		0.00		0.80		1.003e-02		126.932		2.209e-03		10.207
6		0.00		1.20		9.367e-03		129.311		2.010e-03		12.102
6		0.00		1.60		9.428e-03		128.505		2.079e-03		10.464
6		0.00		2.00		8.751e-03		127.688		1.837e-03		15.266
6		0.00		2.40		8.125e-03		128.536		1.935e-03		14.269
6		0.00		2.80		7.301e-03		126.739		2.055e-03		15.720
6		0.00		3.20		6.325e-03		122.083		1.790e-03		25.558
6		0.00		3.60		5.620e-03		124.574		1.580e-03		36.287
6		0.00		4.00		4.777e-03		126.561		1.371e-03		21.796
6		0.00		4.40		3.955e-03		115.667		1.250e-03		28.004
6		0.00		4.80		3.257e-03		101.367		1.312e-03		56.066
6		0.00		5.20		2.612e-03		97.426		1.062e-03		54.163
6		0.00		5.60		2.029e-03		38.530		8.853e-04		87.377
6		0.00		6.00		1.754e-03		-7.673		6.955e-04		93.203
6		0.00		6.40		1.798e-03		-21.631		6.844e-04		81.132
6		0.00		6.80		2.232e-03		-53.629		9.680e-04		54.506
6		0.00		7.20		2.848e-03		-49.247		1.216e-03		35.558
6		0.00		7.60		3.680e-03		-63.000		1.223e-03		25.233
6		0.00		8.00		4.874e-03		-51.365		1.310e-03		22.125
6		0.00		8.40		6.314e-03		-50.536		1.574e-03		20.262
6		0.00		8.80		7.706e-03		-52.428		1.884e-03		16.769
6		0.00		9.20		9.325e-03		-54.820		2.141e-03		14.501
6		0.00		9.60		1.119e-02		-54.442		2.946e-03		16.794
6		0.00		10.00		1.362e-02		-49.351		3.488e-03		13.946
6		0.00		9.60		1.465e-02		-50.899		3.827e-03		11.449
6		0.00		9.20		1.574e-02		-47.314		3.758e-03		13.165
6		0.00		8.80		1.617e-02		-52.071		3.797e-03		9.696
6		0.00		8.40		1.724e-02		-51.293		3.625e-03		9.315
6		0.00		8.00		1.701e-02		-51.200		3.416e-03		8.571
6		0.00		7.60		1.664e-02		-51.299		3.300e-03		10.299
6		0.00		7.20		1.645e-02		-51.259		3.233e-03		9.995
6		0.00		6.80		1.639e-02		-48.453		3.802e-03		10.525
6		0.00		6.40		1.589e-02		-50.935		3.886e-03		12.526
6		0.00		6.00		1.546e-02		-52.287		4.326e-03		14.617
6		0.00		5.60		1.526e-02		-51.344		4.303e-03		11.334
6		0.00		5.20		1.560e-02		-51.049		4.385e-03		10.234
6		0.00		4.80		1.557e-02		-51.166		3.606e-03		11.432
6		0.00		4.40		1.535e-02		-53.317		3.335e-03		9.215
6		0.00		4.00		1.545e-02		-51.308		3.580e-03		10.635
6		0.00		3.60		1.485e-02		-51.467		3.627e-03		11.270
6		0.00		3.20		1.461e-02		-52.178		3.840e-03		12.389
6		0.00		2.80		1.442e-02		-52.458		4.108e-03		16.445
6		0.00		2.40		1.421e-02		-47.402		4.121e-03		11.420
6		0.00		2.00		1.391e-02		-50.256		3.637e-03		12.266
6		0.00		1.60		1.433e-02		-51.634		3.431e-03		10.546
6		0.00		1.20		1.452e-02		-51.079		3.068e-03		11.188
6		0.00		0.80		1.449e-02		-53.918		2.935e-03		10.340
6		0.00		0.40		1.439e-02		-51.680		2.939e-03		11.027
6		0.00		0.00		1.428e-02		-48.189		3.235e-03		10.176
6		0.00		-0.40		1.411e-02		-52.175		2.981e-03		11.864
6		0.00		-0.80		1.384e-02		-47.563		3.481e-03		12.405
6		0.00		-1.20		1.355e-02		-51.263		3.395e-03		12.022
6		0.00		-1.60		1.364e-02		-54.390		3.365e-03		12.473
6		0.00		-2.00		1.372e-02		-50.491		3.030e-03		11.956
6		0.00		-2.40		1.334e-02		-51.361		2.496e-03		11.369
6		0.00		-2.80		1.328e-02		-48.855		2.666e-03		10.754
6		0.00		-3.20		1.286e-02		-49.223		2.813e-03		10.472
6		0.00		-3.60		1.244e-02		-48.288		2.891e-03		12.589
6		0.00		-4.00		1.158e-02		-52.043		2.969e-03		14.929
6		0.00		-4.40		1.110e-02		-51.042		2.819e-03		13.463
6		0.00		-4.80		1.040e-02		-54.513		2.774e-03		15.243
6		0.00		-5.20		9.546e-03		-49.592		2.370e-03		13.785
6		0.00		-5.60		9.051e-03		-47.380		2.024e-03		12.645
6		0.00		-6.00		7.736e-03		-51.680		1.762e-03		12.595
6		0.00		-6.40		6.148e-03		-48.277		1.523e-03		17.538
6		0.00		-6.80		4.640e-03		-39.671		1.388e-03		20.467
6		0.00		-7.20		3.152e-03		-32.545		1.229e-03		31.351
6		0.00		-7.60		1.900e-03		-22.814		8.938e-04		66.343
6		0.00		-8.00		2.103e-03		60.411		8.607e-04		68.180
6		0.00		-8.40		3.696e-03		113.059		1.347e-03		36.745
6		0.00		-8.80		6.511e-03		123.134		1.997e-03		17.477
6		0.00		-9.20		8.186e-03		119.948		2.248e-03		13.542
6		0.00		-9.60		1.052e-02		123.989		2.495e-03		13.807
6		0.00		-10.00		1.179e-02		123.905		2.520e-03		9.453
6		0.00		-9.60		1.276e-02		126.621		2.540e-03		10.174
6		0.00		-9.20		1.411e-02		124.630		3.030e-03		9.929
6		0.00		-8.80		1.422e-02		127.838		3.410e-03		9.530
6		0.00		-8.40		1.397e-02		125.889		3.686e-03		12.714
6		0.00		-8.00		1.378e-02		123.692		3.704e-03		16.412
6		0.00		-7.60		1.360e-02		123.362		3.915e-03		20.014
6		0.00		-7.20		1.295e-02		123.158		3.973e-03		16.921
6		0.00		-6.80		1.264e-02		124.330		3.761e-03		12.798
6		0.00		-6.40		1.257e-02		127.791		3.366e-03		9.940
6		0.00		-6.00		1.237e-02		126.913		3.246e-03		8.834
6		0.00		-5.60		1.233e-02		126.546		2.798e-03		11.034
6		0.00		-5.20		1.246e-02		126.031		2.797e-03		9.478
6		0.00		-4.80		1.224e-02		125.316		2.724e-03		12.420
6		0.00		-4.40		1.175e-02		124.549		2.948e-03		13.455
6		0.00		-4.00		1.132e-02		125.126		2.677e-03		14.630
6		0.00		-3.60		1.117e-02		125.468		2.839e-03		15.470
6		0.00		-3.20		1.093e-02		122.057		2.951e-03		15.703
6		0.00		-2.80		1.092e-02		123.759		2.923e-03		12.719
6		0.00		-2.40		1.112e-02		125.708		2.645e-03		10.716
6		0.00		-2.00		1.089e-02		125.584		2.620e-03		10.204
6		0.00		-1.60		1.062e-02		125.898		2.213e-03		11.226
6		0.00		-1.20		1.109e-02		124.979		2.350e-03		10.449
6		0.00		-0.80		1.074e-02		128.777		2.255e-03		11.256
6		0.00		-0.40		1.021e-02		127.822		2.102e-03		10.925
7		0.00		0.00		1.024e-02		125.937		2.653e-03		13.706
7		0.00		0.40		9.963e-03		126.256		2.643e-03		15.136
7		0.00		0.80		9.510e-03		124.098		2.468e-03		17.435
7		0.00		1.20		9.150e-03		126.637		2.451e-03		15.675
7		0.00		1.60		9.016e-03		125.252		2.557e-03		15.154
7		0.00		2.00		8.338e-03		125.635		2.172e-03		14.649
7		0.00		2.40		7.397e-03		124.818		2.020e-03		13.046
7		0.00		2.80		7.508e-03		128.116		1.817e-03		15.521
7		0.00		3.20		6.667e-03		128.149		1.660e-03		14.668
7		0.00		3.60		5.683e-03		128.936		1.559e-03		16.314
7		0.00		4.00		4.677e-03		126.530		1.642e-03		30.873
7		0.00		4.40		4.139e-03		119.689		1.384e-03		33.659
7		0.00		4.80		3.634e-03		100.183		1.304e-03		54.299
7		0.00		5.20		2.882e-03		91.387		1.183e-03		75.628
7		0.00		5.60		2.359e-03		59.863		8.166e-04		86.951
7		0.00		6.00		1.958e-03		37.556		7.873e-04		86.100
7		0.00		6.40		1.719e-03		-32.446		7.696e-04		75.739
7		0.00		6.80		1.941e-03		-33.016		8.160e-04		46.323
7		0.00		7.20		2.797e-03		-41.796		8.616e-04		35.043
7		0.00		7.60		3.467e-03		-48.452		1.446e-03		35.353
7		0.00		8.00		4.677e-03		-63.823		1.653e-03		28.940
7		0.00		8.40		5.903e-03		-50.903		1.963e-03		21.706
7		0.00		8.80		7.191e-03		-53.525		2.320e-03		19.334
7		0.00		9.20		8.174e-03		-54.633		2.324e-03		12.763
7		0.00		9.60		9.763e-03		-59.978		2.917e-03		10.673
7		0.00		10.00		1.228e-02		-53.853		2.914e-03		10.218
7		0.00		9.60		1.352e-02		-51.893		3.188e-03		11.467
7		0.00		9.20		1.452e-02		-55.093		3.050e-03		11.912
7		0.00		8.80		1.490e-02		-53.477		3.270e-03		11.257
7		0.00		8.40		1.499e-02		-50.590		3.467e-03		10.911
7		0.00		8.00		1.485e-02		-51.725		3.617e-03		12.334
7		0.00		7.60		1.467e-02		-52.351		3.692e-03		12.144
7		0.00		7.20		1.529e-02		-48.734		3.675e-03		10.125
7		0.00		6.80		1.517e-02		-51.778		3.689e-03		11.060
7		0.00		6.40		1.539e-02		-52.281		3.342e-03		10.110
7		0.00		6.00		1.533e-02		-51.934		3.033e-03		11.116
7		0.00		5.60		1.505e-02		-50.088		3.018e-03		10.816
7		0.00		5.20		1.494e-02		-53.384		3.133e-03		9.415
7		0.00		4.80		1.445e-02		-49.757		3.201e-03		11.112
7		0.00		4.40		1.423e-02		-51.264		3.402e-03		11.160
7		0.00		4.00		1.414e-02		-50.157		3.682e-03		12.517
7		0.00		3.60		1.343e-02		-48.643		3.414e-03		12.853
7		0.00		3.20		1.423e-02		-51.445		3.220e-03		10.114
7		0.00		2.80		1.398e-02		-49.720		2.859e-03		9.237
7		0.00		2.40		1.407e-02		-50.763		2.863e-03		10.853
7		0.00		2.00		1.423e-02		-53.240		3.023e-03		11.083
7		0.00		1.60		1.409e-02		-50.987		3.051e-03		9.478
7		0.00		1.20		1.346e-02		-52.080		2.909e-03		12.210
7		0.00		0.80		1.350e-02		-46.530		3.224e-03		12.609
7		0.00		0.40		1.358e-02		-50.417		3.096e-03		10.589
7		0.00		0.00		1.334e-02		-50.422		3.064e-03		10.484
7		0.00		-0.40		1.350e-02		-49.716		2.733e-03		10.558
7		0.00		-0.80		1.372e-02		-51.524		2.672e-03		9.717
7		0.00		-1.20		1.364e-02		-49.598		2.710e-03		11.792
7		0.00		-1.60		1.311e-02		-50.229		2.475e-03		10.861
7		0.00		-2.00		1.240e-02		-48.460		2.677e-03		11.783
7		0.00		-2.40		1.227e-02		-47.732		2.548e-03		12.760
7		0.00		-2.80		1.162e-02		-44.708		2.851e-03		13.392
7		0.00		-3.20		1.112e-02		-51.502		2.994e-03		13.001
7		0.00		-3.60		1.114e-02		-48.697		3.041e-03		11.754
7		0.00		-4.00		1.047e-02		-50.563		3.029e-03		11.535
7		0.00		-4.40		1.068e-02		-48.093		2.645e-03		11.571
7		0.00		-4.80		9.538e-03		-49.668		2.284e-03		14.168
7		0.00		-5.20		8.744e-03		-55.288		1.821e-03		13.013
7		0.00		-5.60		8.099e-03		-49.913		2.271e-03		14.414
7		0.00		-6.00		6.453e-03		-42.590		1.638e-03		18.185
7		0.00		-6.40		5.338e-03		-53.448		1.657e-03		18.493
7		0.00		-6.80		3.879e-03		-52.032		1.325e-03		22.526
7		0.00		-7.20		2.448e-03		-45.671		1.062e-03		41.638
7		0.00		-7.60		1.992e-03		-17.701		8.178e-04		82.676
7		0.00		-8.00		2.255e-03		57.864		9.941e-04		72.594
7		0.00		-8.40		4.108e-03		111.153		1.511e-03		30.023
7		0.00		-8.80		5.282e-03		115.729		1.625e-03		23.010
7		0.00		-9.20		8.840e-03		122.090		2.040e-03		11.285
7		0.00		-9.60		1.029e-02		122.511		2.363e-03		10.742
7		0.00		-10.00		1.246e-02		126.081		2.765e-03		10.706
7		0.00		-9.60		1.244e-02		124.946		3.162e-03		11.978
7		0.00		-9.20		1.305e-02		123.127		3.472e-03		19.633
7		0.00		-8.80		1.292e-02		120.234		3.501e-03		18.085
7		0.00		-8.40		1.341e-02		125.236		3.642e-03		11.592
7		0.00		-8.00		1.274e-02		124.207		3.293e-03		9.920
7		0.00		-7.60		1.350e-02		125.397		2.984e-03		8.963
7		0.00		-7.20		1.313e-02		124.846		2.914e-03		8.715
7		0.00		-6.80		1.318e-02		124.599		2.607e-03		9.947
7		0.00		-6.40		1.261e-02		125.001		2.619e-03		10.136
7		0.00		-6.00		1.264e-02		126.110		3.170e-03		11.761
7		0.00		-5.60		1.230e-02		122.565		3.316e-03		16.585
7		0.00		-5.20		1.197e-02		122.890		3.493e-03		18.292
7		0.00		-4.80		1.188e-02		123.699		3.302e-03		10.106
7		0.00		-4.40		1.158e-02		126.178		2.678e-03		9.807
7		0.00		-4.00		1.156e-02		123.846		2.322e-03		10.169
7		0.00		-3.60		1.178e-02		128.266		2.080e-03		10.491
7		0.00		-3.20		1.130e-02		129.748		2.209e-03		10.111
7		0.00		-2.80		1.100e-02		123.966		2.542e-03		12.482
7		0.00		-2.40		1.091e-02		126.751		2.764e-03		11.800
7		0.00		-2.00		1.132e-02		125.373		2.843e-03		11.416
7		0.00		-1.60		1.090e-02		129.330		2.831e-03		10.097
7		0.00		-1.20		1.059e-02		127.135		2.573e-03		10.985
7		0.00		-0.80		1.046e-02		127.298		2.371e-03		10.146
7		0.00		-0.40		1.033e-02		129.142		2.389e-03		10.226
8		0.00		0.00		1.043e-02		128.365		2.423e-03		12.793
8		0.00		0.40		9.814e-03		126.109		2.327e-03		14.343
8		0.00		0.80		9.523e-03		123.637		2.504e-03		20.199
8		0.00		1.20		9.366e-03		121.334		2.725e-03		24.432
8		0.00		1.60		8.952e-03		126.642		2.551e-03		11.704
8		0.00		2.00		8.441e-03		121.258		2.117e-03		10.499
8		0.00		2.40		8.012e-03		127.762		1.989e-03		12.520
8		0.00		2.80		7.582e-03		124.118		2.063e-03		13.266
8		0.00		3.20		6.637e-03		125.229		1.950e-03		12.681
8		0.00		3.60		5.950e-03		122.600		1.882e-03		19.922
8		0.00		4.00		4.860e-03		127.543		1.449e-03		22.228
8		0.00		4.40		4.055e-03		115.241		1.521e-03		34.710
8		0.00		4.80		3.362e-03		114.704		1.179e-03		46.914
8		0.00		5.20		3.076e-03		88.326		1.184e-03		71.153
8		0.00		5.60		2.121e-03		62.923		8.715e-04		70.717
8		0.00		6.00		1.669e-03		5.244		5.886e-04		87.040
8		0.00		6.40		2.033e-03		-17.150		7.539e-04		65.306
8		0.00		6.80		2.142e-03		-43.568		8.157e-04		61.663
8		0.00		7.20		2.628e-03		-54.299		1.041e-03		36.333
8		0.00		7.60		3.409e-03		-58.736		1.154e-03		24.843
8		0.00		8.00		4.645e-03		-42.542		1.579e-03		22.927
8		0.00		8.40		5.607e-03		-48.329		1.766e-03		20.260
8		0.00		8.80		6.936e-03		-54.881		1.854e-03		12.187
8		0.00		9.20		8.631e-03		-53.335		2.120e-03		13.260
8		0.00		9.60		1.134e-02		-53.409		2.463e-03		12.248
8		0.00		10.00		1.291e-02		-49.226		2.559e-03		12.050
8		0.00		9.60		1.406e-02		-49.948		3.372e-03		12.347
8		0.00		9.20		1.465e-02		-48.819		3.715e-03		12.254
8		0.00		8.80		1.442e-02		-49.866		4.335e-03		12.784
8		0.00		8.40		1.491e-02		-49.272		4.187e-03		11.974
8		0.00		8.00		1.458e-02		-56.834		3.833e-03		9.770
8		0.00		7.60		1.540e-02		-51.699		3.240e-03		10.298
8		0.00		7.20		1.540e-02		-51.908		2.725e-03		11.939
8		0.00		6.80		1.530e-02		-53.357		2.818e-03		11.183
8		0.00		6.40		1.463e-02		-50.151		3.241e-03		11.242
8		0.00		6.00		1.431e-02		-50.629		3.496e-03		14.752
8		0.00		5.60		1.437e-02		-48.329		3.497e-03		11.838
8		0.00		5.20		1.426e-02		-54.080		3.762e-03		11.748
8		0.00		4.80		1.387e-02		-52.091		3.303e-03		12.218
8		0.00		4.40		1.403e-02		-50.209		3.004e-03		10.923
8		0.00		4.00		1.426e-02		-51.779		2.919e-03		11.550
8		0.00		3.60		1.413e-02		-52.033		3.106e-03		11.164
8		0.00		3.20		1.370e-02		-52.500		3.346e-03		11.094
8		0.00		2.80		1.311e-02		-52.618		3.477e-03		13.269
8		0.00		2.40		1.293e-02		-48.698		3.947e-03		13.844
8		0.00		2.00		1.289e-02		-51.833		3.630e-03		14.994
8		0.00		1.60		1.313e-02		-50.758		3.416e-03		9.969
8		0.00		1.20		1.301e-02		-51.054		3.042e-03		9.926
8		0.00		0.80		1.282e-02		-52.718		3.051e-03		11.021
8		0.00		0.40		1.332e-02		-52.125		3.082e-03		11.181
8		0.00		0.00		1.298e-02		-53.375		3.262e-03		12.756
8		0.00		-0.40		1.265e-02		-49.174		3.564e-03		15.366
8		0.00		-0.80		1.241e-02		-49.612		3.429e-03		18.319
8		0.00		-1.20		1.229e-02		-50.132		3.126e-03		12.771
8		0.00		-1.60		1.250e-02		-51.978		2.990e-03		11.627
8		0.00		-2.00		1.232e-02		-50.015		2.660e-03		10.497
8		0.00		-2.40		1.185e-02		-52.757		2.660e-03		12.131
8		0.00		-2.80		1.158e-02		-49.850		2.666e-03		12.803
8		0.00		-3.20		1.147e-02		-47.223		2.814e-03		11.461
8		0.00		-3.60		1.101e-02		-51.458		2.773e-03		14.460
8		0.00		-4.00		1.086e-02		-53.588		2.935e-03		12.947
8		0.00		-4.40		1.072e-02		-51.811		2.352e-03		12.169
8		0.00		-4.80		9.809e-03		-48.189		1.990e-03		13.255
8		0.00		-5.20		9.268e-03		-49.866		1.948e-03		16.252
8		0.00		-5.60		7.741e-03		-48.807		1.907e-03		15.310
8		0.00		-6.00		6.374e-03		-50.856		1.938e-03		16.963
8		0.00		-6.40		5.190e-03		-41.000		1.881e-03		28.777
8		0.00		-6.80		4.026e-03		-46.337		1.450e-03		18.886
8		0.00		-7.20		2.896e-03		-55.442		1.123e-03		35.901
8		0.00		-7.60		1.975e-03		-34.435		9.161e-04		61.433
8		0.00		-8.00		2.144e-03		64.549		8.934e-04		76.567
8		0.00		-8.40		3.410e-03		110.918		1.080e-03		41.912
8		0.00		-8.80		5.487e-03		115.322		1.726e-03		22.881
8		0.00		-9.20		6.230e-03		119.382		1.891e-03		21.389
8		0.00		-9.60		8.532e-03		120.096		2.573e-03		19.420
8		0.00		-10.00		1.043e-02		124.077		3.021e-03		10.450
8		0.00		-9.60		1.174e-02		123.064		2.782e-03		9.808
8		0.00		-9.20		1.265e-02		124.295		2.568e-03		10.202
8		0.00		-8.80		1.270e-02		128.609		2.612e-03		11.674
8		0.00		-8.40		1.276e-02		129.256		2.781e-03		10.577
8		0.00		-8.00		1.291e-02		123.328		3.308e-03		15.156
8		0.00		-7.60		1.259e-02		124.031		3.447e-03		21.778
8		0.00		-7.20		1.209e-02		124.382		3.293e-03		12.355
8		0.00		-6.80		1.234e-02		125.235		3.256e-03		10.268
8		0.00		-6.40		1.191e-02		129.630		2.669e-03		10.642
8		0.00		-6.00		1.194e-02		124.091		2.796e-03		11.605
8		0.00		-5.60		1.152e-02		124.849		2.806e-03		12.591
8		0.00		-5.20		1.121e-02		130.960		3.132e-03		13.612
8		0.00		-4.80		1.100e-02		124.636		3.292e-03		17.605
8		0.00		-4.40		1.091e-02		120.770		3.271e-03		19.951
8		0.00		-4.00		1.081e-02		124.279		3.071e-03		12.027
8		0.00		-3.60		1.074e-02		127.066		2.732e-03		10.571
8		0.00		-3.20		1.083e-02		125.970		2.637e-03		10.829
8		0.00		-2.80		1.049e-02		125.223		2.613e-03		12.542
8		0.00		-2.40		1.028e-02		126.301		2.316e-03		12.510
8		0.00		-2.00		9.725e-03		127.814		2.471e-03		17.798
8		0.00		-1.60		9.651e-03		126.814		2.526e-03		21.114
8		0.00		-1.20		9.917e-03		127.042		2.609e-03		13.072
8		0.00		-0.80		9.758e-03		125.426		2.395e-03		12.023
8		0.00		-0.40		9.757e-03		127.831		2.255e-03		12.814
