# Date of analysis: 2024-03-08 10;58
# Segment other properties: height: -51.656608414286865, diff height: 525.1023631880959, deflection: 34.095072357625966, deflection error: 3.140416129286236, adhesion: 44.80448778278657, phase offset: 0
# 
# Loop index	Read Volt (V)	Write Volt (V)	Amplitude (a.u)	Phase (deg)	Sigma Amp (a.u)	Sigma Pha (deg)	
1		0.00		0.00		4.969e-02		-52.557		1.185e-02		8.364
1		0.00		0.40		4.953e-02		-52.471		1.114e-02		6.085
1		0.00		0.80		4.881e-02		-52.717		1.089e-02		5.016
1		0.00		1.20		4.902e-02		-52.301		9.909e-03		5.711
1		0.00		1.60		4.832e-02		-51.639		9.626e-03		4.954
1		0.00		2.00		4.824e-02		-51.894		8.825e-03		5.675
1		0.00		2.40		4.792e-02		-52.213		9.544e-03		7.142
1		0.00		2.80		4.685e-02		-52.550		9.186e-03		8.573
1		0.00		3.20		4.738e-02		-52.691		9.784e-03		7.943
1		0.00		3.60		4.707e-02		-52.940		1.046e-02		9.271
1		0.00		4.00		4.683e-02		-52.353		1.058e-02		10.588
1		0.00		4.40		4.750e-02		-50.462		1.024e-02		8.167
1		0.00		4.80		4.664e-02		-50.118		1.061e-02		9.921
1		0.00		5.20		4.718e-02		-50.992		1.130e-02		10.789
1		0.00		5.60		4.719e-02		-51.961		1.127e-02		9.019
1		0.00		6.00		4.712e-02		-52.229		1.147e-02		9.008
1		0.00		6.40		4.774e-02		-53.729		1.190e-02		7.313
1		0.00		6.80		4.887e-02		-52.398		1.102e-02		6.283
1		0.00		7.20		4.901e-02		-51.049		1.100e-02		6.361
1		0.00		7.60		5.006e-02		-51.449		1.036e-02		6.496
1		0.00		8.00		5.054e-02		-51.897		9.736e-03		6.121
1		0.00		8.40		5.127e-02		-52.270		1.026e-02		7.698
1		0.00		8.80		5.226e-02		-52.960		1.135e-02		9.754
1		0.00		9.20		5.273e-02		-51.520		1.194e-02		9.651
1		0.00		9.60		5.328e-02		-52.251		1.206e-02		8.911
1		0.00		10.00		5.559e-02		-52.855		1.368e-02		10.613
1		0.00		9.60		5.470e-02		-51.538		1.491e-02		12.285
1		0.00		9.20		5.277e-02		-50.875		1.492e-02		13.945
1		0.00		8.80		5.323e-02		-50.641		1.549e-02		8.826
1		0.00		8.40		5.322e-02		-52.112		1.524e-02		12.001
1		0.00		8.00		5.405e-02		-52.194		1.516e-02		10.374
1		0.00		7.60		5.487e-02		-52.423		1.510e-02		10.305
1		0.00		7.20		5.421e-02		-53.114		1.436e-02		8.714
1		0.00		6.80		5.497e-02		-52.820		1.373e-02		6.986
1		0.00		6.40		5.477e-02		-51.830		1.265e-02		5.541
1		0.00		6.00		5.402e-02		-51.768		1.141e-02		5.857
1		0.00		5.60		5.374e-02		-51.359		1.068e-02		6.052
1		0.00		5.20		5.261e-02		-51.105		9.872e-03		5.575
1		0.00		4.80		5.162e-02		-51.776		9.713e-03		6.754
1		0.00		4.40		5.058e-02		-51.651		9.792e-03		7.050
1		0.00		4.00		4.940e-02		-52.621		1.005e-02		7.451
1		0.00		3.60		4.856e-02		-51.688		1.104e-02		7.650
1		0.00		3.20		4.784e-02		-52.225		1.238e-02		9.171
1		0.00		2.80		4.738e-02		-53.025		1.344e-02		10.650
1		0.00		2.40		4.705e-02		-51.463		1.395e-02		8.225
1		0.00		2.00		4.608e-02		-52.473		1.399e-02		12.483
1		0.00		1.60		4.636e-02		-54.149		1.422e-02		13.330
1		0.00		1.20		4.641e-02		-54.228		1.426e-02		10.487
1		0.00		0.80		4.574e-02		-52.802		1.371e-02		7.074
1		0.00		0.40		4.596e-02		-53.306		1.273e-02		5.942
1		0.00		0.00		4.723e-02		-52.748		1.164e-02		5.463
1		0.00		-0.40		4.748e-02		-51.806		1.025e-02		5.363
1		0.00		-0.80		4.581e-02		-52.598		9.245e-03		6.148
1		0.00		-1.20		4.575e-02		-51.447		9.447e-03		7.385
1		0.00		-1.60		4.252e-02		-52.938		9.072e-03		7.877
1		0.00		-2.00		4.149e-02		-52.200		8.786e-03		6.911
1		0.00		-2.40		3.901e-02		-51.108		8.498e-03		7.221
1		0.00		-2.80		3.580e-02		-51.860		9.134e-03		9.633
1		0.00		-3.20		3.253e-02		-51.157		8.414e-03		9.966
1		0.00		-3.60		2.831e-02		-51.529		7.827e-03		13.136
1		0.00		-4.00		2.525e-02		-49.667		7.250e-03		10.266
1		0.00		-4.40		2.037e-02		-50.111		6.269e-03		13.798
1		0.00		-4.80		1.585e-02		-49.744		4.800e-03		9.885
1		0.00		-5.20		1.176e-02		-46.913		3.833e-03		12.413
1		0.00		-5.60		7.186e-03		-47.504		2.626e-03		17.521
1		0.00		-6.00		4.199e-03		-39.892		2.296e-03		39.851
1		0.00		-6.40		2.786e-03		-9.681		1.298e-03		67.293
1		0.00		-6.80		2.819e-03		59.433		1.834e-03		72.400
1		0.00		-7.20		4.920e-03		104.832		2.451e-03		42.755
1		0.00		-7.60		6.676e-03		120.523		2.713e-03		26.253
1		0.00		-8.00		9.612e-03		123.261		3.425e-03		15.913
1		0.00		-8.40		1.180e-02		120.939		3.687e-03		20.261
1		0.00		-8.80		1.243e-02		120.890		4.074e-03		19.717
1		0.00		-9.20		1.499e-02		123.932		4.433e-03		17.694
1		0.00		-9.60		1.642e-02		124.019		5.115e-03		10.841
1		0.00		-10.00		1.833e-02		124.295		5.185e-03		9.623
1		0.00		-9.60		1.798e-02		125.609		4.784e-03		10.008
1		0.00		-9.20		1.876e-02		125.781		4.720e-03		8.348
1		0.00		-8.80		1.772e-02		124.811		3.981e-03		8.465
1		0.00		-8.40		1.770e-02		126.113		4.076e-03		8.532
1		0.00		-8.00		1.692e-02		126.353		4.025e-03		9.908
1		0.00		-7.60		1.589e-02		124.454		4.191e-03		10.936
1		0.00		-7.20		1.508e-02		124.032		4.591e-03		15.698
1		0.00		-6.80		1.444e-02		121.614		4.701e-03		19.551
1		0.00		-6.40		1.341e-02		121.924		4.211e-03		23.438
1		0.00		-6.00		1.250e-02		122.048		4.414e-03		16.116
1		0.00		-5.60		1.129e-02		123.945		3.468e-03		13.123
1		0.00		-5.20		1.085e-02		126.404		3.271e-03		11.233
1		0.00		-4.80		9.834e-03		125.257		2.867e-03		10.544
1		0.00		-4.40		9.194e-03		123.371		2.760e-03		10.919
1		0.00		-4.00		8.944e-03		125.143		2.562e-03		10.279
1		0.00		-3.60		8.278e-03		125.363		2.529e-03		11.292
1		0.00		-3.20		7.772e-03		122.584		2.603e-03		14.946
1		0.00		-2.80		7.012e-03		118.019		2.252e-03		24.452
1		0.00		-2.40		6.993e-03		125.191		2.271e-03		22.036
1		0.00		-2.00		6.206e-03		119.408		2.133e-03		27.272
1		0.00		-1.60		6.072e-03		121.550		2.077e-03		17.950
1		0.00		-1.20		5.020e-03		119.873		1.871e-03		34.894
1		0.00		-0.80		4.461e-03		116.320		1.742e-03		33.371
1		0.00		-0.40		3.983e-03		115.839		1.466e-03		36.371
2		0.00		0.00		4.084e-03		115.077		1.603e-03		43.501
2		0.00		0.40		3.799e-03		107.585		1.691e-03		52.986
2		0.00		0.80		2.931e-03		83.273		1.315e-03		73.902
2		0.00		1.20		2.527e-03		68.364		1.187e-03		76.987
2		0.00		1.60		2.341e-03		56.304		1.040e-03		86.737
2		0.00		2.00		2.017e-03		35.538		9.242e-04		87.587
2		0.00		2.40		1.944e-03		-10.956		8.194e-04		74.225
2		0.00		2.80		2.035e-03		-51.704		7.930e-04		64.586
2		0.00		3.20		2.868e-03		-85.035		1.053e-03		31.111
2		0.00		3.60		3.025e-03		-68.076		1.199e-03		35.784
2		0.00		4.00		4.355e-03		-59.969		1.486e-03		24.407
2		0.00		4.40		5.424e-03		-59.574		1.581e-03		18.885
2		0.00		4.80		6.900e-03		-48.206		1.995e-03		20.051
2		0.00		5.20		8.515e-03		-55.667		2.406e-03		17.061
2		0.00		5.60		1.038e-02		-57.876		2.734e-03		14.788
2		0.00		6.00		1.271e-02		-53.516		2.921e-03		10.884
2		0.00		6.40		1.482e-02		-52.181		3.162e-03		9.883
2		0.00		6.80		1.673e-02		-51.727		3.497e-03		10.050
2		0.00		7.20		1.909e-02		-54.812		4.000e-03		10.468
2		0.00		7.60		2.264e-02		-52.773		5.353e-03		9.848
2		0.00		8.00		2.536e-02		-51.853		6.453e-03		11.578
2		0.00		8.40		2.917e-02		-53.178		7.492e-03		12.499
2		0.00		8.80		3.360e-02		-54.145		9.371e-03		14.153
2		0.00		9.20		3.786e-02		-53.187		1.048e-02		8.191
2		0.00		9.60		4.322e-02		-53.397		1.102e-02		6.157
2		0.00		10.00		4.726e-02		-51.721		1.140e-02		6.040
2		0.00		9.60		4.891e-02		-52.996		1.113e-02		5.999
2		0.00		9.20		4.806e-02		-52.683		1.183e-02		8.928
2		0.00		8.80		4.806e-02		-53.693		1.274e-02		7.886
2		0.00		8.40		4.711e-02		-53.511		1.339e-02		11.775
2		0.00		8.00		4.641e-02		-53.360		1.394e-02		14.225
2		0.00		7.60		4.571e-02		-54.326		1.365e-02		14.981
2		0.00		7.20		4.607e-02		-53.808		1.302e-02		8.450
2		0.00		6.80		4.714e-02		-53.258		1.151e-02		6.071
2		0.00		6.40		4.688e-02		-51.600		9.713e-03		5.387
2		0.00		6.00		4.662e-02		-51.706		8.661e-03		5.532
2		0.00		5.60		4.511e-02		-51.358		8.654e-03		5.681
2		0.00		5.20		4.454e-02		-51.208		9.446e-03		9.092
2		0.00		4.80		4.372e-02		-51.735		9.990e-03		6.912
2		0.00		4.40		4.358e-02		-51.517		1.039e-02		7.530
2		0.00		4.00		4.267e-02		-51.766		1.094e-02		11.746
2		0.00		3.60		4.271e-02		-52.889		1.134e-02		11.553
2		0.00		3.20		4.269e-02		-53.338		1.139e-02		7.737
2		0.00		2.80		4.225e-02		-51.491		1.087e-02		6.261
2		0.00		2.40		4.212e-02		-52.788		1.008e-02		5.324
2		0.00		2.00		4.316e-02		-51.640		9.350e-03		5.060
2		0.00		1.60		4.292e-02		-51.724		8.599e-03		5.588
2		0.00		1.20		4.227e-02		-51.111		8.722e-03		6.033
2		0.00		0.80		4.184e-02		-51.874		8.278e-03		6.957
2		0.00		0.40		4.137e-02		-52.349		9.025e-03		7.191
2		0.00		0.00		4.132e-02		-51.681		9.452e-03		8.505
2		0.00		-0.40		4.084e-02		-50.976		1.019e-02		7.880
2		0.00		-0.80		4.098e-02		-50.390		1.011e-02		9.512
2		0.00		-1.20		4.032e-02		-51.893		9.926e-03		11.174
2		0.00		-1.60		3.899e-02		-52.945		9.534e-03		10.424
2		0.00		-2.00		3.585e-02		-52.880		8.895e-03		9.368
2		0.00		-2.40		3.269e-02		-52.556		7.566e-03		6.862
2		0.00		-2.80		3.027e-02		-52.799		6.374e-03		5.478
2		0.00		-3.20		2.719e-02		-51.121		5.362e-03		7.151
2		0.00		-3.60		2.332e-02		-50.831		4.553e-03		7.037
2		0.00		-4.00		1.895e-02		-49.705		3.569e-03		8.675
2		0.00		-4.40		1.490e-02		-48.613		3.324e-03		11.245
2		0.00		-4.80		1.251e-02		-53.208		2.625e-03		10.403
2		0.00		-5.20		8.376e-03		-51.484		2.475e-03		14.976
2		0.00		-5.60		5.775e-03		-40.334		2.207e-03		20.719
2		0.00		-6.00		3.232e-03		-42.044		1.454e-03		38.731
2		0.00		-6.40		2.225e-03		27.597		1.016e-03		72.857
2		0.00		-6.80		3.998e-03		104.451		1.888e-03		43.193
2		0.00		-7.20		6.811e-03		116.703		2.409e-03		37.753
2		0.00		-7.60		8.422e-03		123.015		2.950e-03		23.362
2		0.00		-8.00		1.130e-02		123.968		3.570e-03		14.317
2		0.00		-8.40		1.200e-02		123.945		3.636e-03		11.587
2		0.00		-8.80		1.367e-02		124.390		4.036e-03		9.697
2		0.00		-9.20		1.487e-02		126.315		4.017e-03		8.246
2		0.00		-9.60		1.619e-02		127.083		3.775e-03		7.734
2		0.00		-10.00		1.731e-02		125.845		4.021e-03		7.741
2		0.00		-9.60		1.654e-02		125.856		3.695e-03		8.005
2		0.00		-9.20		1.726e-02		126.078		3.581e-03		7.216
2		0.00		-8.80		1.669e-02		127.882		3.557e-03		9.167
2		0.00		-8.40		1.631e-02		125.882		3.641e-03		9.075
2		0.00		-8.00		1.561e-02		127.548		3.528e-03		8.019
2		0.00		-7.60		1.518e-02		126.078		3.438e-03		9.790
2		0.00		-7.20		1.462e-02		127.689		3.586e-03		11.802
2		0.00		-6.80		1.406e-02		126.610		3.463e-03		14.040
2		0.00		-6.40		1.315e-02		123.732		3.731e-03		19.704
2		0.00		-6.00		1.275e-02		123.484		3.674e-03		14.910
2		0.00		-5.60		1.182e-02		124.548		3.350e-03		17.992
2		0.00		-5.20		1.096e-02		125.326		3.426e-03		15.687
2		0.00		-4.80		9.742e-03		120.337		3.194e-03		16.555
2		0.00		-4.40		8.936e-03		121.253		2.940e-03		15.963
2		0.00		-4.00		8.752e-03		125.595		2.791e-03		12.379
2		0.00		-3.60		7.968e-03		120.251		2.291e-03		14.741
2		0.00		-3.20		7.539e-03		125.588		2.320e-03		13.497
2		0.00		-2.80		6.965e-03		127.847		2.268e-03		14.726
2		0.00		-2.40		6.491e-03		122.589		1.723e-03		17.254
2		0.00		-2.00		6.120e-03		123.337		1.727e-03		17.185
2		0.00		-1.60		5.232e-03		125.834		1.569e-03		21.282
2		0.00		-1.20		4.615e-03		125.791		1.333e-03		19.221
2		0.00		-0.80		4.477e-03		119.939		1.668e-03		36.534
2		0.00		-0.40		3.707e-03		111.025		1.429e-03		37.083
3		0.00		0.00		3.406e-03		111.284		1.259e-03		40.160
3		0.00		0.40		3.067e-03		93.528		1.224e-03		56.993
3		0.00		0.80		2.849e-03		99.493		1.107e-03		67.400
3		0.00		1.20		2.562e-03		65.825		1.113e-03		76.592
3		0.00		1.60		2.134e-03		37.262		9.172e-04		82.064
3		0.00		2.00		1.916e-03		24.781		8.229e-04		91.556
3		0.00		2.40		1.953e-03		-21.863		7.650e-04		66.014
3		0.00		2.80		1.997e-03		-45.131		7.289e-04		53.228
3		0.00		3.20		2.867e-03		-47.603		1.122e-03		39.985
3		0.00		3.60		3.583e-03		-49.607		1.375e-03		39.814
3		0.00		4.00		4.281e-03		-53.960		1.360e-03		24.358
3		0.00		4.40		5.225e-03		-60.789		1.808e-03		23.870
3		0.00		4.80		6.406e-03		-60.266		1.886e-03		19.333
3		0.00		5.20		7.904e-03		-51.661		2.018e-03		17.608
3		0.00		5.60		9.250e-03		-54.342		2.273e-03		14.471
3		0.00		6.00		1.048e-02		-52.907		2.303e-03		10.628
3		0.00		6.40		1.216e-02		-53.738		2.630e-03		11.149
3		0.00		6.80		1.449e-02		-54.483		2.845e-03		10.158
3		0.00		7.20		1.650e-02		-50.910		3.025e-03		9.758
3		0.00		7.60		1.958e-02		-52.263		3.420e-03		9.281
3		0.00		8.00		2.254e-02		-53.703		3.910e-03		8.512
3		0.00		8.40		2.633e-02		-51.542		4.613e-03		7.738
3		0.00		8.80		3.077e-02		-52.473		5.092e-03		6.522
3		0.00		9.20		3.412e-02		-51.746		5.969e-03		6.131
3		0.00		9.60		3.806e-02		-52.023		7.058e-03		6.653
3		0.00		10.00		4.134e-02		-52.635		7.674e-03		6.653
3		0.00		9.60		4.277e-02		-51.676		7.891e-03		6.355
3		0.00		9.20		4.299e-02		-52.659		8.498e-03		7.481
3		0.00		8.80		4.375e-02		-51.509		9.148e-03		6.442
3		0.00		8.40		4.279e-02		-52.090		9.615e-03		7.939
3		0.00		8.00		4.218e-02		-52.986		9.187e-03		8.176
3		0.00		7.60		4.191e-02		-51.678		9.762e-03		9.821
3		0.00		7.20		4.210e-02		-50.829		1.001e-02		9.461
3		0.00		6.80		4.205e-02		-51.447		9.872e-03		8.738
3		0.00		6.40		4.132e-02		-51.724		9.977e-03		11.700
3		0.00		6.00		4.077e-02		-52.156		9.874e-03		12.723
3		0.00		5.60		4.119e-02		-52.176		1.032e-02		12.079
3		0.00		5.20		4.071e-02		-53.149		1.014e-02		9.791
3		0.00		4.80		4.070e-02		-52.911		9.901e-03		8.360
3		0.00		4.40		4.009e-02		-53.479		9.321e-03		6.353
3		0.00		4.00		4.028e-02		-53.502		9.021e-03		6.243
3		0.00		3.60		4.051e-02		-51.951		8.202e-03		5.332
3		0.00		3.20		3.964e-02		-52.150		8.275e-03		6.684
3		0.00		2.80		3.984e-02		-52.721		8.125e-03		5.645
3		0.00		2.40		3.903e-02		-51.135		7.781e-03		5.470
3		0.00		2.00		3.897e-02		-51.501		7.539e-03		5.884
3		0.00		1.60		3.892e-02		-52.123		7.720e-03		6.173
3		0.00		1.20		3.891e-02		-51.085		7.682e-03		6.811
3		0.00		0.80		3.841e-02		-52.425		7.386e-03		6.710
3		0.00		0.40		3.830e-02		-52.358		7.740e-03		7.159
3		0.00		0.00		3.790e-02		-51.404		8.146e-03		7.100
3		0.00		-0.40		3.796e-02		-50.582		7.770e-03		6.047
3		0.00		-0.80		3.673e-02		-49.982		7.674e-03		7.183
3		0.00		-1.20		3.678e-02		-52.012		7.194e-03		7.764
3		0.00		-1.60		3.647e-02		-50.713		7.612e-03		9.001
3		0.00		-2.00		3.525e-02		-49.959		7.663e-03		8.226
3		0.00		-2.40		3.328e-02		-50.841		7.479e-03		10.126
3		0.00		-2.80		3.053e-02		-50.721		6.964e-03		10.011
3		0.00		-3.20		2.555e-02		-51.724		5.782e-03		10.496
3		0.00		-3.60		2.254e-02		-50.183		5.201e-03		10.553
3		0.00		-4.00		1.844e-02		-50.262		4.587e-03		10.994
3		0.00		-4.40		1.604e-02		-49.158		4.273e-03		12.806
3		0.00		-4.80		1.310e-02		-46.512		3.735e-03		9.934
3		0.00		-5.20		9.387e-03		-47.532		2.845e-03		13.874
3		0.00		-5.60		6.095e-03		-51.281		2.390e-03		16.547
3		0.00		-6.00		4.139e-03		-39.259		2.093e-03		38.742
3		0.00		-6.40		2.157e-03		14.328		1.019e-03		67.055
3		0.00		-6.80		3.577e-03		102.712		1.730e-03		39.472
3		0.00		-7.20		5.536e-03		117.531		2.089e-03		21.370
3		0.00		-7.60		7.958e-03		124.169		2.645e-03		14.000
3		0.00		-8.00		1.028e-02		121.965		3.213e-03		12.101
3		0.00		-8.40		1.160e-02		121.594		3.353e-03		11.162
3		0.00		-8.80		1.333e-02		122.773		3.647e-03		10.787
3		0.00		-9.20		1.505e-02		126.688		3.826e-03		8.756
3		0.00		-9.60		1.573e-02		126.000		3.798e-03		7.841
3		0.00		-10.00		1.664e-02		124.967		3.910e-03		9.644
3		0.00		-9.60		1.711e-02		124.750		3.764e-03		8.523
3		0.00		-9.20		1.717e-02		127.385		3.829e-03		7.717
3		0.00		-8.80		1.677e-02		126.057		3.215e-03		8.097
3		0.00		-8.40		1.695e-02		126.558		3.581e-03		8.732
3		0.00		-8.00		1.615e-02		125.791		3.340e-03		9.143
3		0.00		-7.60		1.596e-02		125.363		3.537e-03		8.598
3		0.00		-7.20		1.458e-02		125.774		3.429e-03		8.215
3		0.00		-6.80		1.390e-02		126.593		3.350e-03		9.403
3		0.00		-6.40		1.324e-02		126.247		3.059e-03		8.459
3		0.00		-6.00		1.255e-02		128.103		3.165e-03		9.087
3		0.00		-5.60		1.182e-02		125.621		2.926e-03		10.168
3		0.00		-5.20		1.083e-02		123.847		2.560e-03		10.778
3		0.00		-4.80		9.963e-03		126.689		2.584e-03		13.417
3		0.00		-4.40		9.290e-03		122.127		2.598e-03		10.852
3		0.00		-4.00		9.125e-03		127.448		2.265e-03		12.521
3		0.00		-3.60		8.729e-03		126.391		2.216e-03		12.604
3		0.00		-3.20		8.295e-03		128.365		2.140e-03		12.278
3		0.00		-2.80		7.714e-03		128.470		1.898e-03		12.459
3		0.00		-2.40		7.044e-03		122.568		1.947e-03		21.103
3		0.00		-2.00		6.643e-03		124.693		1.878e-03		13.631
3		0.00		-1.60		6.119e-03		126.836		1.759e-03		14.384
3		0.00		-1.20		4.846e-03		123.638		1.549e-03		20.568
3		0.00		-0.80		4.781e-03		124.446		1.632e-03		21.728
3		0.00		-0.40		4.511e-03		125.673		1.485e-03		20.424
4		0.00		0.00		4.351e-03		118.317		1.531e-03		30.524
4		0.00		0.40		3.648e-03		104.576		1.456e-03		50.733
4		0.00		0.80		3.100e-03		99.211		1.470e-03		64.514
4		0.00		1.20		2.678e-03		70.054		1.015e-03		76.059
4		0.00		1.60		2.180e-03		66.443		1.100e-03		75.744
4		0.00		2.00		1.910e-03		18.012		7.512e-04		85.598
4		0.00		2.40		1.761e-03		-16.203		7.768e-04		84.897
4		0.00		2.80		2.209e-03		-46.372		9.041e-04		63.866
4		0.00		3.20		2.497e-03		-66.612		1.018e-03		40.780
4		0.00		3.60		3.546e-03		-65.995		1.219e-03		24.806
4		0.00		4.00		4.458e-03		-58.245		1.278e-03		19.202
4		0.00		4.40		5.612e-03		-60.043		1.542e-03		16.313
4		0.00		4.80		6.452e-03		-50.081		1.431e-03		15.925
4		0.00		5.20		7.529e-03		-57.028		1.634e-03		11.989
4		0.00		5.60		8.929e-03		-50.870		1.768e-03		14.175
4		0.00		6.00		1.063e-02		-54.605		2.052e-03		10.942
4		0.00		6.40		1.288e-02		-56.736		2.318e-03		10.348
4		0.00		6.80		1.425e-02		-52.055		2.327e-03		9.695
4		0.00		7.20		1.612e-02		-54.501		2.983e-03		9.557
4		0.00		7.60		1.856e-02		-51.882		3.425e-03		8.333
4		0.00		8.00		2.146e-02		-51.619		4.145e-03		7.673
4		0.00		8.40		2.376e-02		-50.778		4.916e-03		7.611
4		0.00		8.80		2.766e-02		-52.689		5.643e-03		6.302
4		0.00		9.20		3.067e-02		-52.610		6.510e-03		6.558
4		0.00		9.60		3.431e-02		-52.615		7.636e-03		6.450
4		0.00		10.00		3.844e-02		-53.686		8.578e-03		6.142
4		0.00		9.60		4.026e-02		-52.056		9.714e-03		6.563
4		0.00		9.20		4.076e-02		-52.446		1.001e-02		7.443
4		0.00		8.80		4.082e-02		-51.620		9.697e-03		7.725
4		0.00		8.40		4.117e-02		-52.647		9.589e-03		8.172
4		0.00		8.00		4.097e-02		-51.915		9.367e-03		7.648
4		0.00		7.60		4.014e-02		-51.935		9.339e-03		7.956
4		0.00		7.20		4.003e-02		-52.344		9.442e-03		9.087
4		0.00		6.80		3.941e-02		-52.428		9.445e-03		9.213
4		0.00		6.40		3.912e-02		-50.762		8.819e-03		10.200
4		0.00		6.00		3.861e-02		-51.326		8.775e-03		9.784
4		0.00		5.60		3.812e-02		-51.913		8.457e-03		13.020
4		0.00		5.20		3.768e-02		-51.549		7.981e-03		10.638
4		0.00		4.80		3.709e-02		-51.579		7.703e-03		12.392
4		0.00		4.40		3.686e-02		-49.850		7.396e-03		8.210
4		0.00		4.00		3.580e-02		-49.705		7.138e-03		7.798
4		0.00		3.60		3.634e-02		-50.472		6.679e-03		7.006
4		0.00		3.20		3.703e-02		-51.931		7.297e-03		7.161
4		0.00		2.80		3.657e-02		-49.910		6.323e-03		7.044
4		0.00		2.40		3.643e-02		-51.635		6.079e-03		6.205
4		0.00		2.00		3.651e-02		-51.052		6.126e-03		5.373
4		0.00		1.60		3.681e-02		-52.444		6.041e-03		6.282
4		0.00		1.20		3.704e-02		-51.198		5.655e-03		5.372
4		0.00		0.80		3.674e-02		-52.063		5.603e-03		4.826
4		0.00		0.40		3.607e-02		-52.190		5.828e-03		5.998
4		0.00		0.00		3.620e-02		-52.906		6.164e-03		5.793
4		0.00		-0.40		3.629e-02		-52.603		6.551e-03		6.085
4		0.00		-0.80		3.537e-02		-53.767		6.970e-03		6.905
4		0.00		-1.20		3.397e-02		-52.740		7.367e-03		7.915
4		0.00		-1.60		3.288e-02		-51.847		7.519e-03		7.933
4		0.00		-2.00		3.158e-02		-51.215		7.425e-03		8.693
4		0.00		-2.40		2.993e-02		-50.342		7.200e-03		8.326
4		0.00		-2.80		2.695e-02		-50.344		6.679e-03		10.579
4		0.00		-3.20		2.336e-02		-52.503		5.993e-03		12.808
4		0.00		-3.60		2.078e-02		-51.879		5.236e-03		11.349
4		0.00		-4.00		1.811e-02		-50.766		4.370e-03		11.504
4		0.00		-4.40		1.496e-02		-48.174		3.292e-03		11.127
4		0.00		-4.80		1.169e-02		-50.421		2.876e-03		13.086
4		0.00		-5.20		8.491e-03		-53.487		2.322e-03		11.899
4		0.00		-5.60		5.529e-03		-43.653		1.994e-03		22.176
4		0.00		-6.00		3.011e-03		-48.238		1.292e-03		39.686
4		0.00		-6.40		2.350e-03		40.297		1.205e-03		83.793
4		0.00		-6.80		4.231e-03		109.409		1.764e-03		44.746
4		0.00		-7.20		6.432e-03		123.180		2.058e-03		13.144
4		0.00		-7.60		8.259e-03		126.600		2.523e-03		11.398
4		0.00		-8.00		9.813e-03		125.894		2.560e-03		9.729
4		0.00		-8.40		1.207e-02		125.215		2.962e-03		9.339
4		0.00		-8.80		1.319e-02		125.139		3.604e-03		13.766
4		0.00		-9.20		1.444e-02		125.749		3.771e-03		13.712
4		0.00		-9.60		1.549e-02		124.160		3.952e-03		15.569
4		0.00		-10.00		1.647e-02		122.987		4.187e-03		16.371
4		0.00		-9.60		1.670e-02		126.324		4.398e-03		13.866
4		0.00		-9.20		1.637e-02		126.847		4.122e-03		13.930
4		0.00		-8.80		1.665e-02		126.817		3.769e-03		10.769
4		0.00		-8.40		1.655e-02		127.043		3.652e-03		9.230
4		0.00		-8.00		1.665e-02		127.731		3.376e-03		9.927
4		0.00		-7.60		1.652e-02		126.770		3.352e-03		7.354
4		0.00		-7.20		1.567e-02		126.399		3.146e-03		8.967
4		0.00		-6.80		1.539e-02		127.342		2.883e-03		8.744
4		0.00		-6.40		1.451e-02		127.127		3.095e-03		8.745
4		0.00		-6.00		1.351e-02		128.214		3.004e-03		9.470
4		0.00		-5.60		1.315e-02		124.018		3.027e-03		9.429
4		0.00		-5.20		1.209e-02		125.216		3.056e-03		10.764
4		0.00		-4.80		1.111e-02		125.338		2.883e-03		13.999
4		0.00		-4.40		1.053e-02		125.326		2.715e-03		13.840
4		0.00		-4.00		9.873e-03		125.031		2.678e-03		17.413
4		0.00		-3.60		9.020e-03		124.784		2.436e-03		16.678
4		0.00		-3.20		8.154e-03		127.346		2.353e-03		20.164
4		0.00		-2.80		7.933e-03		127.932		2.155e-03		16.424
4		0.00		-2.40		7.215e-03		127.872		2.189e-03		18.220
4		0.00		-2.00		6.564e-03		123.792		1.864e-03		19.197
4		0.00		-1.60		6.312e-03		119.962		1.915e-03		24.548
4		0.00		-1.20		6.101e-03		122.403		1.746e-03		18.079
4		0.00		-0.80		5.674e-03		122.624		1.743e-03		15.330
4		0.00		-0.40		4.970e-03		124.604		1.543e-03		19.191
5		0.00		0.00		4.409e-03		122.662		1.674e-03		21.975
5		0.00		0.40		4.084e-03		121.689		1.367e-03		32.971
5		0.00		0.80		3.847e-03		110.012		1.236e-03		58.670
5		0.00		1.20		3.135e-03		107.990		1.453e-03		44.854
5		0.00		1.60		2.860e-03		99.930		1.313e-03		55.386
5		0.00		2.00		2.662e-03		60.064		1.155e-03		89.196
5		0.00		2.40		2.046e-03		35.367		8.791e-04		83.221
5		0.00		2.80		1.913e-03		-11.759		7.225e-04		84.221
5		0.00		3.20		1.957e-03		-36.942		8.545e-04		66.227
5		0.00		3.60		2.427e-03		-63.566		1.012e-03		49.567
5		0.00		4.00		3.389e-03		-40.053		1.250e-03		30.518
5		0.00		4.40		3.885e-03		-53.189		1.271e-03		26.433
5		0.00		4.80		5.393e-03		-52.361		1.419e-03		19.822
5		0.00		5.20		6.529e-03		-47.214		1.458e-03		16.466
5		0.00		5.60		7.820e-03		-52.272		1.760e-03		14.962
5		0.00		6.00		9.464e-03		-51.414		1.916e-03		12.688
5		0.00		6.40		1.092e-02		-54.968		2.184e-03		10.156
5		0.00		6.80		1.385e-02		-54.284		3.343e-03		11.822
5		0.00		7.20		1.537e-02		-50.037		3.651e-03		9.428
5		0.00		7.60		1.760e-02		-53.791		4.408e-03		9.297
5		0.00		8.00		1.927e-02		-50.874		5.023e-03		11.877
5		0.00		8.40		2.266e-02		-51.216		5.430e-03		9.916
5		0.00		8.80		2.576e-02		-49.711		5.293e-03		9.136
5		0.00		9.20		2.877e-02		-51.415		5.550e-03		8.027
5		0.00		9.60		3.248e-02		-51.397		5.656e-03		8.710
5		0.00		10.00		3.646e-02		-52.292		6.248e-03		6.988
5		0.00		9.60		3.941e-02		-51.366		6.459e-03		6.157
5		0.00		9.20		3.989e-02		-51.240		6.654e-03		6.420
5		0.00		8.80		4.042e-02		-51.306		7.229e-03		5.375
5		0.00		8.40		3.963e-02		-52.964		8.241e-03		7.174
5		0.00		8.00		3.885e-02		-52.053		9.019e-03		8.227
5		0.00		7.60		3.792e-02		-51.192		9.696e-03		10.925
5		0.00		7.20		3.779e-02		-52.022		9.303e-03		12.598
5		0.00		6.80		3.715e-02		-51.449		9.280e-03		10.393
5		0.00		6.40		3.714e-02		-51.888		7.759e-03		7.121
5		0.00		6.00		3.765e-02		-50.658		7.299e-03		6.896
5		0.00		5.60		3.736e-02		-52.439		6.472e-03		6.521
5		0.00		5.20		3.741e-02		-51.449		6.217e-03		6.470
5		0.00		4.80		3.686e-02		-51.311		6.474e-03		6.156
5		0.00		4.40		3.595e-02		-51.856		6.454e-03		6.048
5		0.00		4.00		3.546e-02		-53.424		7.131e-03		7.129
5		0.00		3.60		3.505e-02		-51.693		7.716e-03		8.806
5		0.00		3.20		3.437e-02		-50.833		7.919e-03		9.189
5		0.00		2.80		3.376e-02		-51.316		7.779e-03		11.698
5		0.00		2.40		3.412e-02		-49.993		7.094e-03		8.798
5		0.00		2.00		3.373e-02		-50.282		6.600e-03		8.335
5		0.00		1.60		3.439e-02		-50.451		5.983e-03		6.308
5		0.00		1.20		3.504e-02		-50.951		5.725e-03		6.255
5		0.00		0.80		3.497e-02		-50.750		5.289e-03		6.467
5		0.00		0.40		3.522e-02		-52.227		5.498e-03		6.106
5		0.00		0.00		3.437e-02		-51.789		5.744e-03		5.881
5		0.00		-0.40		3.410e-02		-52.937		6.551e-03		6.499
5		0.00		-0.80		3.312e-02		-51.527		7.773e-03		8.498
5		0.00		-1.20		3.252e-02		-51.849		7.965e-03		9.204
5		0.00		-1.60		3.153e-02		-51.970		7.771e-03		10.959
5		0.00		-2.00		3.094e-02		-50.659		6.781e-03		9.754
5		0.00		-2.40		2.945e-02		-50.580		5.718e-03		7.769
5		0.00		-2.80		2.845e-02		-51.420		4.550e-03		6.579
5		0.00		-3.20		2.660e-02		-52.495		4.106e-03		7.199
5		0.00		-3.60		2.327e-02		-52.345		3.323e-03		6.316
5		0.00		-4.00		1.928e-02		-51.163		3.129e-03		8.407
5		0.00		-4.40		1.583e-02		-48.373		3.340e-03		8.748
5		0.00		-4.80		1.250e-02		-48.072		3.135e-03		12.315
5		0.00		-5.20		8.049e-03		-46.042		2.308e-03		13.624
5		0.00		-5.60		5.402e-03		-46.401		1.918e-03		26.596
5		0.00		-6.00		3.331e-03		-36.730		1.523e-03		44.535
5		0.00		-6.40		2.214e-03		-17.917		9.152e-04		81.017
5		0.00		-6.80		4.027e-03		112.847		1.677e-03		40.316
5		0.00		-7.20		6.815e-03		123.133		2.237e-03		14.781
5		0.00		-7.60		8.810e-03		127.166		2.341e-03		12.619
5		0.00		-8.00		1.007e-02		126.564		3.085e-03		9.849
5		0.00		-8.40		1.155e-02		125.383		3.516e-03		10.555
5		0.00		-8.80		1.371e-02		121.478		4.203e-03		17.635
5		0.00		-9.20		1.436e-02		121.601		3.925e-03		18.667
5		0.00		-9.60		1.547e-02		126.552		4.039e-03		12.038
5		0.00		-10.00		1.766e-02		127.212		3.655e-03		9.510
5		0.00		-9.60		1.803e-02		127.297		3.437e-03		8.729
5		0.00		-9.20		1.804e-02		128.537		3.316e-03		8.082
5		0.00		-8.80		1.733e-02		124.299		3.493e-03		7.500
5		0.00		-8.40		1.708e-02		126.062		3.693e-03		8.824
5		0.00		-8.00		1.635e-02		126.409		3.937e-03		9.540
5		0.00		-7.60		1.552e-02		126.115		4.040e-03		11.182
5		0.00		-7.20		1.515e-02		126.630		3.793e-03		14.723
5		0.00		-6.80		1.472e-02		128.185		3.471e-03		8.921
5		0.00		-6.40		1.401e-02		131.169		2.879e-03		8.419
5		0.00		-6.00		1.337e-02		126.684		2.666e-03		8.827
5		0.00		-5.60		1.282e-02		129.017		2.580e-03		9.910
5		0.00		-5.20		1.244e-02		129.387		2.610e-03		7.831
5		0.00		-4.80		1.155e-02		125.287		2.803e-03		9.507
5		0.00		-4.40		1.080e-02		126.568		2.906e-03		11.151
5		0.00		-4.00		1.028e-02		121.975		2.738e-03		14.928
5		0.00		-3.60		9.085e-03		125.349		2.768e-03		17.013
5		0.00		-3.20		8.875e-03		123.993		2.494e-03		12.889
5		0.00		-2.80		8.598e-03		127.306		2.051e-03		13.695
5		0.00		-2.40		8.521e-03		129.049		1.864e-03		11.097
5		0.00		-2.00		7.833e-03		130.501		1.851e-03		13.807
5		0.00		-1.60		7.368e-03		126.185		1.842e-03		11.216
5		0.00		-1.20		6.922e-03		123.681		1.980e-03		13.188
5		0.00		-0.80		6.399e-03		127.930		1.811e-03		17.236
5		0.00		-0.40		5.488e-03		124.239		1.831e-03		26.066
6		0.00		0.00		5.373e-03		122.659		1.762e-03		26.076
6		0.00		0.40		5.237e-03		128.301		1.677e-03		16.030
6		0.00		0.80		4.282e-03		122.875		1.366e-03		32.796
6		0.00		1.20		4.313e-03		117.970		1.416e-03		36.359
6		0.00		1.60		3.357e-03		105.011		1.362e-03		54.127
6		0.00		2.00		2.735e-03		95.460		1.097e-03		67.937
6		0.00		2.40		2.236e-03		56.498		1.029e-03		81.020
6		0.00		2.80		1.916e-03		27.527		7.885e-04		84.115
6		0.00		3.20		1.824e-03		-17.054		7.666e-04		73.577
6		0.00		3.60		2.088e-03		-51.731		7.913e-04		54.898
6		0.00		4.00		3.023e-03		-56.937		1.199e-03		42.341
6		0.00		4.40		3.851e-03		-58.113		1.204e-03		20.042
6		0.00		4.80		5.358e-03		-62.086		1.420e-03		18.186
6		0.00		5.20		7.164e-03		-58.991		1.683e-03		14.466
6		0.00		5.60		8.537e-03		-51.209		1.660e-03		12.339
6		0.00		6.00		1.006e-02		-54.114		2.227e-03		11.358
6		0.00		6.40		1.194e-02		-49.543		2.860e-03		10.655
6		0.00		6.80		1.279e-02		-51.572		3.209e-03		12.426
6		0.00		7.20		1.514e-02		-51.859		3.549e-03		13.923
6		0.00		7.60		1.722e-02		-53.960		3.461e-03		10.351
6		0.00		8.00		1.994e-02		-52.759		3.410e-03		8.848
6		0.00		8.40		2.336e-02		-51.561		4.045e-03		7.415
6		0.00		8.80		2.616e-02		-50.773		4.516e-03		7.329
6		0.00		9.20		2.876e-02		-52.881		5.527e-03		6.629
6		0.00		9.60		3.135e-02		-51.210		7.699e-03		7.849
6		0.00		10.00		3.374e-02		-52.942		9.271e-03		7.912
6		0.00		9.60		3.577e-02		-52.613		9.883e-03		12.259
6		0.00		9.20		3.734e-02		-51.463		9.356e-03		10.480
6		0.00		8.80		3.664e-02		-50.168		8.195e-03		8.962
6		0.00		8.40		3.775e-02		-50.565		7.319e-03		7.537
6		0.00		8.00		3.790e-02		-50.641		6.770e-03		5.483
6		0.00		7.60		3.823e-02		-51.929		6.634e-03		5.809
6		0.00		7.20		3.738e-02		-51.828		6.523e-03		5.676
6		0.00		6.80		3.667e-02		-52.063		7.404e-03		5.406
6		0.00		6.40		3.572e-02		-52.156		8.567e-03		7.233
6		0.00		6.00		3.547e-02		-51.279		8.702e-03		8.914
6		0.00		5.60		3.504e-02		-52.074		8.554e-03		11.779
6		0.00		5.20		3.471e-02		-51.189		7.729e-03		10.206
6		0.00		4.80		3.487e-02		-51.426		6.969e-03		9.186
6		0.00		4.40		3.444e-02		-51.879		7.079e-03		7.575
6		0.00		4.00		3.401e-02		-52.709		6.481e-03		6.384
6		0.00		3.60		3.358e-02		-50.557		6.245e-03		5.848
6		0.00		3.20		3.306e-02		-51.403		6.773e-03		6.574
6		0.00		2.80		3.265e-02		-52.375		7.237e-03		5.594
6		0.00		2.40		3.210e-02		-52.797		8.450e-03		7.867
6		0.00		2.00		3.153e-02		-51.437		8.794e-03		12.192
6		0.00		1.60		3.136e-02		-50.676		8.293e-03		14.167
6		0.00		1.20		3.130e-02		-51.073		7.509e-03		10.226
6		0.00		0.80		3.177e-02		-50.355		6.315e-03		9.382
6		0.00		0.40		3.285e-02		-50.776		5.803e-03		7.409
6		0.00		0.00		3.247e-02		-50.596		5.778e-03		6.541
6		0.00		-0.40		3.240e-02		-52.118		5.311e-03		6.711
6		0.00		-0.80		3.240e-02		-51.434		5.358e-03		6.043
6		0.00		-1.20		3.058e-02		-53.176		5.751e-03		5.698
6		0.00		-1.60		3.010e-02		-51.460		6.121e-03		6.855
6		0.00		-2.00		2.829e-02		-53.256		6.698e-03		8.518
6		0.00		-2.40		2.583e-02		-53.727		6.488e-03		10.665
6		0.00		-2.80		2.407e-02		-52.551		6.270e-03		13.235
6		0.00		-3.20		2.171e-02		-50.954		5.409e-03		10.011
6		0.00		-3.60		1.881e-02		-48.838		4.209e-03		9.260
6		0.00		-4.00		1.582e-02		-48.830		3.257e-03		10.695
6		0.00		-4.40		1.341e-02		-50.925		2.893e-03		8.757
6		0.00		-4.80		9.135e-03		-49.394		2.304e-03		13.821
6		0.00		-5.20		5.926e-03		-36.405		1.981e-03		19.638
6		0.00		-5.60		2.923e-03		-46.999		1.334e-03		54.392
6		0.00		-6.00		2.135e-03		19.747		1.080e-03		77.283
6		0.00		-6.40		3.295e-03		95.140		1.626e-03		55.842
6		0.00		-6.80		5.888e-03		122.341		2.323e-03		18.934
6		0.00		-7.20		7.961e-03		119.666		2.627e-03		25.037
6		0.00		-7.60		9.142e-03		123.100		2.864e-03		21.242
6		0.00		-8.00		1.069e-02		127.922		2.941e-03		13.689
6		0.00		-8.40		1.185e-02		122.994		3.143e-03		14.610
6		0.00		-8.80		1.288e-02		127.394		2.949e-03		10.433
6		0.00		-9.20		1.474e-02		129.850		3.094e-03		9.114
6		0.00		-9.60		1.634e-02		129.026		3.325e-03		6.911
6		0.00		-10.00		1.783e-02		128.788		3.376e-03		7.348
6		0.00		-9.60		1.813e-02		129.739		3.902e-03		7.970
6		0.00		-9.20		1.818e-02		125.910		3.879e-03		7.473
6		0.00		-8.80		1.760e-02		127.565		3.803e-03		7.034
6		0.00		-8.40		1.754e-02		127.374		4.060e-03		8.276
6		0.00		-8.00		1.656e-02		125.411		4.351e-03		8.263
6		0.00		-7.60		1.619e-02		125.089		4.453e-03		10.641
6		0.00		-7.20		1.477e-02		125.680		4.448e-03		11.639
6		0.00		-6.80		1.422e-02		125.776		4.071e-03		11.934
6		0.00		-6.40		1.358e-02		128.059		3.847e-03		16.875
6		0.00		-6.00		1.294e-02		127.416		3.525e-03		19.920
6		0.00		-5.60		1.231e-02		127.216		3.139e-03		12.816
6		0.00		-5.20		1.178e-02		126.161		3.013e-03		12.986
6		0.00		-4.80		1.087e-02		126.643		2.681e-03		11.383
6		0.00		-4.40		1.022e-02		126.081		2.410e-03		11.011
6		0.00		-4.00		1.027e-02		126.520		2.126e-03		9.104
6		0.00		-3.60		9.389e-03		128.782		2.197e-03		12.098
6		0.00		-3.20		8.789e-03		127.951		2.095e-03		13.591
6		0.00		-2.80		8.418e-03		130.412		2.042e-03		10.480
6		0.00		-2.40		7.879e-03		126.382		2.099e-03		11.606
6		0.00		-2.00		7.066e-03		129.956		2.093e-03		11.683
6		0.00		-1.60		6.620e-03		128.518		1.991e-03		11.965
6		0.00		-1.20		6.254e-03		123.063		1.848e-03		16.826
6		0.00		-0.80		6.185e-03		123.391		2.220e-03		26.204
6		0.00		-0.40		5.668e-03		121.008		1.856e-03		25.647
7		0.00		0.00		4.989e-03		116.086		1.997e-03		44.511
7		0.00		0.40		4.384e-03		113.972		1.567e-03		36.527
7		0.00		0.80		3.946e-03		109.195		1.573e-03		44.566
7		0.00		1.20		3.671e-03		108.746		1.309e-03		52.776
7		0.00		1.60		3.307e-03		105.892		1.345e-03		56.361
7		0.00		2.00		2.403e-03		82.553		9.360e-04		70.686
7		0.00		2.40		2.245e-03		55.655		1.008e-03		70.943
7		0.00		2.80		1.675e-03		-18.468		6.099e-04		89.230
7		0.00		3.20		1.896e-03		-34.690		7.990e-04		70.996
7		0.00		3.60		2.201e-03		-58.813		8.312e-04		59.817
7		0.00		4.00		2.724e-03		-45.356		1.039e-03		33.215
7		0.00		4.40		4.054e-03		-52.979		1.044e-03		23.773
7		0.00		4.80		5.338e-03		-45.699		1.097e-03		18.206
7		0.00		5.20		6.441e-03		-51.647		1.542e-03		17.005
7		0.00		5.60		6.604e-03		-51.031		1.496e-03		15.669
7		0.00		6.00		7.891e-03		-55.290		2.123e-03		12.632
7		0.00		6.40		9.767e-03		-55.961		2.171e-03		10.851
7		0.00		6.80		1.148e-02		-53.318		2.647e-03		10.503
7		0.00		7.20		1.323e-02		-51.440		3.196e-03		11.857
7		0.00		7.60		1.501e-02		-52.144		3.876e-03		9.254
7		0.00		8.00		1.709e-02		-51.469		4.504e-03		10.823
7		0.00		8.40		1.982e-02		-51.160		4.736e-03		8.789
7		0.00		8.80		2.268e-02		-52.633		5.832e-03		10.307
7		0.00		9.20		2.719e-02		-50.799		6.287e-03		11.410
7		0.00		9.60		2.975e-02		-51.535		7.194e-03		10.549
7		0.00		10.00		3.283e-02		-52.129		7.611e-03		11.043
7		0.00		9.60		3.372e-02		-50.394		7.932e-03		10.329
7		0.00		9.20		3.521e-02		-51.113		7.864e-03		8.549
7		0.00		8.80		3.543e-02		-50.644		7.493e-03		7.634
7		0.00		8.40		3.558e-02		-51.587		7.354e-03		8.676
7		0.00		8.00		3.544e-02		-50.051		6.937e-03		7.526
7		0.00		7.60		3.529e-02		-49.588		6.799e-03		6.773
7		0.00		7.20		3.476e-02		-51.580		6.519e-03		8.102
7		0.00		6.80		3.452e-02		-51.382		5.926e-03		6.962
7		0.00		6.40		3.451e-02		-51.128		5.731e-03		6.532
7		0.00		6.00		3.435e-02		-50.930		5.753e-03		6.486
7		0.00		5.60		3.355e-02		-51.097		5.515e-03		5.466
7		0.00		5.20		3.268e-02		-52.193		5.562e-03		6.260
7		0.00		4.80		3.252e-02		-52.027		5.602e-03		5.384
7		0.00		4.40		3.258e-02		-51.274		5.520e-03		5.215
7		0.00		4.00		3.201e-02		-51.742		5.656e-03		6.575
7		0.00		3.60		3.169e-02		-52.539		6.081e-03		6.328
7		0.00		3.20		3.197e-02		-50.386		6.187e-03		7.210
7		0.00		2.80		3.112e-02		-52.510		6.538e-03		8.009
7		0.00		2.40		3.083e-02		-51.734		6.851e-03		8.389
7		0.00		2.00		3.035e-02		-50.676		7.125e-03		8.745
7		0.00		1.60		3.043e-02		-52.515		7.169e-03		10.378
7		0.00		1.20		3.047e-02		-51.779		7.239e-03		9.908
7		0.00		0.80		3.000e-02		-50.136		6.940e-03		11.751
7		0.00		0.40		2.997e-02		-49.567		7.505e-03		11.449
7		0.00		0.00		2.961e-02		-50.547		7.534e-03		12.491
7		0.00		-0.40		2.933e-02		-51.994		7.513e-03		10.017
7		0.00		-0.80		2.880e-02		-51.360		6.980e-03		8.494
7		0.00		-1.20		2.870e-02		-52.685		6.528e-03		8.643
7		0.00		-1.60		2.837e-02		-49.741		6.247e-03		7.502
7		0.00		-2.00		2.782e-02		-50.001		5.863e-03		8.152
7		0.00		-2.40		2.522e-02		-49.854		4.997e-03		7.884
7		0.00		-2.80		2.359e-02		-52.235		4.571e-03		8.625
7		0.00		-3.20		2.148e-02		-50.497		3.667e-03		7.961
7		0.00		-3.60		2.016e-02		-50.535		3.192e-03		7.550
7		0.00		-4.00		1.739e-02		-49.128		2.675e-03		9.082
7		0.00		-4.40		1.332e-02		-53.811		2.260e-03		8.918
7		0.00		-4.80		9.634e-03		-51.828		2.155e-03		13.234
7		0.00		-5.20		6.335e-03		-51.029		1.724e-03		16.919
7		0.00		-5.60		3.061e-03		-39.735		1.225e-03		43.475
7		0.00		-6.00		1.810e-03		16.762		8.761e-04		72.597
7		0.00		-6.40		3.628e-03		109.814		1.698e-03		32.402
7		0.00		-6.80		5.290e-03		123.795		2.113e-03		17.239
7		0.00		-7.20		8.678e-03		129.569		2.668e-03		13.172
7		0.00		-7.60		9.845e-03		124.071		3.199e-03		16.917
7		0.00		-8.00		1.138e-02		122.830		3.405e-03		13.927
7		0.00		-8.40		1.336e-02		122.850		3.793e-03		17.342
7		0.00		-8.80		1.526e-02		123.096		4.389e-03		18.613
7		0.00		-9.20		1.558e-02		126.449		4.452e-03		17.321
7		0.00		-9.60		1.659e-02		127.723		4.603e-03		17.795
7		0.00		-10.00		1.718e-02		125.861		4.659e-03		15.660
7		0.00		-9.60		1.743e-02		126.756		4.476e-03		14.718
7		0.00		-9.20		1.755e-02		127.497		4.388e-03		13.290
7		0.00		-8.80		1.867e-02		126.501		4.299e-03		9.776
7		0.00		-8.40		1.831e-02		127.426		4.132e-03		8.905
7		0.00		-8.00		1.724e-02		127.211		3.525e-03		6.903
7		0.00		-7.60		1.743e-02		128.466		3.340e-03		8.236
7		0.00		-7.20		1.622e-02		128.100		3.361e-03		9.023
7		0.00		-6.80		1.615e-02		127.618		2.977e-03		7.665
7		0.00		-6.40		1.532e-02		126.622		3.107e-03		9.605
7		0.00		-6.00		1.491e-02		128.188		2.852e-03		7.540
7		0.00		-5.60		1.390e-02		127.535		2.863e-03		9.035
7		0.00		-5.20		1.311e-02		128.322		3.126e-03		8.000
7		0.00		-4.80		1.265e-02		125.765		3.190e-03		10.804
7		0.00		-4.40		1.180e-02		127.377		3.308e-03		10.822
7		0.00		-4.00		1.079e-02		128.069		3.277e-03		10.932
7		0.00		-3.60		1.049e-02		126.396		3.022e-03		12.049
7		0.00		-3.20		9.483e-03		124.598		2.837e-03		20.337
7		0.00		-2.80		9.214e-03		122.807		2.717e-03		19.454
7		0.00		-2.40		8.582e-03		128.155		2.664e-03		18.146
7		0.00		-2.00		8.188e-03		123.630		2.385e-03		21.093
7		0.00		-1.60		7.811e-03		125.830		2.118e-03		10.668
7		0.00		-1.20		7.628e-03		127.361		2.055e-03		13.911
7		0.00		-0.80		6.600e-03		125.892		1.800e-03		13.693
7		0.00		-0.40		6.693e-03		133.226		1.595e-03		14.919
8		0.00		0.00		6.383e-03		129.049		1.662e-03		29.135
8		0.00		0.40		5.690e-03		128.562		1.554e-03		15.617
8		0.00		0.80		5.217e-03		124.164		1.887e-03		29.425
8		0.00		1.20		4.321e-03		115.384		1.547e-03		41.487
8		0.00		1.60		4.004e-03		118.547		1.547e-03		35.668
8		0.00		2.00		3.256e-03		99.971		1.250e-03		52.851
8		0.00		2.40		2.487e-03		77.505		1.150e-03		80.804
8		0.00		2.80		2.239e-03		49.981		1.017e-03		87.323
8		0.00		3.20		1.740e-03		15.821		7.208e-04		87.405
8		0.00		3.60		1.861e-03		-32.824		8.279e-04		72.072
8		0.00		4.00		2.412e-03		-53.830		1.027e-03		48.421
8		0.00		4.40		3.120e-03		-59.329		1.282e-03		30.532
8		0.00		4.80		3.881e-03		-58.078		1.280e-03		24.950
8		0.00		5.20		5.069e-03		-59.552		1.625e-03		24.689
8		0.00		5.60		6.416e-03		-52.157		1.935e-03		17.432
8		0.00		6.00		8.176e-03		-50.756		1.963e-03		16.706
8		0.00		6.40		9.647e-03		-52.699		2.232e-03		13.198
8		0.00		6.80		1.096e-02		-53.328		2.004e-03		12.262
8		0.00		7.20		1.247e-02		-50.332		2.554e-03		10.346
8		0.00		7.60		1.474e-02		-52.742		2.491e-03		10.063
8		0.00		8.00		1.763e-02		-52.069		2.984e-03		9.225
8		0.00		8.40		2.012e-02		-49.228		3.112e-03		7.731
8		0.00		8.80		2.208e-02		-52.015		3.691e-03		7.565
8		0.00		9.20		2.590e-02		-51.922		4.697e-03		8.051
8		0.00		9.60		2.947e-02		-51.373		5.864e-03		6.555
8		0.00		10.00		3.207e-02		-52.368		6.894e-03		5.833
8		0.00		9.60		3.333e-02		-53.289		7.513e-03		5.979
8		0.00		9.20		3.388e-02		-53.109		8.055e-03		6.556
8		0.00		8.80		3.347e-02		-52.725		8.678e-03		7.933
8		0.00		8.40		3.291e-02		-52.786		8.802e-03		7.447
8		0.00		8.00		3.257e-02		-53.021		8.812e-03		7.149
8		0.00		7.60		3.251e-02		-52.517		9.087e-03		9.867
8		0.00		7.20		3.238e-02		-51.713		8.768e-03		9.204
8		0.00		6.80		3.262e-02		-51.044		8.314e-03		10.863
8		0.00		6.40		3.209e-02		-51.928		7.770e-03		10.565
8		0.00		6.00		3.177e-02		-51.191		7.903e-03		10.803
8		0.00		5.60		3.142e-02		-52.182		7.639e-03		12.518
8		0.00		5.20		3.097e-02		-51.833		7.442e-03		12.114
8		0.00		4.80		3.065e-02		-51.670		6.992e-03		11.492
8		0.00		4.40		3.048e-02		-50.521		6.894e-03		8.847
8		0.00		4.00		2.995e-02		-49.884		6.590e-03		8.976
8		0.00		3.60		3.008e-02		-49.864		6.281e-03		7.332
8		0.00		3.20		2.984e-02		-49.890		6.142e-03		7.615
8		0.00		2.80		2.991e-02		-50.057		6.073e-03		8.033
8		0.00		2.40		3.013e-02		-51.838		6.076e-03		7.916
8		0.00		2.00		2.965e-02		-51.072		5.970e-03		7.136
8		0.00		1.60		2.970e-02		-51.110		5.522e-03		7.989
8		0.00		1.20		2.982e-02		-50.333		5.608e-03		7.446
8		0.00		0.80		3.001e-02		-50.768		5.670e-03		7.341
8		0.00		0.40		2.969e-02		-50.983		5.125e-03		7.870
8		0.00		0.00		2.948e-02		-49.835		5.346e-03		6.690
8		0.00		-0.40		2.953e-02		-50.488		5.021e-03		6.536
8		0.00		-0.80		2.866e-02		-50.831		4.755e-03		6.920
8		0.00		-1.20		2.889e-02		-53.762		4.594e-03		7.221
8		0.00		-1.60		2.834e-02		-50.896		4.486e-03		6.619
8		0.00		-2.00		2.809e-02		-51.400		4.546e-03		7.128
8		0.00		-2.40		2.620e-02		-50.991		4.451e-03		6.492
8		0.00		-2.80		2.486e-02		-52.759		4.253e-03		7.104
8		0.00		-3.20		2.231e-02		-52.286		3.703e-03		7.030
8		0.00		-3.60		2.011e-02		-51.889		3.694e-03		7.988
8		0.00		-4.00		1.809e-02		-50.939		3.422e-03		8.225
8		0.00		-4.40		1.508e-02		-49.997		3.574e-03		10.610
8		0.00		-4.80		1.176e-02		-53.490		3.018e-03		10.374
8		0.00		-5.20		8.574e-03		-52.764		2.535e-03		12.504
8		0.00		-5.60		4.705e-03		-47.542		1.965e-03		23.751
8		0.00		-6.00		2.511e-03		-18.988		1.204e-03		63.246
8		0.00		-6.40		2.634e-03		59.365		1.253e-03		77.473
8		0.00		-6.80		4.249e-03		110.129		1.853e-03		33.094
8		0.00		-7.20		7.609e-03		123.852		2.400e-03		16.842
8		0.00		-7.60		8.999e-03		124.623		3.085e-03		20.981
8		0.00		-8.00		1.083e-02		123.305		3.413e-03		18.158
8		0.00		-8.40		1.192e-02		124.752		3.676e-03		16.050
8		0.00		-8.80		1.338e-02		127.944		3.587e-03		19.661
8		0.00		-9.20		1.450e-02		129.231		3.981e-03		16.617
8		0.00		-9.60		1.560e-02		126.652		4.004e-03		13.789
8		0.00		-10.00		1.595e-02		128.249		4.093e-03		13.455
8		0.00		-9.60		1.720e-02		128.745		3.956e-03		9.155
8		0.00		-9.20		1.673e-02		127.040		3.781e-03		8.204
8		0.00		-8.80		1.729e-02		127.988		3.607e-03		8.387
8		0.00		-8.40		1.704e-02		126.709		3.687e-03		7.640
8		0.00		-8.00		1.694e-02		128.285		3.427e-03		8.262
8		0.00		-7.60		1.666e-02		125.933		3.254e-03		9.068
8		0.00		-7.20		1.526e-02		126.047		3.378e-03		8.981
8		0.00		-6.80		1.541e-02		126.982		3.292e-03		9.240
8		0.00		-6.40		1.468e-02		125.588		3.240e-03		8.174
8		0.00		-6.00		1.395e-02		127.810		3.128e-03		8.557
8		0.00		-5.60		1.285e-02		126.858		3.274e-03		9.344
8		0.00		-5.20		1.229e-02		124.749		3.296e-03		10.896
8		0.00		-4.80		1.176e-02		128.547		3.215e-03		8.492
8		0.00		-4.40		1.082e-02		129.251		3.030e-03		13.143
8		0.00		-4.00		1.026e-02		126.670		2.829e-03		13.769
8		0.00		-3.60		1.022e-02		126.145		2.844e-03		16.004
8		0.00		-3.20		9.312e-03		121.331		2.616e-03		19.537
8		0.00		-2.80		8.727e-03		122.178		2.323e-03		16.788
8		0.00		-2.40		7.990e-03		126.496		2.206e-03		18.151
8		0.00		-2.00		7.708e-03		125.543		2.280e-03		14.517
8		0.00		-1.60		7.187e-03		125.350		1.947e-03		16.995
8		0.00		-1.20		7.156e-03		127.094		1.815e-03		12.974
8		0.00		-0.80		6.922e-03		126.658		1.889e-03		12.879
8		0.00		-0.40		6.116e-03		130.865		1.566e-03		12.159
