# Date of analysis: 2023-11-20 16;16
# 
# Loop index	Read Volt (V)	Write Volt (V)	Amplitude (a.u)	Phase (deg)	Sigma Amp (a.u)	Sigma Pha (deg)	
1		0.00		0.00		1.700e-02		-53.437		2.463e-03		14.248
1		0.00		0.40		1.521e-02		-58.013		2.433e-03		15.104
1		0.00		0.80		1.431e-02		-52.029		2.820e-03		16.361
1		0.00		1.20		1.238e-02		-52.148		3.160e-03		18.662
1		0.00		1.60		1.182e-02		-49.018		3.567e-03		16.379
1		0.00		2.00		1.290e-02		-52.938		3.018e-03		16.504
1		0.00		2.40		1.323e-02		-54.448		3.076e-03		15.940
1		0.00		2.80		1.342e-02		-53.218		3.021e-03		20.566
1		0.00		3.20		1.300e-02		-44.932		3.553e-03		21.832
1		0.00		3.60		1.307e-02		-51.306		4.172e-03		22.698
1		0.00		4.00		1.557e-02		-51.848		4.479e-03		13.309
1		0.00		4.40		1.936e-02		-54.598		4.541e-03		14.912
1		0.00		4.80		2.261e-02		-54.152		5.010e-03		17.053
1		0.00		5.20		2.213e-02		-52.783		5.701e-03		17.665
1		0.00		5.60		2.184e-02		-47.862		5.958e-03		17.256
1		0.00		6.00		2.425e-02		-49.386		6.499e-03		13.852
1		0.00		6.40		2.609e-02		-52.173		6.222e-03		13.101
1		0.00		6.80		2.780e-02		-52.052		5.261e-03		11.296
1		0.00		7.20		2.937e-02		-51.697		6.051e-03		11.256
1		0.00		7.60		2.743e-02		-49.683		6.531e-03		14.508
1		0.00		8.00		2.738e-02		-48.593		7.423e-03		15.750
1		0.00		8.40		2.708e-02		-49.775		7.301e-03		12.552
1		0.00		8.80		2.652e-02		-50.653		6.279e-03		11.449
1		0.00		9.20		2.712e-02		-51.954		6.657e-03		11.643
1		0.00		9.60		2.697e-02		-49.590		7.209e-03		12.766
1		0.00		10.00		2.236e-02		-48.513		7.145e-03		15.793
1		0.00		9.60		2.063e-02		-47.688		7.044e-03		14.731
1		0.00		9.20		2.129e-02		-48.603		6.294e-03		12.326
1		0.00		8.80		2.091e-02		-50.647		5.727e-03		12.466
1		0.00		8.40		2.307e-02		-51.306		5.770e-03		11.380
1		0.00		8.00		1.996e-02		-48.550		5.870e-03		12.341
1		0.00		7.60		2.077e-02		-50.016		6.144e-03		12.381
1		0.00		7.20		1.984e-02		-45.249		6.467e-03		16.010
1		0.00		6.80		1.813e-02		-51.101		6.095e-03		13.124
1		0.00		6.40		1.994e-02		-52.653		5.593e-03		10.763
1		0.00		6.00		2.119e-02		-52.992		5.192e-03		11.070
1		0.00		5.60		2.004e-02		-50.712		5.046e-03		13.472
1		0.00		5.20		1.876e-02		-49.503		5.123e-03		11.849
1		0.00		4.80		1.721e-02		-47.766		4.792e-03		14.198
1		0.00		4.40		1.629e-02		-48.298		4.697e-03		13.057
1		0.00		4.00		1.793e-02		-52.193		4.363e-03		12.135
1		0.00		3.60		1.791e-02		-53.743		3.425e-03		11.601
1		0.00		3.20		1.735e-02		-48.227		3.604e-03		12.562
1		0.00		2.80		1.536e-02		-49.193		3.547e-03		12.184
1		0.00		2.40		1.476e-02		-46.529		4.032e-03		13.686
1		0.00		2.00		1.382e-02		-45.718		3.734e-03		14.963
1		0.00		1.60		1.318e-02		-50.427		3.248e-03		12.652
1		0.00		1.20		1.292e-02		-52.454		2.945e-03		11.865
1		0.00		0.80		1.299e-02		-50.202		2.853e-03		16.455
1		0.00		0.40		1.177e-02		-45.088		3.760e-03		15.851
1		0.00		0.00		1.062e-02		-46.603		3.311e-03		15.481
1		0.00		-0.40		8.680e-03		-48.853		3.491e-03		22.299
1		0.00		-0.80		7.149e-03		-48.264		3.483e-03		22.821
1		0.00		-1.20		4.589e-03		-40.896		3.033e-03		35.989
1		0.00		-1.60		3.172e-03		25.225		2.622e-03		68.400
1		0.00		-2.00		4.242e-03		65.914		2.432e-03		62.656
1		0.00		-2.40		5.815e-03		92.757		2.892e-03		59.293
1		0.00		-2.80		8.557e-03		115.282		2.797e-03		37.764
1		0.00		-3.20		1.017e-02		117.910		2.887e-03		35.232
1		0.00		-3.60		1.244e-02		119.587		3.262e-03		24.519
1		0.00		-4.00		1.365e-02		123.666		3.865e-03		20.445
1		0.00		-4.40		1.548e-02		123.045		4.075e-03		20.955
1		0.00		-4.80		1.853e-02		121.214		5.289e-03		20.859
1		0.00		-5.20		1.974e-02		126.500		5.162e-03		10.084
1		0.00		-5.60		2.195e-02		124.603		4.748e-03		7.638
1		0.00		-6.00		2.467e-02		125.163		5.086e-03		9.153
1		0.00		-6.40		2.225e-02		126.861		4.733e-03		11.280
1		0.00		-6.80		2.259e-02		125.756		5.272e-03		15.441
1		0.00		-7.20		2.472e-02		126.200		6.001e-03		11.607
1		0.00		-7.60		2.580e-02		125.608		5.389e-03		11.260
1		0.00		-8.00		1.981e-02		127.281		3.917e-03		7.636
1		0.00		-8.40		2.873e-02		126.429		4.722e-03		7.928
1		0.00		-8.80		2.703e-02		127.619		5.115e-03		8.448
1		0.00		-9.20		2.726e-02		126.801		6.291e-03		13.542
1		0.00		-9.60		2.733e-02		127.312		6.632e-03		14.381
1		0.00		-10.00		2.719e-02		126.200		6.236e-03		11.377
1		0.00		-9.60		2.548e-02		127.115		4.697e-03		8.714
1		0.00		-9.20		3.090e-02		127.576		4.745e-03		7.014
1		0.00		-8.80		2.782e-02		125.724		4.691e-03		8.951
1		0.00		-8.40		2.440e-02		128.476		4.539e-03		9.348
1		0.00		-8.00		2.832e-02		127.807		5.687e-03		13.328
1		0.00		-7.60		2.360e-02		128.806		6.025e-03		12.817
1		0.00		-7.20		2.398e-02		127.457		5.864e-03		8.832
1		0.00		-6.80		2.616e-02		127.228		4.861e-03		7.902
1		0.00		-6.40		2.692e-02		127.956		4.770e-03		8.960
1		0.00		-6.00		2.357e-02		127.229		4.055e-03		8.308
1		0.00		-5.60		2.706e-02		128.064		4.343e-03		8.330
1		0.00		-5.20		2.742e-02		126.957		5.220e-03		11.477
1		0.00		-4.80		2.457e-02		125.728		5.122e-03		13.928
1		0.00		-4.40		2.647e-02		125.248		6.192e-03		9.267
1		0.00		-4.00		2.331e-02		127.385		4.305e-03		9.699
1		0.00		-3.60		2.383e-02		127.069		3.970e-03		8.537
1		0.00		-3.20		2.352e-02		125.557		3.713e-03		8.676
1		0.00		-2.80		2.158e-02		127.862		3.494e-03		8.284
1		0.00		-2.40		2.009e-02		126.917		4.056e-03		10.996
1		0.00		-2.00		1.904e-02		126.006		4.237e-03		16.148
1		0.00		-1.60		1.785e-02		125.642		4.539e-03		12.776
1		0.00		-1.20		1.660e-02		126.077		3.983e-03		10.485
1		0.00		-0.80		1.585e-02		126.350		3.079e-03		9.845
1		0.00		-0.40		1.476e-02		127.773		2.380e-03		8.979
2		0.00		0.00		1.404e-02		128.027		2.283e-03		10.739
2		0.00		0.40		1.216e-02		125.006		2.176e-03		11.750
2		0.00		0.80		1.104e-02		125.245		2.440e-03		17.990
2		0.00		1.20		9.772e-03		124.570		2.513e-03		22.664
2		0.00		1.60		8.033e-03		128.218		2.078e-03		18.656
2		0.00		2.00		6.180e-03		126.858		1.755e-03		36.327
2		0.00		2.40		3.403e-03		108.945		1.088e-03		62.950
2		0.00		2.80		2.254e-03		-34.189		9.968e-04		71.852
2		0.00		3.20		3.758e-03		-55.789		1.300e-03		38.038
2		0.00		3.60		8.680e-03		-58.033		2.684e-03		14.985
2		0.00		4.00		9.103e-03		-49.802		3.493e-03		15.059
2		0.00		4.40		9.792e-03		-52.266		3.773e-03		18.602
2		0.00		4.80		1.122e-02		-52.822		4.053e-03		16.039
2		0.00		5.20		1.329e-02		-53.358		3.378e-03		11.068
2		0.00		5.60		1.650e-02		-53.049		3.632e-03		11.244
2		0.00		6.00		1.777e-02		-51.205		4.128e-03		11.846
2		0.00		6.40		1.887e-02		-50.366		4.654e-03		11.531
2		0.00		6.80		1.790e-02		-49.713		5.036e-03		11.531
2		0.00		7.20		1.863e-02		-49.407		5.643e-03		11.264
2		0.00		7.60		2.042e-02		-50.105		5.240e-03		10.469
2		0.00		8.00		2.006e-02		-52.667		5.470e-03		11.779
2		0.00		8.40		2.251e-02		-52.968		5.521e-03		10.736
2		0.00		8.80		2.243e-02		-49.317		6.068e-03		12.963
2		0.00		9.20		2.020e-02		-50.558		5.614e-03		12.498
2		0.00		9.60		1.866e-02		-49.021		5.729e-03		14.789
2		0.00		10.00		1.691e-02		-51.409		5.639e-03		12.785
2		0.00		9.60		1.960e-02		-51.936		5.494e-03		10.533
2		0.00		9.20		1.962e-02		-54.467		5.622e-03		10.464
2		0.00		8.80		1.973e-02		-53.341		4.670e-03		10.934
2		0.00		8.40		1.886e-02		-51.053		4.745e-03		11.579
2		0.00		8.00		1.808e-02		-49.222		4.934e-03		12.746
2		0.00		7.60		1.645e-02		-51.706		5.497e-03		13.614
2		0.00		7.20		1.504e-02		-53.051		5.471e-03		16.101
2		0.00		6.80		1.647e-02		-52.928		5.115e-03		11.659
2		0.00		6.40		1.612e-02		-54.214		4.325e-03		11.262
2		0.00		6.00		1.650e-02		-53.224		3.932e-03		10.714
2		0.00		5.60		1.573e-02		-50.303		4.053e-03		12.054
2		0.00		5.20		1.492e-02		-49.396		4.193e-03		14.007
2		0.00		4.80		1.447e-02		-49.646		4.780e-03		17.359
2		0.00		4.40		1.439e-02		-48.996		4.592e-03		12.190
2		0.00		4.00		1.516e-02		-52.146		4.171e-03		11.353
2		0.00		3.60		1.537e-02		-52.426		3.734e-03		12.414
2		0.00		3.20		1.500e-02		-53.613		3.120e-03		12.694
2		0.00		2.80		1.434e-02		-50.693		3.281e-03		14.259
2		0.00		2.40		1.272e-02		-51.958		3.597e-03		15.134
2		0.00		2.00		1.251e-02		-52.043		3.257e-03		13.610
2		0.00		1.60		1.240e-02		-52.242		3.500e-03		14.730
2		0.00		1.20		1.172e-02		-49.237		3.262e-03		14.073
2		0.00		0.80		1.168e-02		-54.417		2.820e-03		11.429
2		0.00		0.40		1.197e-02		-50.214		2.692e-03		15.301
2		0.00		0.00		1.063e-02		-49.313		2.830e-03		14.119
2		0.00		-0.40		8.931e-03		-54.446		2.851e-03		17.427
2		0.00		-0.80		6.332e-03		-45.289		3.133e-03		21.972
2		0.00		-1.20		3.824e-03		-18.011		2.297e-03		61.050
2		0.00		-1.60		3.387e-03		44.413		2.023e-03		65.034
2		0.00		-2.00		4.140e-03		73.276		1.829e-03		67.228
2		0.00		-2.40		5.264e-03		104.860		1.972e-03		53.264
2		0.00		-2.80		8.291e-03		122.845		2.436e-03		33.598
2		0.00		-3.20		1.037e-02		123.216		3.093e-03		27.545
2		0.00		-3.60		1.249e-02		126.379		3.454e-03		23.824
2		0.00		-4.00		1.594e-02		123.955		4.501e-03		25.931
2		0.00		-4.40		1.828e-02		122.492		4.991e-03		20.027
2		0.00		-4.80		2.059e-02		127.559		5.184e-03		11.625
2		0.00		-5.20		2.360e-02		126.753		4.688e-03		6.603
2		0.00		-5.60		2.483e-02		127.789		4.417e-03		7.377
2		0.00		-6.00		2.433e-02		126.528		5.042e-03		8.532
2		0.00		-6.40		2.605e-02		128.737		5.400e-03		8.229
2		0.00		-6.80		2.796e-02		126.969		5.890e-03		13.463
2		0.00		-7.20		2.877e-02		126.895		6.759e-03		14.331
2		0.00		-7.60		2.723e-02		127.064		6.358e-03		9.931
2		0.00		-8.00		2.782e-02		128.753		5.103e-03		7.227
2		0.00		-8.40		3.078e-02		127.604		4.768e-03		7.434
2		0.00		-8.80		2.591e-02		126.491		4.246e-03		8.180
2		0.00		-9.20		2.967e-02		128.861		5.735e-03		9.767
2		0.00		-9.60		3.284e-02		126.892		7.232e-03		13.569
2		0.00		-10.00		2.985e-02		125.965		7.836e-03		13.156
2		0.00		-9.60		3.167e-02		126.100		7.849e-03		9.214
2		0.00		-9.20		3.139e-02		126.546		5.791e-03		7.391
2		0.00		-8.80		3.282e-02		126.129		5.491e-03		7.117
2		0.00		-8.40		2.834e-02		127.743		5.183e-03		8.705
2		0.00		-8.00		3.110e-02		127.259		5.876e-03		8.691
2		0.00		-7.60		3.011e-02		126.321		6.929e-03		14.792
2		0.00		-7.20		2.903e-02		124.523		6.953e-03		14.289
2		0.00		-6.80		2.764e-02		127.366		5.935e-03		8.437
2		0.00		-6.40		3.074e-02		126.961		4.501e-03		7.082
2		0.00		-6.00		2.811e-02		126.551		4.855e-03		8.602
2		0.00		-5.60		2.912e-02		127.511		4.793e-03		7.460
2		0.00		-5.20		2.840e-02		128.314		5.127e-03		9.720
2		0.00		-4.80		2.869e-02		125.910		6.047e-03		14.443
2		0.00		-4.40		2.810e-02		125.271		6.053e-03		11.451
2		0.00		-4.00		2.664e-02		126.673		5.310e-03		8.473
2		0.00		-3.60		2.522e-02		127.461		3.815e-03		7.466
2		0.00		-3.20		2.335e-02		128.015		3.594e-03		8.002
2		0.00		-2.80		2.225e-02		128.621		3.375e-03		7.292
2		0.00		-2.40		2.065e-02		129.387		3.518e-03		7.983
2		0.00		-2.00		1.888e-02		126.961		4.177e-03		14.811
2		0.00		-1.60		1.760e-02		125.886		4.028e-03		13.081
2		0.00		-1.20		1.642e-02		126.310		3.662e-03		10.178
2		0.00		-0.80		1.579e-02		128.993		2.794e-03		9.441
2		0.00		-0.40		1.453e-02		128.472		2.379e-03		10.880
3		0.00		0.00		1.313e-02		130.817		2.361e-03		10.126
3		0.00		0.40		1.178e-02		126.419		2.536e-03		14.179
3		0.00		0.80		1.001e-02		123.780		2.375e-03		20.114
3		0.00		1.20		8.277e-03		125.802		2.090e-03		19.783
3		0.00		1.60		6.467e-03		124.086		1.685e-03		20.901
3		0.00		2.00		4.005e-03		113.133		1.340e-03		47.252
3		0.00		2.40		2.194e-03		17.097		8.075e-04		100.434
3		0.00		2.80		2.927e-03		-75.188		1.115e-03		52.320
3		0.00		3.20		4.994e-03		-62.120		1.686e-03		23.339
3		0.00		3.60		9.278e-03		-56.520		2.496e-03		11.692
3		0.00		4.00		1.345e-02		-56.495		3.366e-03		12.559
3		0.00		4.40		1.377e-02		-53.731		2.997e-03		10.084
3		0.00		4.80		1.656e-02		-56.912		3.992e-03		8.804
3		0.00		5.20		1.643e-02		-55.902		3.472e-03		10.383
3		0.00		5.60		1.734e-02		-52.848		3.779e-03		11.073
3		0.00		6.00		1.625e-02		-53.739		4.304e-03		11.591
3		0.00		6.40		1.810e-02		-50.309		4.277e-03		11.905
3		0.00		6.80		1.802e-02		-50.687		5.109e-03		15.117
3		0.00		7.20		1.821e-02		-52.693		5.206e-03		10.846
3		0.00		7.60		2.018e-02		-52.148		5.343e-03		10.057
3		0.00		8.00		2.239e-02		-51.428		5.415e-03		7.938
3		0.00		8.40		2.211e-02		-53.211		4.311e-03		9.182
3		0.00		8.80		2.204e-02		-51.913		4.255e-03		9.661
3		0.00		9.20		2.260e-02		-53.108		4.764e-03		10.816
3		0.00		9.60		2.167e-02		-50.438		5.443e-03		11.815
3		0.00		10.00		2.069e-02		-50.732		5.987e-03		16.861
3		0.00		9.60		1.880e-02		-51.568		5.731e-03		15.419
3		0.00		9.20		2.000e-02		-53.763		5.667e-03		12.061
3		0.00		8.80		2.036e-02		-52.089		4.904e-03		10.846
3		0.00		8.40		1.976e-02		-52.573		4.283e-03		10.128
3		0.00		8.00		1.996e-02		-54.851		3.726e-03		10.359
3		0.00		7.60		1.917e-02		-50.488		3.856e-03		11.358
3		0.00		7.20		1.934e-02		-52.165		4.531e-03		11.910
3		0.00		6.80		1.778e-02		-50.388		4.558e-03		10.806
3		0.00		6.40		1.738e-02		-49.575		4.593e-03		11.376
3		0.00		6.00		1.736e-02		-53.527		4.203e-03		10.799
3		0.00		5.60		1.730e-02		-53.958		3.699e-03		9.015
3		0.00		5.20		1.786e-02		-53.738		3.258e-03		10.045
3		0.00		4.80		1.896e-02		-54.051		3.334e-03		8.767
3		0.00		4.40		1.735e-02		-51.874		2.994e-03		10.752
3		0.00		4.00		1.663e-02		-53.403		3.332e-03		10.431
3		0.00		3.60		1.615e-02		-53.906		3.627e-03		11.560
3		0.00		3.20		1.497e-02		-52.300		3.613e-03		12.820
3		0.00		2.80		1.543e-02		-51.128		3.718e-03		10.073
3		0.00		2.40		1.512e-02		-54.098		3.282e-03		9.467
3		0.00		2.00		1.542e-02		-53.898		2.784e-03		11.011
3		0.00		1.60		1.453e-02		-53.662		2.414e-03		11.839
3		0.00		1.20		1.397e-02		-51.876		2.662e-03		11.539
3		0.00		0.80		1.357e-02		-52.720		2.901e-03		12.043
3		0.00		0.40		1.224e-02		-49.774		3.091e-03		11.373
3		0.00		0.00		1.179e-02		-50.694		3.179e-03		12.577
3		0.00		-0.40		1.007e-02		-56.664		2.990e-03		11.441
3		0.00		-0.80		7.266e-03		-57.365		2.725e-03		16.780
3		0.00		-1.20		5.418e-03		-57.687		2.672e-03		24.937
3		0.00		-1.60		3.688e-03		-44.413		2.375e-03		52.738
3		0.00		-2.00		2.979e-03		7.540		1.944e-03		80.040
3		0.00		-2.40		4.562e-03		94.954		1.995e-03		64.186
3		0.00		-2.80		6.808e-03		116.667		2.406e-03		44.706
3		0.00		-3.20		9.521e-03		122.913		2.971e-03		33.377
3		0.00		-3.60		1.261e-02		121.935		3.676e-03		34.884
3		0.00		-4.00		1.649e-02		123.359		4.215e-03		24.423
3		0.00		-4.40		1.829e-02		126.886		4.080e-03		16.102
3		0.00		-4.80		2.090e-02		127.801		4.663e-03		9.540
3		0.00		-5.20		2.373e-02		126.537		5.414e-03		9.775
3		0.00		-5.60		2.537e-02		125.690		6.635e-03		16.185
3		0.00		-6.00		2.791e-02		126.196		7.435e-03		12.457
3		0.00		-6.40		2.911e-02		126.776		6.381e-03		7.402
3		0.00		-6.80		3.260e-02		127.487		5.835e-03		6.206
3		0.00		-7.20		3.559e-02		127.053		5.841e-03		7.157
3		0.00		-7.60		3.573e-02		127.452		6.088e-03		8.031
3		0.00		-8.00		3.693e-02		128.062		6.939e-03		11.455
3		0.00		-8.40		3.665e-02		127.733		7.536e-03		11.012
3		0.00		-8.80		3.736e-02		126.455		7.782e-03		9.246
3		0.00		-9.20		3.933e-02		126.839		6.649e-03		7.754
3		0.00		-9.60		4.033e-02		126.481		6.097e-03		6.371
3		0.00		-10.00		3.944e-02		128.060		5.861e-03		6.940
3		0.00		-9.60		3.701e-02		130.106		6.231e-03		6.840
3		0.00		-9.20		3.610e-02		127.291		7.107e-03		10.721
3		0.00		-8.80		3.441e-02		127.367		7.640e-03		9.492
3		0.00		-8.40		3.704e-02		127.418		7.675e-03		8.320
3		0.00		-8.00		3.885e-02		126.498		6.090e-03		5.879
3		0.00		-7.60		4.072e-02		126.792		5.477e-03		6.235
3		0.00		-7.20		3.870e-02		127.238		5.545e-03		6.399
3		0.00		-6.80		3.574e-02		127.358		5.798e-03		7.057
3		0.00		-6.40		3.672e-02		127.931		7.479e-03		11.170
3		0.00		-6.00		3.560e-02		125.980		7.753e-03		10.528
3		0.00		-5.60		3.431e-02		127.248		6.465e-03		8.251
3		0.00		-5.20		3.410e-02		127.313		4.480e-03		6.346
3		0.00		-4.80		3.175e-02		127.348		4.121e-03		6.546
3		0.00		-4.40		3.002e-02		128.666		4.478e-03		6.568
3		0.00		-4.00		2.749e-02		127.718		4.508e-03		10.624
3		0.00		-3.60		2.571e-02		125.779		5.701e-03		16.465
3		0.00		-3.20		2.422e-02		126.784		5.051e-03		9.509
3		0.00		-2.80		2.370e-02		128.124		3.820e-03		8.365
3		0.00		-2.40		2.228e-02		125.998		3.161e-03		7.413
3		0.00		-2.00		2.057e-02		130.097		3.067e-03		7.774
3		0.00		-1.60		1.891e-02		129.054		3.147e-03		8.950
3		0.00		-1.20		1.739e-02		127.206		3.502e-03		12.403
3		0.00		-0.80		1.567e-02		128.570		3.642e-03		9.952
3		0.00		-0.40		1.424e-02		127.499		3.387e-03		10.520
4		0.00		0.00		1.353e-02		127.981		2.258e-03		10.312
4		0.00		0.40		1.147e-02		132.612		2.108e-03		11.681
4		0.00		0.80		1.040e-02		126.960		2.666e-03		12.862
4		0.00		1.20		9.090e-03		123.711		2.374e-03		22.632
4		0.00		1.60		7.377e-03		128.617		2.101e-03		17.831
4		0.00		2.00		5.893e-03		132.163		1.690e-03		17.011
4		0.00		2.40		4.881e-03		124.590		1.541e-03		36.317
4		0.00		2.80		2.938e-03		56.948		1.145e-03		96.589
4		0.00		3.20		2.276e-03		-41.413		8.940e-04		76.884
4		0.00		3.60		3.871e-03		-58.226		1.536e-03		25.629
4		0.00		4.00		6.456e-03		-64.408		2.110e-03		21.459
4		0.00		4.40		9.934e-03		-60.686		2.231e-03		12.223
4		0.00		4.80		1.239e-02		-59.153		2.159e-03		12.266
4		0.00		5.20		1.438e-02		-55.558		2.298e-03		11.161
4		0.00		5.60		1.651e-02		-52.797		3.280e-03		10.927
4		0.00		6.00		1.761e-02		-52.704		4.366e-03		9.121
4		0.00		6.40		1.899e-02		-55.023		4.582e-03		8.265
4		0.00		6.80		1.966e-02		-54.629		4.568e-03		9.020
4		0.00		7.20		2.052e-02		-51.622		4.381e-03		8.997
4		0.00		7.60		2.276e-02		-51.295		4.409e-03		9.657
4		0.00		8.00		2.204e-02		-51.145		5.203e-03		12.406
4		0.00		8.40		2.383e-02		-53.225		6.199e-03		11.237
4		0.00		8.80		2.494e-02		-51.216		5.639e-03		8.925
4		0.00		9.20		2.841e-02		-53.090		5.022e-03		8.047
4		0.00		9.60		2.860e-02		-52.317		5.187e-03		8.405
4		0.00		10.00		2.663e-02		-51.372		6.107e-03		9.446
4		0.00		9.60		2.648e-02		-52.767		6.891e-03		11.530
4		0.00		9.20		2.345e-02		-53.173		6.157e-03		11.066
4		0.00		8.80		2.469e-02		-52.012		4.884e-03		7.988
4		0.00		8.40		2.612e-02		-52.820		4.504e-03		8.284
4		0.00		8.00		2.377e-02		-54.156		4.925e-03		8.697
4		0.00		7.60		2.232e-02		-50.843		5.539e-03		12.158
4		0.00		7.20		2.231e-02		-51.324		5.432e-03		9.513
4		0.00		6.80		2.170e-02		-52.288		4.210e-03		8.239
4		0.00		6.40		2.115e-02		-54.333		3.523e-03		9.460
4		0.00		6.00		2.031e-02		-52.684		3.664e-03		9.918
4		0.00		5.60		1.868e-02		-51.717		3.950e-03		9.291
4		0.00		5.20		1.814e-02		-54.218		4.307e-03		9.952
4		0.00		4.80		1.789e-02		-52.591		3.572e-03		8.105
4		0.00		4.40		1.920e-02		-54.672		3.163e-03		9.017
4		0.00		4.00		1.860e-02		-53.550		2.998e-03		9.208
4		0.00		3.60		1.730e-02		-52.231		3.683e-03		9.320
4		0.00		3.20		1.635e-02		-54.719		3.917e-03		12.832
4		0.00		2.80		1.619e-02		-53.814		3.464e-03		10.279
4		0.00		2.40		1.596e-02		-51.635		2.759e-03		10.207
4		0.00		2.00		1.568e-02		-54.048		2.898e-03		11.558
4		0.00		1.60		1.471e-02		-52.310		3.688e-03		13.789
4		0.00		1.20		1.458e-02		-53.441		3.711e-03		10.136
4		0.00		0.80		1.432e-02		-53.928		3.228e-03		10.241
4		0.00		0.40		1.448e-02		-52.857		2.774e-03		10.317
4		0.00		0.00		1.319e-02		-53.774		2.589e-03		12.210
4		0.00		-0.40		1.128e-02		-53.620		2.780e-03		11.767
4		0.00		-0.80		8.327e-03		-53.822		3.008e-03		17.327
4		0.00		-1.20		5.656e-03		-53.343		2.628e-03		29.053
4		0.00		-1.60		3.821e-03		-41.684		2.529e-03		57.730
4		0.00		-2.00		3.295e-03		25.961		2.054e-03		82.519
4		0.00		-2.40		3.854e-03		72.129		1.748e-03		69.360
4		0.00		-2.80		6.909e-03		121.510		2.467e-03		36.220
4		0.00		-3.20		9.962e-03		122.228		3.070e-03		30.733
4		0.00		-3.60		1.217e-02		125.512		3.334e-03		25.204
4		0.00		-4.00		1.543e-02		127.606		3.463e-03		21.326
4		0.00		-4.40		1.842e-02		129.605		4.076e-03		11.129
4		0.00		-4.80		2.153e-02		128.559		4.806e-03		10.210
4		0.00		-5.20		2.466e-02		128.830		6.060e-03		10.618
4		0.00		-5.60		2.761e-02		128.488		5.048e-03		8.281
4		0.00		-6.00		3.185e-02		126.506		5.124e-03		6.796
4		0.00		-6.40		3.327e-02		128.124		5.168e-03		6.971
4		0.00		-6.80		3.507e-02		128.004		6.707e-03		9.825
4		0.00		-7.20		3.665e-02		126.792		8.885e-03		12.491
4		0.00		-7.60		3.718e-02		126.391		8.173e-03		9.587
4		0.00		-8.00		4.083e-02		127.209		6.608e-03		5.395
4		0.00		-8.40		4.234e-02		127.090		6.075e-03		6.032
4		0.00		-8.80		4.085e-02		127.883		7.994e-03		7.722
4		0.00		-9.20		4.029e-02		126.852		9.403e-03		12.229
4		0.00		-9.60		4.126e-02		127.123		9.145e-03		9.203
4		0.00		-10.00		4.247e-02		127.404		6.861e-03		5.735
4		0.00		-9.60		4.331e-02		127.254		5.938e-03		5.588
4		0.00		-9.20		4.179e-02		128.278		7.300e-03		7.542
4		0.00		-8.80		4.104e-02		127.832		8.321e-03		11.882
4		0.00		-8.40		4.121e-02		127.808		8.570e-03		7.902
4		0.00		-8.00		4.153e-02		127.607		6.145e-03		5.157
4		0.00		-7.60		4.195e-02		126.874		5.483e-03		5.750
4		0.00		-7.20		3.915e-02		129.633		5.979e-03		6.504
4		0.00		-6.80		3.753e-02		127.421		7.731e-03		10.744
4		0.00		-6.40		3.744e-02		127.136		7.623e-03		8.467
4		0.00		-6.00		3.679e-02		126.574		4.987e-03		5.624
4		0.00		-5.60		3.576e-02		128.364		4.336e-03		6.547
4		0.00		-5.20		3.237e-02		127.501		5.731e-03		10.279
4		0.00		-4.80		3.060e-02		127.918		6.521e-03		12.742
4		0.00		-4.40		2.895e-02		126.843		5.994e-03		7.922
4		0.00		-4.00		2.800e-02		127.376		4.285e-03		6.928
4		0.00		-3.60		2.629e-02		129.321		3.846e-03		6.602
4		0.00		-3.20		2.418e-02		127.912		4.804e-03		11.305
4		0.00		-2.80		2.258e-02		127.119		5.042e-03		13.066
4		0.00		-2.40		2.159e-02		127.120		4.103e-03		7.448
4		0.00		-2.00		2.079e-02		127.600		3.049e-03		8.336
4		0.00		-1.60		1.870e-02		129.026		3.408e-03		8.841
4		0.00		-1.20		1.741e-02		126.471		3.495e-03		15.107
4		0.00		-0.80		1.629e-02		128.261		3.759e-03		12.120
4		0.00		-0.40		1.524e-02		127.236		2.831e-03		10.306
5		0.00		0.00		1.429e-02		131.312		2.222e-03		11.698
5		0.00		0.40		1.279e-02		130.438		2.131e-03		8.992
5		0.00		0.80		1.177e-02		130.880		2.376e-03		15.698
5		0.00		1.20		1.058e-02		129.396		2.178e-03		12.555
5		0.00		1.60		9.538e-03		131.606		1.990e-03		9.369
5		0.00		2.00		8.064e-03		134.811		1.575e-03		12.182
5		0.00		2.40		6.381e-03		130.050		1.699e-03		24.878
5		0.00		2.80		4.957e-03		123.490		1.377e-03		37.399
5		0.00		3.20		3.366e-03		99.547		1.146e-03		63.375
5		0.00		3.60		2.123e-03		-31.580		7.416e-04		79.908
5		0.00		4.00		3.736e-03		-71.208		1.346e-03		25.483
5		0.00		4.40		5.256e-03		-61.396		1.598e-03		21.885
5		0.00		4.80		9.056e-03		-58.266		2.288e-03		14.605
5		0.00		5.20		1.306e-02		-60.514		2.598e-03		11.288
5		0.00		5.60		1.713e-02		-56.807		2.689e-03		9.892
5		0.00		6.00		2.120e-02		-55.023		2.812e-03		8.505
5		0.00		6.40		2.319e-02		-54.337		4.233e-03		9.664
5		0.00		6.80		2.299e-02		-53.445		5.314e-03		10.616
5		0.00		7.20		2.440e-02		-54.648		5.445e-03		8.017
5		0.00		7.60		2.718e-02		-55.173		4.167e-03		8.088
5		0.00		8.00		2.707e-02		-53.258		3.997e-03		7.106
5		0.00		8.40		2.845e-02		-51.831		5.273e-03		7.428
5		0.00		8.80		2.945e-02		-51.680		6.918e-03		9.605
5		0.00		9.20		2.867e-02		-52.308		5.735e-03		7.946
5		0.00		9.60		3.018e-02		-53.287		5.188e-03		7.919
5		0.00		10.00		3.122e-02		-50.224		4.940e-03		7.663
5		0.00		9.60		2.927e-02		-50.627		5.982e-03		9.007
5		0.00		9.20		2.885e-02		-52.028		6.916e-03		9.464
5		0.00		8.80		2.627e-02		-52.318		5.364e-03		7.296
5		0.00		8.40		2.588e-02		-52.906		4.150e-03		8.267
5		0.00		8.00		2.310e-02		-52.765		4.152e-03		8.076
5		0.00		7.60		2.395e-02		-51.300		5.885e-03		10.595
5		0.00		7.20		2.406e-02		-52.602		5.924e-03		9.846
5		0.00		6.80		2.508e-02		-51.978		4.808e-03		7.903
5		0.00		6.40		2.501e-02		-54.528		3.706e-03		8.363
5		0.00		6.00		2.300e-02		-53.501		4.064e-03		8.135
5		0.00		5.60		2.182e-02		-52.563		5.056e-03		13.120
5		0.00		5.20		2.150e-02		-52.442		4.934e-03		9.359
5		0.00		4.80		2.156e-02		-54.907		4.117e-03		8.460
5		0.00		4.40		2.113e-02		-55.341		3.282e-03		7.534
5		0.00		4.00		2.043e-02		-53.065		4.031e-03		10.963
5		0.00		3.60		1.912e-02		-50.708		4.581e-03		13.916
5		0.00		3.20		1.916e-02		-53.559		3.975e-03		8.682
5		0.00		2.80		1.949e-02		-56.458		2.736e-03		9.444
5		0.00		2.40		1.958e-02		-51.813		2.568e-03		9.525
5		0.00		2.00		1.890e-02		-52.912		3.463e-03		9.449
5		0.00		1.60		1.788e-02		-51.791		3.936e-03		11.389
5		0.00		1.20		1.783e-02		-53.843		3.326e-03		10.182
5		0.00		0.80		1.813e-02		-54.900		2.457e-03		8.930
5		0.00		0.40		1.720e-02		-52.202		2.875e-03		10.142
5		0.00		0.00		1.618e-02		-54.624		3.318e-03		9.637
5		0.00		-0.40		1.472e-02		-50.612		3.425e-03		10.826
5		0.00		-0.80		1.314e-02		-55.950		2.513e-03		11.512
5		0.00		-1.20		9.954e-03		-57.359		2.405e-03		14.709
5		0.00		-1.60		6.591e-03		-53.188		2.596e-03		17.235
5		0.00		-2.00		3.408e-03		-45.902		2.283e-03		60.611
5		0.00		-2.40		3.705e-03		67.158		1.607e-03		72.345
5		0.00		-2.80		6.016e-03		121.604		2.058e-03		40.080
5		0.00		-3.20		8.360e-03		124.737		2.491e-03		28.050
5		0.00		-3.60		1.134e-02		127.182		3.052e-03		23.484
5		0.00		-4.00		1.402e-02		122.716		4.085e-03		27.045
5		0.00		-4.40		1.793e-02		128.967		3.822e-03		12.777
5		0.00		-4.80		2.169e-02		128.750		3.972e-03		6.833
5		0.00		-5.20		2.547e-02		129.798		5.091e-03		7.834
5		0.00		-5.60		2.633e-02		127.579		6.167e-03		11.458
5		0.00		-6.00		3.026e-02		127.718		5.651e-03		6.664
5		0.00		-6.40		3.270e-02		129.056		4.788e-03		6.933
5		0.00		-6.80		3.513e-02		129.715		5.578e-03		6.197
5		0.00		-7.20		3.635e-02		128.960		7.104e-03		11.252
5		0.00		-7.60		4.023e-02		127.384		7.973e-03		7.676
5		0.00		-8.00		4.030e-02		127.917		5.749e-03		6.033
5		0.00		-8.40		4.053e-02		128.290		5.078e-03		6.028
5		0.00		-8.80		4.086e-02		129.371		7.005e-03		7.985
5		0.00		-9.20		4.052e-02		128.396		7.898e-03		8.933
5		0.00		-9.60		3.933e-02		127.610		6.450e-03		5.777
5		0.00		-10.00		4.402e-02		128.626		5.278e-03		5.636
5		0.00		-9.60		4.221e-02		128.613		7.261e-03		7.509
5		0.00		-9.20		3.984e-02		127.789		8.753e-03		11.579
5		0.00		-8.80		4.286e-02		126.836		8.525e-03		6.587
5		0.00		-8.40		4.307e-02		126.307		5.575e-03		5.545
5		0.00		-8.00		4.011e-02		128.038		5.837e-03		6.282
5		0.00		-7.60		4.101e-02		128.216		8.343e-03		9.942
5		0.00		-7.20		3.984e-02		126.863		9.139e-03		10.806
5		0.00		-6.80		3.953e-02		127.266		6.836e-03		6.198
5		0.00		-6.40		4.034e-02		127.650		5.361e-03		5.676
5		0.00		-6.00		3.752e-02		127.480		6.059e-03		6.273
5		0.00		-5.60		3.413e-02		127.389		7.215e-03		12.692
5		0.00		-5.20		3.306e-02		127.508		6.277e-03		8.356
5		0.00		-4.80		3.227e-02		127.940		4.121e-03		6.276
5		0.00		-4.40		3.115e-02		128.255		4.083e-03		6.238
5		0.00		-4.00		2.921e-02		129.670		4.654e-03		8.145
5		0.00		-3.60		2.717e-02		129.140		5.397e-03		9.407
5		0.00		-3.20		2.631e-02		127.974		4.295e-03		8.416
5		0.00		-2.80		2.554e-02		129.302		3.284e-03		7.120
5		0.00		-2.40		2.371e-02		130.396		3.165e-03		6.207
5		0.00		-2.00		2.202e-02		128.096		3.610e-03		9.391
5		0.00		-1.60		2.043e-02		128.102		4.088e-03		11.478
5		0.00		-1.20		1.939e-02		127.308		3.362e-03		9.026
5		0.00		-0.80		1.829e-02		130.955		2.518e-03		8.228
5		0.00		-0.40		1.710e-02		130.945		2.476e-03		7.742
6		0.00		0.00		1.569e-02		127.724		3.148e-03		12.696
6		0.00		0.40		1.424e-02		129.697		3.059e-03		11.382
6		0.00		0.80		1.287e-02		131.651		2.377e-03		10.444
6		0.00		1.20		1.253e-02		129.176		2.154e-03		10.609
6		0.00		1.60		1.120e-02		131.212		2.144e-03		12.567
6		0.00		2.00		9.451e-03		131.329		2.160e-03		15.322
6		0.00		2.40		7.609e-03		130.147		1.961e-03		17.855
6		0.00		2.80		6.384e-03		128.536		1.701e-03		17.634
6		0.00		3.20		4.499e-03		126.648		1.451e-03		33.549
6		0.00		3.60		2.585e-03		44.455		1.001e-03		95.695
6		0.00		4.00		2.426e-03		-67.127		1.041e-03		50.825
6		0.00		4.40		5.644e-03		-58.337		1.685e-03		18.278
6		0.00		4.80		1.017e-02		-59.981		2.223e-03		11.971
6		0.00		5.20		1.399e-02		-58.371		1.915e-03		10.105
6		0.00		5.60		1.760e-02		-55.205		2.454e-03		9.570
6		0.00		6.00		2.038e-02		-53.548		3.775e-03		8.915
6		0.00		6.40		2.150e-02		-54.978		4.732e-03		10.032
6		0.00		6.80		2.517e-02		-56.238		4.645e-03		7.538
6		0.00		7.20		2.572e-02		-55.103		4.635e-03		7.218
6		0.00		7.60		2.718e-02		-51.464		5.250e-03		7.692
6		0.00		8.00		2.357e-02		-51.365		6.384e-03		12.751
6		0.00		8.40		2.827e-02		-52.234		6.629e-03		9.823
6		0.00		8.80		2.711e-02		-54.061		4.970e-03		8.793
6		0.00		9.20		2.997e-02		-53.535		4.630e-03		7.747
6		0.00		9.60		3.154e-02		-50.613		6.388e-03		6.710
6		0.00		10.00		2.991e-02		-50.941		7.338e-03		9.011
6		0.00		9.60		3.140e-02		-53.763		6.080e-03		7.751
6		0.00		9.20		2.756e-02		-52.125		4.884e-03		7.803
6		0.00		8.80		2.979e-02		-52.522		5.147e-03		7.967
6		0.00		8.40		2.519e-02		-51.041		5.778e-03		12.425
6		0.00		8.00		2.542e-02		-52.692		5.725e-03		9.672
6		0.00		7.60		2.360e-02		-54.356		3.789e-03		7.902
6		0.00		7.20		2.368e-02		-52.303		3.552e-03		7.742
6		0.00		6.80		2.051e-02		-50.106		4.263e-03		8.753
6		0.00		6.40		2.055e-02		-50.633		4.752e-03		11.286
6		0.00		6.00		2.049e-02		-52.753		3.469e-03		9.542
6		0.00		5.60		2.067e-02		-52.481		3.063e-03		9.033
6		0.00		5.20		2.071e-02		-53.192		3.366e-03		6.805
6		0.00		4.80		1.982e-02		-52.798		3.922e-03		8.715
6		0.00		4.40		1.881e-02		-52.594		3.172e-03		10.040
6		0.00		4.00		1.899e-02		-52.488		2.647e-03		7.680
6		0.00		3.60		1.765e-02		-51.083		2.554e-03		7.862
6		0.00		3.20		1.578e-02		-52.296		3.503e-03		9.755
6		0.00		2.80		1.534e-02		-55.988		3.396e-03		9.741
6		0.00		2.40		1.551e-02		-51.708		2.137e-03		8.887
6		0.00		2.00		1.571e-02		-53.032		2.317e-03		9.351
6		0.00		1.60		1.557e-02		-53.914		3.053e-03		9.879
6		0.00		1.20		1.551e-02		-53.763		3.003e-03		8.690
6		0.00		0.80		1.596e-02		-53.816		2.389e-03		9.827
6		0.00		0.40		1.652e-02		-52.943		2.286e-03		9.360
6		0.00		0.00		1.579e-02		-51.817		3.064e-03		10.449
6		0.00		-0.40		1.366e-02		-56.483		2.775e-03		10.706
6		0.00		-0.80		1.081e-02		-55.822		2.155e-03		11.298
6		0.00		-1.20		8.942e-03		-57.017		2.129e-03		13.479
6		0.00		-1.60		5.316e-03		-63.213		2.417e-03		22.419
6		0.00		-2.00		2.920e-03		-34.676		2.001e-03		56.465
6		0.00		-2.40		3.104e-03		48.695		1.641e-03		85.659
6		0.00		-2.80		5.747e-03		122.413		1.952e-03		43.610
6		0.00		-3.20		8.577e-03		128.527		2.227e-03		32.512
6		0.00		-3.60		1.182e-02		126.761		3.177e-03		27.663
6		0.00		-4.00		1.487e-02		128.866		3.445e-03		15.788
6		0.00		-4.40		1.886e-02		128.961		3.439e-03		8.861
6		0.00		-4.80		2.129e-02		129.797		3.447e-03		7.351
6		0.00		-5.20		2.419e-02		130.296		4.380e-03		9.311
6		0.00		-5.60		2.626e-02		128.804		5.218e-03		10.177
6		0.00		-6.00		2.937e-02		129.417		4.230e-03		6.657
6		0.00		-6.40		3.397e-02		129.112		4.780e-03		6.033
6		0.00		-6.80		3.435e-02		128.550		6.469e-03		8.252
6		0.00		-7.20		3.131e-02		127.629		7.546e-03		10.885
6		0.00		-7.60		3.843e-02		127.971		7.122e-03		7.352
6		0.00		-8.00		4.348e-02		127.188		6.259e-03		6.212
6		0.00		-8.40		4.302e-02		128.986		7.855e-03		5.749
6		0.00		-8.80		4.197e-02		127.221		9.459e-03		11.760
6		0.00		-9.20		3.696e-02		127.886		7.903e-03		7.881
6		0.00		-9.60		4.005e-02		127.261		5.966e-03		6.429
6		0.00		-10.00		3.677e-02		130.014		6.330e-03		6.836
6		0.00		-9.60		3.590e-02		129.116		7.836e-03		11.801
6		0.00		-9.20		3.770e-02		127.890		8.044e-03		8.778
6		0.00		-8.80		3.531e-02		127.437		5.398e-03		6.289
6		0.00		-8.40		3.650e-02		128.942		5.893e-03		6.490
6		0.00		-8.00		3.498e-02		128.153		7.440e-03		12.398
6		0.00		-7.60		3.633e-02		127.492		7.706e-03		8.358
6		0.00		-7.20		3.867e-02		128.897		5.352e-03		5.953
6		0.00		-6.80		3.799e-02		128.330		6.181e-03		7.152
6		0.00		-6.40		3.517e-02		128.364		7.019e-03		10.881
6		0.00		-6.00		3.438e-02		127.529		7.414e-03		8.511
6		0.00		-5.60		3.417e-02		128.175		5.200e-03		6.554
6		0.00		-5.20		3.427e-02		128.224		4.706e-03		6.513
6		0.00		-4.80		3.161e-02		128.362		6.194e-03		9.276
6		0.00		-4.40		3.047e-02		126.213		6.680e-03		10.018
6		0.00		-4.00		3.064e-02		129.569		4.652e-03		6.210
6		0.00		-3.60		2.967e-02		129.621		3.994e-03		7.534
6		0.00		-3.20		2.626e-02		130.490		4.715e-03		9.809
6		0.00		-2.80		2.414e-02		126.436		5.462e-03		10.838
6		0.00		-2.40		2.302e-02		128.849		3.329e-03		8.117
6		0.00		-2.00		2.147e-02		130.373		3.066e-03		7.651
6		0.00		-1.60		1.919e-02		127.077		3.895e-03		10.582
6		0.00		-1.20		1.766e-02		129.915		4.028e-03		11.358
6		0.00		-0.80		1.720e-02		132.076		3.082e-03		9.274
6		0.00		-0.40		1.558e-02		127.966		2.633e-03		9.011
7		0.00		0.00		1.425e-02		133.090		3.143e-03		11.569
7		0.00		0.40		1.273e-02		129.820		2.785e-03		13.186
7		0.00		0.80		1.201e-02		131.273		2.466e-03		10.862
7		0.00		1.20		1.054e-02		129.652		2.132e-03		11.991
7		0.00		1.60		8.173e-03		136.383		2.091e-03		16.485
7		0.00		2.00		5.454e-03		125.865		1.544e-03		31.518
7		0.00		2.40		3.052e-03		82.315		1.273e-03		90.540
7		0.00		2.80		2.836e-03		-90.446		9.938e-04		46.983
7		0.00		3.20		5.383e-03		-64.416		1.483e-03		20.363
7		0.00		3.60		1.209e-02		-57.522		2.599e-03		9.946
7		0.00		4.00		1.577e-02		-59.239		2.354e-03		10.116
7		0.00		4.40		1.928e-02		-56.873		2.810e-03		8.469
7		0.00		4.80		2.096e-02		-56.552		4.228e-03		10.066
7		0.00		5.20		2.205e-02		-56.191		5.271e-03		10.200
7		0.00		5.60		2.543e-02		-56.855		4.435e-03		7.646
7		0.00		6.00		2.747e-02		-55.345		4.399e-03		7.349
7		0.00		6.40		2.613e-02		-54.848		5.727e-03		9.692
7		0.00		6.80		2.301e-02		-55.747		6.009e-03		9.494
7		0.00		7.20		2.561e-02		-55.726		5.463e-03		8.361
7		0.00		7.60		2.600e-02		-53.096		4.882e-03		7.821
7		0.00		8.00		2.525e-02		-52.208		4.994e-03		8.671
7		0.00		8.40		2.784e-02		-52.698		6.947e-03		10.533
7		0.00		8.80		2.844e-02		-53.132		5.606e-03		7.767
7		0.00		9.20		3.122e-02		-51.564		4.856e-03		7.764
7		0.00		9.60		3.199e-02		-50.288		5.653e-03		7.065
7		0.00		10.00		2.971e-02		-52.035		6.830e-03		10.620
7		0.00		9.60		3.050e-02		-53.583		6.714e-03		8.199
7		0.00		9.20		3.100e-02		-51.663		4.927e-03		7.642
7		0.00		8.80		2.885e-02		-51.210		4.843e-03		8.144
7		0.00		8.40		2.800e-02		-51.448		6.362e-03		10.931
7		0.00		8.00		2.664e-02		-51.619		5.682e-03		8.913
7		0.00		7.60		2.918e-02		-51.943		5.112e-03		6.974
7		0.00		7.20		2.562e-02		-51.344		4.158e-03		8.882
7		0.00		6.80		2.534e-02		-52.230		5.386e-03		10.272
7		0.00		6.40		2.289e-02		-52.394		5.113e-03		9.211
7		0.00		6.00		2.393e-02		-52.273		3.898e-03		7.750
7		0.00		5.60		2.372e-02		-53.232		3.197e-03		7.140
7		0.00		5.20		2.178e-02		-53.414		3.862e-03		7.787
7		0.00		4.80		2.051e-02		-53.995		4.611e-03		11.333
7		0.00		4.40		2.047e-02		-53.454		3.852e-03		9.376
7		0.00		4.00		2.055e-02		-54.430		2.763e-03		8.114
7		0.00		3.60		1.991e-02		-51.468		3.039e-03		8.241
7		0.00		3.20		1.888e-02		-51.783		3.725e-03		10.596
7		0.00		2.80		1.880e-02		-51.878		3.980e-03		8.534
7		0.00		2.40		1.901e-02		-52.010		2.847e-03		8.312
7		0.00		2.00		1.909e-02		-54.374		2.384e-03		9.231
7		0.00		1.60		1.811e-02		-52.453		3.197e-03		9.380
7		0.00		1.20		1.653e-02		-51.413		3.663e-03		9.200
7		0.00		0.80		1.680e-02		-53.413		3.097e-03		9.790
7		0.00		0.40		1.710e-02		-52.177		2.449e-03		9.578
7		0.00		0.00		1.601e-02		-54.203		2.410e-03		9.297
7		0.00		-0.40		1.356e-02		-52.343		3.055e-03		11.566
7		0.00		-0.80		1.131e-02		-54.425		2.811e-03		10.448
7		0.00		-1.20		8.920e-03		-54.208		2.168e-03		13.284
7		0.00		-1.60		6.788e-03		-63.180		2.213e-03		14.287
7		0.00		-2.00		3.005e-03		-44.265		1.958e-03		66.750
7		0.00		-2.40		3.040e-03		30.271		1.794e-03		76.645
7		0.00		-2.80		4.469e-03		101.129		1.994e-03		56.920
7		0.00		-3.20		7.299e-03		119.970		2.232e-03		43.585
7		0.00		-3.60		1.081e-02		127.587		2.980e-03		26.702
7		0.00		-4.00		1.418e-02		125.460		3.717e-03		18.885
7		0.00		-4.40		1.810e-02		128.103		4.787e-03		13.058
7		0.00		-4.80		1.995e-02		126.767		5.677e-03		17.503
7		0.00		-5.20		2.430e-02		128.105		5.994e-03		8.627
7		0.00		-5.60		2.691e-02		127.641		5.427e-03		7.848
7		0.00		-6.00		2.895e-02		127.909		5.809e-03		7.720
7		0.00		-6.40		3.285e-02		129.162		7.612e-03		8.804
7		0.00		-6.80		3.454e-02		128.003		8.073e-03		10.602
7		0.00		-7.20		3.742e-02		127.841		8.339e-03		8.131
7		0.00		-7.60		4.093e-02		128.850		6.729e-03		5.102
7		0.00		-8.00		3.963e-02		127.796		5.986e-03		5.754
7		0.00		-8.40		4.220e-02		129.444		7.614e-03		6.965
7		0.00		-8.80		4.131e-02		127.348		8.613e-03		10.700
7		0.00		-9.20		4.129e-02		128.857		9.081e-03		8.354
7		0.00		-9.60		4.644e-02		128.081		8.136e-03		5.817
7		0.00		-10.00		4.534e-02		128.766		6.780e-03		6.270
7		0.00		-9.60		4.487e-02		128.466		7.127e-03		6.868
7		0.00		-9.20		4.540e-02		129.351		9.274e-03		8.921
7		0.00		-8.80		4.462e-02		127.011		1.023e-02		12.269
7		0.00		-8.40		4.392e-02		127.033		9.480e-03		8.599
7		0.00		-8.00		4.639e-02		127.684		7.181e-03		5.851
7		0.00		-7.60		4.439e-02		127.036		6.645e-03		6.409
7		0.00		-7.20		4.359e-02		128.693		6.271e-03		4.980
7		0.00		-6.80		4.157e-02		127.939		8.720e-03		8.792
7		0.00		-6.40		3.983e-02		127.324		8.897e-03		9.954
7		0.00		-6.00		3.938e-02		128.386		7.372e-03		6.251
7		0.00		-5.60		3.803e-02		128.471		5.468e-03		5.451
7		0.00		-5.20		3.632e-02		128.842		5.072e-03		6.491
7		0.00		-4.80		3.405e-02		129.044		5.800e-03		8.976
7		0.00		-4.40		3.204e-02		128.254		6.573e-03		12.448
7		0.00		-4.00		3.038e-02		127.613		6.058e-03		8.000
7		0.00		-3.60		3.008e-02		128.653		4.709e-03		6.533
7		0.00		-3.20		2.866e-02		127.457		3.646e-03		6.507
7		0.00		-2.80		2.659e-02		131.006		4.347e-03		6.646
7		0.00		-2.40		2.523e-02		130.441		4.568e-03		8.673
7		0.00		-2.00		2.402e-02		128.301		4.839e-03		9.909
7		0.00		-1.60		2.261e-02		129.382		4.146e-03		7.189
7		0.00		-1.20		2.111e-02		130.226		2.898e-03		7.388
7		0.00		-0.80		2.049e-02		128.720		2.892e-03		6.745
7		0.00		-0.40		1.822e-02		129.193		3.412e-03		10.936
8		0.00		0.00		1.657e-02		127.204		3.744e-03		15.106
8		0.00		0.40		1.542e-02		128.183		3.483e-03		10.459
8		0.00		0.80		1.456e-02		129.925		2.611e-03		9.319
8		0.00		1.20		1.324e-02		129.914		2.461e-03		8.984
8		0.00		1.60		1.213e-02		131.522		2.602e-03		8.853
8		0.00		2.00		1.065e-02		132.405		2.673e-03		14.243
8		0.00		2.40		9.577e-03		130.406		2.371e-03		17.626
8		0.00		2.80		7.990e-03		129.919		2.355e-03		19.647
8		0.00		3.20		6.135e-03		133.351		1.641e-03		17.763
8		0.00		3.60		4.439e-03		122.685		1.322e-03		26.532
8		0.00		4.00		2.390e-03		54.746		9.687e-04		88.577
8		0.00		4.40		3.086e-03		-73.634		1.005e-03		43.702
8		0.00		4.80		5.872e-03		-63.620		1.742e-03		16.490
8		0.00		5.20		9.416e-03		-62.419		1.890e-03		10.257
8		0.00		5.60		1.408e-02		-57.074		1.962e-03		10.719
8		0.00		6.00		1.967e-02		-56.998		2.619e-03		8.050
8		0.00		6.40		2.304e-02		-55.826		3.693e-03		7.279
8		0.00		6.80		2.500e-02		-56.383		5.123e-03		8.481
8		0.00		7.20		2.739e-02		-55.501		5.639e-03		9.202
8		0.00		7.60		2.845e-02		-54.601		4.689e-03		7.674
8		0.00		8.00		3.181e-02		-53.999		4.740e-03		7.493
8		0.00		8.40		3.272e-02		-52.732		5.194e-03		7.011
8		0.00		8.80		3.127e-02		-51.928		7.189e-03		10.423
8		0.00		9.20		3.299e-02		-54.788		8.435e-03		9.543
8		0.00		9.60		3.137e-02		-51.464		6.948e-03		7.355
8		0.00		10.00		3.399e-02		-53.608		5.241e-03		6.798
8		0.00		9.60		3.356e-02		-49.893		5.305e-03		6.650
8		0.00		9.20		3.134e-02		-50.480		6.268e-03		8.023
8		0.00		8.80		2.769e-02		-51.243		6.911e-03		11.913
8		0.00		8.40		2.695e-02		-52.641		5.839e-03		8.838
8		0.00		8.00		2.919e-02		-52.309		4.657e-03		6.833
8		0.00		7.60		2.686e-02		-52.322		4.915e-03		7.110
8		0.00		7.20		2.745e-02		-50.742		4.772e-03		6.993
8		0.00		6.80		2.666e-02		-50.202		5.702e-03		10.332
8		0.00		6.40		2.557e-02		-53.108		5.445e-03		8.965
8		0.00		6.00		2.570e-02		-50.545		4.140e-03		6.953
8		0.00		5.60		2.521e-02		-53.772		3.330e-03		8.685
8		0.00		5.20		2.370e-02		-50.790		3.483e-03		7.478
8		0.00		4.80		2.294e-02		-53.202		4.385e-03		11.324
8		0.00		4.40		2.321e-02		-52.521		4.644e-03		10.016
8		0.00		4.00		2.265e-02		-53.190		3.564e-03		6.829
8		0.00		3.60		2.262e-02		-53.160		2.871e-03		8.703
8		0.00		3.20		2.176e-02		-51.565		3.236e-03		8.196
8		0.00		2.80		1.994e-02		-52.226		4.364e-03		11.402
8		0.00		2.40		1.930e-02		-53.171		4.695e-03		11.496
8		0.00		2.00		1.988e-02		-52.114		4.076e-03		7.397
8		0.00		1.60		2.032e-02		-51.302		2.945e-03		9.095
8		0.00		1.20		2.009e-02		-52.607		3.198e-03		7.619
8		0.00		0.80		1.970e-02		-52.073		3.840e-03		9.730
8		0.00		0.40		1.901e-02		-51.744		4.477e-03		10.003
8		0.00		0.00		1.833e-02		-53.494		4.112e-03		8.489
8		0.00		-0.40		1.839e-02		-54.177		2.951e-03		9.497
8		0.00		-0.80		1.674e-02		-53.695		2.625e-03		10.047
8		0.00		-1.20		1.355e-02		-55.264		3.271e-03		12.097
8		0.00		-1.60		1.033e-02		-50.860		3.192e-03		11.111
8		0.00		-2.00		6.355e-03		-57.142		2.450e-03		20.735
8		0.00		-2.40		3.947e-03		-59.804		2.104e-03		39.830
8		0.00		-2.80		2.815e-03		29.777		1.317e-03		83.786
8		0.00		-3.20		4.937e-03		101.115		1.820e-03		55.498
8		0.00		-3.60		7.338e-03		118.208		2.527e-03		37.810
8		0.00		-4.00		1.161e-02		124.467		3.262e-03		24.888
8		0.00		-4.40		1.431e-02		128.808		3.225e-03		13.713
8		0.00		-4.80		1.967e-02		129.506		3.781e-03		9.006
8		0.00		-5.20		2.316e-02		129.296		4.430e-03		6.726
8		0.00		-5.60		2.588e-02		128.361		5.847e-03		10.789
8		0.00		-6.00		2.881e-02		128.372		6.178e-03		9.480
8		0.00		-6.40		3.133e-02		127.201		4.909e-03		7.063
8		0.00		-6.80		3.599e-02		128.011		5.197e-03		5.423
8		0.00		-7.20		3.682e-02		128.971		6.158e-03		5.744
8		0.00		-7.60		3.808e-02		128.965		8.047e-03		9.507
8		0.00		-8.00		4.103e-02		127.386		8.892e-03		8.775
8		0.00		-8.40		4.192e-02		127.876		6.535e-03		5.253
8		0.00		-8.80		4.603e-02		128.477		6.177e-03		5.678
8		0.00		-9.20		4.442e-02		129.035		6.317e-03		5.882
8		0.00		-9.60		4.248e-02		128.452		9.113e-03		11.019
8		0.00		-10.00		4.531e-02		128.042		9.544e-03		9.892
8		0.00		-9.60		4.750e-02		128.206		7.626e-03		6.286
8		0.00		-9.20		4.769e-02		127.452		6.234e-03		5.316
8		0.00		-8.80		4.629e-02		128.036		6.069e-03		5.159
8		0.00		-8.40		4.164e-02		128.712		7.717e-03		7.591
8		0.00		-8.00		4.469e-02		127.122		9.214e-03		9.061
8		0.00		-7.60		4.403e-02		126.803		7.530e-03		6.708
8		0.00		-7.20		4.268e-02		127.516		5.401e-03		4.295
8		0.00		-6.80		4.112e-02		128.822		5.558e-03		5.995
8		0.00		-6.40		3.829e-02		130.021		6.421e-03		6.550
8		0.00		-6.00		3.634e-02		127.576		7.203e-03		12.369
8		0.00		-5.60		3.475e-02		128.681		6.840e-03		8.271
8		0.00		-5.20		3.408e-02		128.146		5.074e-03		6.558
8		0.00		-4.80		3.253e-02		127.937		4.420e-03		6.940
8		0.00		-4.40		3.038e-02		127.252		5.475e-03		8.133
8		0.00		-4.00		2.783e-02		128.355		6.612e-03		11.226
8		0.00		-3.60		2.675e-02		128.939		6.015e-03		8.973
8		0.00		-3.20		2.598e-02		127.526		4.274e-03		7.462
8		0.00		-2.80		2.475e-02		128.979		4.157e-03		6.945
8		0.00		-2.40		2.254e-02		129.536		4.538e-03		9.759
8		0.00		-2.00		2.085e-02		129.376		4.895e-03		14.904
8		0.00		-1.60		2.015e-02		129.356		4.445e-03		9.373
8		0.00		-1.20		1.927e-02		128.434		3.031e-03		8.155
8		0.00		-0.80		1.872e-02		129.010		2.742e-03		8.845
8		0.00		-0.40		1.690e-02		129.639		2.986e-03		8.764
