# Date of analysis: 2024-03-08 10;58
# Segment other properties: height: -57.642240044677166, diff height: 537.4740309323895, deflection: 33.23398256666178, deflection error: 2.8124922518054447, adhesion: 32.74965561010478, phase offset: 0
# 
# Loop index	Read Volt (V)	Write Volt (V)	Amplitude (a.u)	Phase (deg)	Sigma Amp (a.u)	Sigma Pha (deg)	
1		0.00		0.00		3.263e-02		-52.058		6.296e-03		8.043
1		0.00		0.40		3.263e-02		-52.797		6.558e-03		8.135
1		0.00		0.80		3.246e-02		-51.756		6.527e-03		7.872
1		0.00		1.20		3.201e-02		-51.870		6.407e-03		8.211
1		0.00		1.60		3.190e-02		-51.635		6.375e-03		7.863
1		0.00		2.00		3.192e-02		-52.011		6.903e-03		6.994
1		0.00		2.40		3.173e-02		-52.239		6.909e-03		7.649
1		0.00		2.80		3.242e-02		-52.658		7.367e-03		7.776
1		0.00		3.20		3.223e-02		-52.669		6.806e-03		7.711
1		0.00		3.60		3.304e-02		-52.045		6.906e-03		7.332
1		0.00		4.00		3.373e-02		-51.072		6.709e-03		6.779
1		0.00		4.40		3.440e-02		-52.578		7.070e-03		7.107
1		0.00		4.80		3.472e-02		-52.385		6.733e-03		6.516
1		0.00		5.20		3.546e-02		-52.747		6.986e-03		6.836
1		0.00		5.60		3.651e-02		-51.965		7.238e-03		6.151
1		0.00		6.00		3.707e-02		-52.946		7.148e-03		7.299
1		0.00		6.40		3.707e-02		-52.444		6.847e-03		5.870
1		0.00		6.80		3.830e-02		-52.985		7.384e-03		6.493
1		0.00		7.20		3.947e-02		-52.226		7.430e-03		6.941
1		0.00		7.60		4.104e-02		-52.224		8.068e-03		5.271
1		0.00		8.00		4.226e-02		-51.918		8.460e-03		7.619
1		0.00		8.40		4.399e-02		-52.883		8.908e-03		6.869
1		0.00		8.80		4.608e-02		-52.866		9.375e-03		6.829
1		0.00		9.20		4.938e-02		-53.263		9.830e-03		6.481
1		0.00		9.60		5.028e-02		-52.276		1.041e-02		8.276
1		0.00		10.00		5.334e-02		-51.000		1.079e-02		7.331
1		0.00		9.60		5.228e-02		-51.174		1.008e-02		8.588
1		0.00		9.20		5.493e-02		-50.539		1.172e-02		9.438
1		0.00		8.80		5.496e-02		-50.350		1.176e-02		9.117
1		0.00		8.40		5.579e-02		-51.884		1.124e-02		7.401
1		0.00		8.00		5.553e-02		-49.895		1.056e-02		7.003
1		0.00		7.60		5.563e-02		-51.888		1.106e-02		7.663
1		0.00		7.20		5.347e-02		-50.488		1.069e-02		8.290
1		0.00		6.80		5.450e-02		-51.427		1.188e-02		8.285
1		0.00		6.40		5.280e-02		-50.829		9.796e-03		6.867
1		0.00		6.00		5.217e-02		-50.682		9.687e-03		6.864
1		0.00		5.60		5.257e-02		-50.941		1.033e-02		7.163
1		0.00		5.20		5.099e-02		-51.277		1.059e-02		7.937
1		0.00		4.80		5.107e-02		-51.013		1.051e-02		8.561
1		0.00		4.40		5.082e-02		-51.639		1.073e-02		8.645
1		0.00		4.00		4.946e-02		-51.085		1.107e-02		7.505
1		0.00		3.60		4.995e-02		-53.447		1.175e-02		10.381
1		0.00		3.20		4.948e-02		-51.690		1.082e-02		9.472
1		0.00		2.80		4.909e-02		-50.794		1.033e-02		7.346
1		0.00		2.40		4.906e-02		-50.419		1.124e-02		8.699
1		0.00		2.00		4.859e-02		-50.936		1.061e-02		7.717
1		0.00		1.60		4.852e-02		-51.946		1.114e-02		8.818
1		0.00		1.20		4.857e-02		-51.108		1.089e-02		6.942
1		0.00		0.80		4.830e-02		-51.562		1.008e-02		9.520
1		0.00		0.40		4.830e-02		-51.226		1.022e-02		7.819
1		0.00		0.00		4.789e-02		-49.932		1.037e-02		7.018
1		0.00		-0.40		4.841e-02		-52.304		1.021e-02		10.502
1		0.00		-0.80		4.768e-02		-51.039		9.987e-03		7.248
1		0.00		-1.20		4.602e-02		-49.708		9.624e-03		9.061
1		0.00		-1.60		4.595e-02		-51.497		1.004e-02		7.990
1		0.00		-2.00		4.460e-02		-52.008		9.656e-03		7.627
1		0.00		-2.40		4.208e-02		-51.727		9.516e-03		7.646
1		0.00		-2.80		3.984e-02		-50.827		9.114e-03		8.826
1		0.00		-3.20		3.644e-02		-51.030		8.901e-03		9.464
1		0.00		-3.60		3.189e-02		-49.721		8.159e-03		9.256
1		0.00		-4.00		2.794e-02		-51.250		6.878e-03		10.535
1		0.00		-4.40		2.257e-02		-50.505		6.224e-03		10.551
1		0.00		-4.80		2.007e-02		-48.261		5.472e-03		12.889
1		0.00		-5.20		1.527e-02		-46.653		4.249e-03		13.641
1		0.00		-5.60		1.160e-02		-46.218		3.430e-03		16.074
1		0.00		-6.00		7.379e-03		-45.293		2.646e-03		21.048
1		0.00		-6.40		4.184e-03		-48.223		1.682e-03		22.842
1		0.00		-6.80		2.047e-03		14.788		9.528e-04		50.687
1		0.00		-7.20		4.021e-03		100.391		1.696e-03		36.547
1		0.00		-7.60		6.143e-03		115.820		1.708e-03		23.103
1		0.00		-8.00		8.560e-03		115.841		2.339e-03		18.107
1		0.00		-8.40		1.099e-02		120.849		2.951e-03		14.542
1		0.00		-8.80		1.284e-02		123.600		3.334e-03		13.397
1		0.00		-9.20		1.466e-02		119.962		3.897e-03		11.258
1		0.00		-9.60		1.672e-02		122.372		4.189e-03		11.141
1		0.00		-10.00		1.756e-02		123.133		4.088e-03		11.237
1		0.00		-9.60		1.821e-02		123.214		4.203e-03		9.792
1		0.00		-9.20		1.789e-02		125.138		4.296e-03		11.206
1		0.00		-8.80		1.755e-02		125.352		3.956e-03		9.798
1		0.00		-8.40		1.798e-02		122.539		4.403e-03		11.443
1		0.00		-8.00		1.781e-02		125.086		3.987e-03		10.640
1		0.00		-7.60		1.719e-02		123.559		3.727e-03		9.714
1		0.00		-7.20		1.625e-02		121.943		3.466e-03		10.446
1		0.00		-6.80		1.590e-02		123.706		3.408e-03		10.089
1		0.00		-6.40		1.531e-02		122.872		3.118e-03		11.129
1		0.00		-6.00		1.505e-02		122.967		3.341e-03		9.442
1		0.00		-5.60		1.374e-02		124.061		3.123e-03		11.610
1		0.00		-5.20		1.304e-02		126.153		2.698e-03		12.614
1		0.00		-4.80		1.269e-02		123.117		2.551e-03		13.830
1		0.00		-4.40		1.284e-02		122.384		2.751e-03		11.895
1		0.00		-4.00		1.182e-02		125.594		2.526e-03		13.088
1		0.00		-3.60		1.140e-02		126.406		2.237e-03		11.453
1		0.00		-3.20		1.068e-02		124.919		2.322e-03		14.421
1		0.00		-2.80		9.948e-03		120.272		2.134e-03		13.835
1		0.00		-2.40		9.627e-03		124.601		2.267e-03		15.075
1		0.00		-2.00		8.903e-03		120.818		2.256e-03		17.966
1		0.00		-1.60		8.309e-03		124.670		2.336e-03		16.640
1		0.00		-1.20		8.195e-03		117.019		2.231e-03		20.088
1		0.00		-0.80		7.803e-03		118.604		2.262e-03		18.633
1		0.00		-0.40		7.392e-03		123.096		2.021e-03		22.796
2		0.00		0.00		7.087e-03		121.397		2.066e-03		20.467
2		0.00		0.40		6.481e-03		118.870		1.854e-03		20.316
2		0.00		0.80		6.359e-03		115.703		1.996e-03		21.089
2		0.00		1.20		5.610e-03		119.383		1.980e-03		23.923
2		0.00		1.60		4.579e-03		112.439		1.665e-03		28.592
2		0.00		2.00		4.238e-03		107.130		1.436e-03		46.633
2		0.00		2.40		3.218e-03		98.820		1.201e-03		42.073
2		0.00		2.80		2.499e-03		89.251		1.247e-03		43.811
2		0.00		3.20		1.876e-03		49.789		8.369e-04		75.406
2		0.00		3.60		1.852e-03		-9.618		7.704e-04		76.779
2		0.00		4.00		2.211e-03		-51.035		9.321e-04		50.291
2		0.00		4.40		2.957e-03		-42.988		1.152e-03		37.399
2		0.00		4.80		4.592e-03		-50.969		1.496e-03		23.887
2		0.00		5.20		5.581e-03		-53.190		1.565e-03		20.986
2		0.00		5.60		7.007e-03		-53.672		1.525e-03		19.260
2		0.00		6.00		9.493e-03		-50.790		2.066e-03		15.321
2		0.00		6.40		1.225e-02		-49.664		2.393e-03		13.935
2		0.00		6.80		1.473e-02		-53.473		2.778e-03		11.399
2		0.00		7.20		1.813e-02		-52.636		3.512e-03		11.306
2		0.00		7.60		2.119e-02		-51.485		4.164e-03		10.116
2		0.00		8.00		2.585e-02		-52.985		4.941e-03		9.108
2		0.00		8.40		2.974e-02		-52.210		5.707e-03		7.770
2		0.00		8.80		3.430e-02		-52.481		6.590e-03		6.404
2		0.00		9.20		3.936e-02		-51.739		7.799e-03		6.782
2		0.00		9.60		4.387e-02		-51.670		9.029e-03		7.980
2		0.00		10.00		4.869e-02		-52.780		9.689e-03		8.535
2		0.00		9.60		5.070e-02		-50.709		1.015e-02		6.619
2		0.00		9.20		5.168e-02		-50.267		9.321e-03		6.472
2		0.00		8.80		5.230e-02		-50.621		9.494e-03		6.381
2		0.00		8.40		5.036e-02		-49.904		1.018e-02		7.995
2		0.00		8.00		5.071e-02		-51.356		1.041e-02		8.302
2		0.00		7.60		4.989e-02		-50.600		1.050e-02		6.325
2		0.00		7.20		5.040e-02		-51.218		1.076e-02		8.373
2		0.00		6.80		4.874e-02		-50.676		1.100e-02		6.763
2		0.00		6.40		4.867e-02		-51.313		1.133e-02		8.575
2		0.00		6.00		4.758e-02		-50.616		1.101e-02		8.500
2		0.00		5.60		4.690e-02		-50.509		1.153e-02		7.040
2		0.00		5.20		4.580e-02		-52.160		1.191e-02		10.395
2		0.00		4.80		4.581e-02		-52.661		1.169e-02		9.067
2		0.00		4.40		4.572e-02		-53.075		1.212e-02		8.709
2		0.00		4.00		4.494e-02		-51.987		1.191e-02		9.203
2		0.00		3.60		4.459e-02		-52.864		1.174e-02		9.222
2		0.00		3.20		4.404e-02		-54.195		1.180e-02		10.217
2		0.00		2.80		4.299e-02		-53.352		1.173e-02		10.450
2		0.00		2.40		4.357e-02		-52.864		1.148e-02		10.073
2		0.00		2.00		4.414e-02		-52.150		1.099e-02		8.338
2		0.00		1.60		4.499e-02		-53.593		1.078e-02		9.027
2		0.00		1.20		4.433e-02		-52.944		1.043e-02		8.126
2		0.00		0.80		4.423e-02		-52.454		1.017e-02		7.284
2		0.00		0.40		4.386e-02		-52.183		9.745e-03		7.817
2		0.00		0.00		4.454e-02		-54.121		9.574e-03		7.864
2		0.00		-0.40		4.428e-02		-52.727		8.941e-03		6.849
2		0.00		-0.80		4.397e-02		-52.781		8.497e-03		6.733
2		0.00		-1.20		4.348e-02		-52.084		8.185e-03		5.835
2		0.00		-1.60		4.346e-02		-51.924		7.845e-03		7.180
2		0.00		-2.00		4.238e-02		-52.693		7.727e-03		5.573
2		0.00		-2.40		4.068e-02		-52.013		8.013e-03		8.002
2		0.00		-2.80		3.867e-02		-51.920		7.565e-03		6.738
2		0.00		-3.20		3.672e-02		-51.244		6.951e-03		6.930
2		0.00		-3.60		3.339e-02		-52.761		6.143e-03		8.798
2		0.00		-4.00		3.002e-02		-52.194		5.693e-03		8.371
2		0.00		-4.40		2.677e-02		-48.540		5.254e-03		9.823
2		0.00		-4.80		2.206e-02		-50.623		4.583e-03		9.428
2		0.00		-5.20		1.827e-02		-49.056		3.760e-03		11.114
2		0.00		-5.60		1.446e-02		-47.001		3.414e-03		12.934
2		0.00		-6.00		1.080e-02		-47.369		2.704e-03		14.268
2		0.00		-6.40		6.680e-03		-45.936		1.926e-03		17.746
2		0.00		-6.80		3.742e-03		-40.006		1.542e-03		28.988
2		0.00		-7.20		2.095e-03		6.911		8.798e-04		59.381
2		0.00		-7.60		3.157e-03		96.084		1.240e-03		41.520
2		0.00		-8.00		5.815e-03		111.204		1.864e-03		17.646
2		0.00		-8.40		7.802e-03		117.797		2.214e-03		19.623
2		0.00		-8.80		9.945e-03		117.883		2.503e-03		19.213
2		0.00		-9.20		1.124e-02		122.250		2.812e-03		18.494
2		0.00		-9.60		1.345e-02		122.733		3.370e-03		15.174
2		0.00		-10.00		1.417e-02		118.464		3.721e-03		16.561
2		0.00		-9.60		1.440e-02		122.165		4.060e-03		14.056
2		0.00		-9.20		1.450e-02		121.816		4.089e-03		15.028
2		0.00		-8.80		1.412e-02		121.395		4.224e-03		17.942
2		0.00		-8.40		1.424e-02		121.442		4.021e-03		17.636
2		0.00		-8.00		1.434e-02		122.603		4.045e-03		13.987
2		0.00		-7.60		1.368e-02		120.005		3.781e-03		18.469
2		0.00		-7.20		1.330e-02		118.574		3.792e-03		16.342
2		0.00		-6.80		1.287e-02		120.534		3.432e-03		14.038
2		0.00		-6.40		1.234e-02		124.479		3.102e-03		12.654
2		0.00		-6.00		1.181e-02		121.109		2.965e-03		13.421
2		0.00		-5.60		1.134e-02		123.667		2.899e-03		12.553
2		0.00		-5.20		1.066e-02		124.345		2.643e-03		11.802
2		0.00		-4.80		1.038e-02		121.502		2.665e-03		14.695
2		0.00		-4.40		9.636e-03		119.770		2.368e-03		14.261
2		0.00		-4.00		8.640e-03		121.848		2.271e-03		12.301
2		0.00		-3.60		8.671e-03		123.062		2.052e-03		14.634
2		0.00		-3.20		7.675e-03		116.168		1.871e-03		12.692
2		0.00		-2.80		7.640e-03		122.760		1.979e-03		14.083
2		0.00		-2.40		7.237e-03		119.162		1.518e-03		16.821
2		0.00		-2.00		6.723e-03		120.144		1.957e-03		17.073
2		0.00		-1.60		6.377e-03		121.205		1.815e-03		19.116
2		0.00		-1.20		5.949e-03		121.409		1.642e-03		20.380
2		0.00		-0.80		5.574e-03		115.815		1.596e-03		18.996
2		0.00		-0.40		5.601e-03		115.955		1.554e-03		18.177
3		0.00		0.00		4.805e-03		120.848		1.524e-03		21.458
3		0.00		0.40		4.583e-03		118.411		1.592e-03		28.221
3		0.00		0.80		3.740e-03		110.344		1.274e-03		41.210
3		0.00		1.20		3.746e-03		110.580		1.247e-03		27.243
3		0.00		1.60		3.122e-03		100.951		1.171e-03		44.080
3		0.00		2.00		2.771e-03		96.654		1.111e-03		53.662
3		0.00		2.40		2.168e-03		48.091		8.730e-04		85.796
3		0.00		2.80		1.737e-03		-3.407		7.130e-04		71.386
3		0.00		3.20		2.142e-03		-48.807		9.468e-04		60.193
3		0.00		3.60		2.780e-03		-44.547		1.228e-03		41.859
3		0.00		4.00		3.555e-03		-52.989		1.364e-03		26.339
3		0.00		4.40		4.649e-03		-60.102		1.569e-03		21.063
3		0.00		4.80		5.965e-03		-46.197		1.705e-03		18.983
3		0.00		5.20		7.386e-03		-52.985		1.799e-03		17.911
3		0.00		5.60		9.059e-03		-50.887		2.323e-03		16.592
3		0.00		6.00		1.041e-02		-51.737		2.703e-03		16.764
3		0.00		6.40		1.335e-02		-53.872		3.253e-03		12.919
3		0.00		6.80		1.476e-02		-49.696		3.707e-03		11.581
3		0.00		7.20		1.769e-02		-54.129		4.172e-03		12.778
3		0.00		7.60		2.091e-02		-50.055		5.282e-03		10.875
3		0.00		8.00		2.385e-02		-51.954		6.104e-03		10.385
3		0.00		8.40		2.720e-02		-52.465		6.842e-03		9.293
3		0.00		8.80		3.122e-02		-52.465		7.558e-03		9.109
3		0.00		9.20		3.524e-02		-53.563		8.115e-03		8.366
3		0.00		9.60		3.977e-02		-51.913		9.682e-03		8.427
3		0.00		10.00		4.402e-02		-52.662		1.078e-02		8.392
3		0.00		9.60		4.501e-02		-53.280		1.132e-02		9.710
3		0.00		9.20		4.558e-02		-53.590		1.133e-02		8.734
3		0.00		8.80		4.596e-02		-53.513		1.091e-02		8.278
3		0.00		8.40		4.591e-02		-53.717		1.114e-02		9.144
3		0.00		8.00		4.595e-02		-54.072		1.136e-02		8.751
3		0.00		7.60		4.569e-02		-54.399		1.031e-02		7.589
3		0.00		7.20		4.474e-02		-53.756		1.005e-02		7.843
3		0.00		6.80		4.407e-02		-53.927		1.014e-02		7.179
3		0.00		6.40		4.355e-02		-53.903		1.007e-02		6.087
3		0.00		6.00		4.275e-02		-54.067		1.009e-02		8.112
3		0.00		5.60		4.252e-02		-52.507		9.165e-03		6.611
3		0.00		5.20		4.213e-02		-53.424		9.282e-03		7.240
3		0.00		4.80		4.175e-02		-52.293		8.746e-03		6.649
3		0.00		4.40		4.191e-02		-53.054		8.982e-03		7.007
3		0.00		4.00		4.154e-02		-53.917		8.621e-03		6.507
3		0.00		3.60		4.123e-02		-53.064		7.861e-03		6.100
3		0.00		3.20		4.073e-02		-51.713		7.408e-03		5.978
3		0.00		2.80		4.072e-02		-53.088		7.398e-03		5.944
3		0.00		2.40		4.064e-02		-52.968		6.658e-03		6.189
3		0.00		2.00		4.094e-02		-52.059		6.942e-03		5.809
3		0.00		1.60		4.080e-02		-52.868		6.887e-03		6.115
3		0.00		1.20		4.082e-02		-53.211		6.724e-03		6.819
3		0.00		0.80		4.104e-02		-52.458		6.807e-03		5.613
3		0.00		0.40		4.015e-02		-51.920		6.570e-03		6.801
3		0.00		0.00		4.003e-02		-52.397		6.444e-03		5.896
3		0.00		-0.40		3.941e-02		-52.485		6.537e-03		6.507
3		0.00		-0.80		3.925e-02		-52.436		6.496e-03		7.245
3		0.00		-1.20		3.878e-02		-53.405		6.635e-03		7.541
3		0.00		-1.60		3.765e-02		-52.611		6.543e-03		7.836
3		0.00		-2.00		3.702e-02		-52.663		6.686e-03		8.069
3		0.00		-2.40		3.514e-02		-51.975		6.574e-03		7.098
3		0.00		-2.80		3.399e-02		-52.117		6.040e-03		7.196
3		0.00		-3.20		3.270e-02		-52.396		5.786e-03		7.318
3		0.00		-3.60		3.041e-02		-51.074		5.584e-03		8.310
3		0.00		-4.00		2.685e-02		-50.663		5.219e-03		8.388
3		0.00		-4.40		2.474e-02		-52.001		4.653e-03		8.751
3		0.00		-4.80		2.128e-02		-48.466		4.410e-03		9.848
3		0.00		-5.20		1.681e-02		-48.045		3.520e-03		10.826
3		0.00		-5.60		1.364e-02		-51.490		3.040e-03		15.925
3		0.00		-6.00		9.025e-03		-47.650		2.343e-03		17.271
3		0.00		-6.40		6.011e-03		-40.627		2.123e-03		16.898
3		0.00		-6.80		2.199e-03		-42.900		1.201e-03		63.998
3		0.00		-7.20		2.148e-03		55.447		9.168e-04		61.174
3		0.00		-7.60		4.431e-03		103.883		1.453e-03		24.080
3		0.00		-8.00		6.835e-03		118.526		2.047e-03		20.671
3		0.00		-8.40		8.971e-03		121.511		2.421e-03		19.510
3		0.00		-8.80		1.049e-02		117.286		3.216e-03		19.463
3		0.00		-9.20		1.217e-02		118.705		3.584e-03		18.074
3		0.00		-9.60		1.357e-02		123.209		4.015e-03		15.290
3		0.00		-10.00		1.503e-02		120.714		4.386e-03		17.010
3		0.00		-9.60		1.519e-02		122.676		4.154e-03		13.044
3		0.00		-9.20		1.543e-02		121.806		4.152e-03		10.871
3		0.00		-8.80		1.452e-02		122.387		3.848e-03		13.425
3		0.00		-8.40		1.462e-02		122.518		3.675e-03		13.909
3		0.00		-8.00		1.504e-02		123.342		3.697e-03		11.719
3		0.00		-7.60		1.499e-02		122.898		3.336e-03		10.101
3		0.00		-7.20		1.427e-02		122.806		3.026e-03		10.230
3		0.00		-6.80		1.396e-02		123.612		2.998e-03		8.648
3		0.00		-6.40		1.330e-02		125.348		2.739e-03		11.693
3		0.00		-6.00		1.286e-02		125.074		2.726e-03		12.826
3		0.00		-5.60		1.202e-02		122.948		2.302e-03		10.857
3		0.00		-5.20		1.141e-02		124.555		2.017e-03		9.604
3		0.00		-4.80		1.015e-02		121.561		2.001e-03		12.721
3		0.00		-4.40		1.010e-02		125.054		2.161e-03		13.031
3		0.00		-4.00		8.804e-03		122.490		1.904e-03		13.329
3		0.00		-3.60		9.063e-03		124.635		1.772e-03		14.584
3		0.00		-3.20		8.354e-03		122.729		1.824e-03		14.513
3		0.00		-2.80		7.383e-03		120.759		1.734e-03		15.109
3		0.00		-2.40		6.575e-03		120.624		1.677e-03		18.002
3		0.00		-2.00		6.185e-03		116.630		1.532e-03		18.144
3		0.00		-1.60		6.103e-03		125.752		1.556e-03		18.290
3		0.00		-1.20		5.629e-03		112.469		1.753e-03		25.334
3		0.00		-0.80		5.086e-03		114.973		1.613e-03		24.252
3		0.00		-0.40		4.817e-03		112.723		1.632e-03		24.518
4		0.00		0.00		4.558e-03		106.673		1.515e-03		23.701
4		0.00		0.40		4.312e-03		112.284		1.409e-03		33.484
4		0.00		0.80		4.046e-03		108.420		1.259e-03		39.396
4		0.00		1.20		3.353e-03		99.588		1.219e-03		48.912
4		0.00		1.60		2.868e-03		95.097		1.154e-03		48.396
4		0.00		2.00		2.503e-03		87.123		1.009e-03		51.785
4		0.00		2.40		2.140e-03		47.806		9.221e-04		75.034
4		0.00		2.80		1.847e-03		12.015		7.098e-04		78.545
4		0.00		3.20		1.753e-03		-29.807		7.814e-04		61.661
4		0.00		3.60		2.660e-03		-52.969		1.047e-03		39.598
4		0.00		4.00		3.437e-03		-52.941		1.441e-03		27.209
4		0.00		4.40		4.500e-03		-39.971		1.264e-03		20.798
4		0.00		4.80		5.573e-03		-51.883		1.603e-03		18.089
4		0.00		5.20		6.784e-03		-47.150		1.564e-03		15.341
4		0.00		5.60		8.004e-03		-56.156		1.759e-03		15.596
4		0.00		6.00		9.322e-03		-49.730		1.898e-03		17.521
4		0.00		6.40		1.082e-02		-51.352		2.586e-03		16.627
4		0.00		6.80		1.299e-02		-53.870		2.535e-03		14.156
4		0.00		7.20		1.531e-02		-54.108		3.456e-03		14.241
4		0.00		7.60		1.817e-02		-51.203		4.089e-03		11.127
4		0.00		8.00		2.227e-02		-51.409		5.018e-03		12.408
4		0.00		8.40		2.558e-02		-51.330		5.952e-03		9.381
4		0.00		8.80		3.021e-02		-49.867		6.945e-03		7.301
4		0.00		9.20		3.351e-02		-51.155		7.620e-03		7.906
4		0.00		9.60		3.609e-02		-52.492		8.612e-03		8.274
4		0.00		10.00		4.028e-02		-52.108		9.535e-03		8.413
4		0.00		9.60		4.258e-02		-54.432		1.048e-02		9.170
4		0.00		9.20		4.320e-02		-53.670		9.310e-03		7.795
4		0.00		8.80		4.338e-02		-53.401		8.809e-03		6.480
4		0.00		8.40		4.427e-02		-52.514		8.345e-03		6.464
4		0.00		8.00		4.395e-02		-52.951		7.795e-03		5.806
4		0.00		7.60		4.396e-02		-52.453		7.467e-03		5.301
4		0.00		7.20		4.314e-02		-51.592		7.227e-03		5.892
4		0.00		6.80		4.269e-02		-51.956		6.802e-03		6.340
4		0.00		6.40		4.187e-02		-52.580		6.449e-03		6.611
4		0.00		6.00		4.156e-02		-52.473		7.138e-03		6.758
4		0.00		5.60		4.125e-02		-50.923		7.040e-03		5.733
4		0.00		5.20		4.052e-02		-52.224		7.418e-03		6.426
4		0.00		4.80		3.970e-02		-53.053		7.645e-03		7.854
4		0.00		4.40		3.919e-02		-52.599		7.624e-03		6.808
4		0.00		4.00		3.911e-02		-51.079		8.264e-03		8.162
4		0.00		3.60		3.914e-02		-52.492		8.234e-03		7.429
4		0.00		3.20		3.826e-02		-50.205		8.462e-03		8.567
4		0.00		2.80		3.851e-02		-51.978		8.552e-03		9.553
4		0.00		2.40		3.867e-02		-52.471		9.034e-03		8.756
4		0.00		2.00		3.821e-02		-52.274		8.775e-03		9.119
4		0.00		1.60		3.834e-02		-52.938		8.861e-03		9.141
4		0.00		1.20		3.890e-02		-52.926		8.140e-03		7.579
4		0.00		0.80		3.866e-02		-53.296		7.515e-03		8.095
4		0.00		0.40		3.893e-02		-53.675		6.865e-03		6.017
4		0.00		0.00		3.856e-02		-52.627		6.771e-03		6.127
4		0.00		-0.40		3.854e-02		-52.072		7.055e-03		6.683
4		0.00		-0.80		3.786e-02		-52.629		7.058e-03		7.459
4		0.00		-1.20		3.736e-02		-52.916		7.001e-03		6.700
4		0.00		-1.60		3.659e-02		-52.149		7.202e-03		6.998
4		0.00		-2.00		3.576e-02		-51.672		7.043e-03		7.281
4		0.00		-2.40		3.412e-02		-53.383		7.484e-03		7.987
4		0.00		-2.80		3.316e-02		-51.972		7.668e-03		9.181
4		0.00		-3.20		3.175e-02		-52.178		7.780e-03		10.928
4		0.00		-3.60		2.895e-02		-53.494		7.777e-03		10.614
4		0.00		-4.00		2.597e-02		-52.740		6.024e-03		10.656
4		0.00		-4.40		2.256e-02		-52.070		5.177e-03		10.396
4		0.00		-4.80		2.075e-02		-50.535		4.146e-03		9.133
4		0.00		-5.20		1.615e-02		-51.088		3.291e-03		10.893
4		0.00		-5.60		1.199e-02		-50.408		2.419e-03		11.720
4		0.00		-6.00		7.443e-03		-49.343		1.670e-03		15.200
4		0.00		-6.40		4.722e-03		-39.345		1.602e-03		22.976
4		0.00		-6.80		3.098e-03		-22.208		1.267e-03		37.584
4		0.00		-7.20		2.441e-03		73.749		1.085e-03		53.658
4		0.00		-7.60		4.468e-03		108.308		1.625e-03		24.600
4		0.00		-8.00		7.244e-03		122.154		1.997e-03		17.266
4		0.00		-8.40		9.424e-03		120.258		2.615e-03		15.376
4		0.00		-8.80		1.021e-02		119.652		2.755e-03		23.461
4		0.00		-9.20		1.177e-02		120.582		3.199e-03		13.302
4		0.00		-9.60		1.358e-02		122.325		3.237e-03		12.115
4		0.00		-10.00		1.475e-02		121.614		3.210e-03		9.681
4		0.00		-9.60		1.512e-02		123.438		2.774e-03		8.538
4		0.00		-9.20		1.535e-02		121.596		2.552e-03		10.887
4		0.00		-8.80		1.485e-02		122.350		3.069e-03		9.390
4		0.00		-8.40		1.433e-02		124.462		2.701e-03		8.602
4		0.00		-8.00		1.399e-02		125.780		2.819e-03		8.710
4		0.00		-7.60		1.382e-02		124.109		2.977e-03		13.975
4		0.00		-7.20		1.303e-02		123.311		2.563e-03		15.405
4		0.00		-6.80		1.258e-02		121.855		2.896e-03		14.041
4		0.00		-6.40		1.143e-02		122.737		2.899e-03		13.287
4		0.00		-6.00		1.102e-02		124.110		2.805e-03		12.142
4		0.00		-5.60		1.057e-02		124.211		2.546e-03		14.325
4		0.00		-5.20		1.022e-02		125.615		2.161e-03		12.290
4		0.00		-4.80		9.972e-03		121.834		2.054e-03		12.028
4		0.00		-4.40		9.097e-03		121.032		1.736e-03		12.908
4		0.00		-4.00		8.509e-03		120.980		1.838e-03		12.357
4		0.00		-3.60		7.979e-03		119.108		1.762e-03		13.993
4		0.00		-3.20		7.141e-03		123.948		1.917e-03		16.381
4		0.00		-2.80		6.626e-03		117.528		1.741e-03		21.414
4		0.00		-2.40		6.317e-03		113.398		1.903e-03		21.395
4		0.00		-2.00		5.775e-03		116.191		1.750e-03		22.562
4		0.00		-1.60		5.228e-03		116.657		1.786e-03		23.267
4		0.00		-1.20		4.959e-03		113.308		1.699e-03		26.053
4		0.00		-0.80		4.928e-03		114.879		1.463e-03		21.894
4		0.00		-0.40		4.131e-03		116.550		1.366e-03		30.469
5		0.00		0.00		4.151e-03		116.163		1.401e-03		23.815
5		0.00		0.40		3.457e-03		109.462		1.070e-03		30.434
5		0.00		0.80		3.465e-03		94.066		1.205e-03		46.182
5		0.00		1.20		3.246e-03		105.417		1.062e-03		30.780
5		0.00		1.60		2.470e-03		79.791		1.054e-03		63.439
5		0.00		2.00		1.842e-03		44.131		7.907e-04		77.951
5		0.00		2.40		1.799e-03		18.571		6.982e-04		73.669
5		0.00		2.80		2.055e-03		-18.312		8.677e-04		63.151
5		0.00		3.20		2.043e-03		-29.934		8.117e-04		51.066
5		0.00		3.60		2.346e-03		-44.602		9.632e-04		43.796
5		0.00		4.00		3.960e-03		-51.689		1.290e-03		26.395
5		0.00		4.40		4.805e-03		-46.278		1.347e-03		18.889
5		0.00		4.80		6.196e-03		-60.678		1.677e-03		19.198
5		0.00		5.20		7.667e-03		-59.199		1.673e-03		15.035
5		0.00		5.60		8.603e-03		-49.760		1.782e-03		17.060
5		0.00		6.00		9.600e-03		-52.833		1.845e-03		15.823
5		0.00		6.40		1.163e-02		-50.813		2.603e-03		12.375
5		0.00		6.80		1.362e-02		-53.346		3.267e-03		12.738
5		0.00		7.20		1.756e-02		-51.607		4.398e-03		12.859
5		0.00		7.60		1.991e-02		-52.775		5.142e-03		11.777
5		0.00		8.00		2.309e-02		-51.162		5.830e-03		8.785
5		0.00		8.40		2.744e-02		-52.628		5.919e-03		8.336
5		0.00		8.80		3.090e-02		-53.080		5.786e-03		5.638
5		0.00		9.20		3.533e-02		-53.554		6.202e-03		7.050
5		0.00		9.60		3.855e-02		-52.809		6.147e-03		6.444
5		0.00		10.00		4.032e-02		-52.009		6.607e-03		6.623
5		0.00		9.60		4.224e-02		-51.406		7.488e-03		6.814
5		0.00		9.20		4.248e-02		-51.539		8.380e-03		8.425
5		0.00		8.80		4.230e-02		-51.074		9.472e-03		6.632
5		0.00		8.40		4.147e-02		-52.377		9.520e-03		9.091
5		0.00		8.00		4.164e-02		-53.145		1.002e-02		11.146
5		0.00		7.60		4.109e-02		-52.238		9.748e-03		8.679
5		0.00		7.20		4.078e-02		-53.012		9.528e-03		7.438
5		0.00		6.80		4.106e-02		-54.608		8.605e-03		6.091
5		0.00		6.40		4.021e-02		-53.081		7.992e-03		6.368
5		0.00		6.00		3.960e-02		-52.682		7.276e-03		6.276
5		0.00		5.60		3.954e-02		-53.558		7.276e-03		7.079
5		0.00		5.20		3.880e-02		-51.693		7.393e-03		5.993
5		0.00		4.80		3.800e-02		-51.863		8.234e-03		7.672
5		0.00		4.40		3.708e-02		-50.403		8.544e-03		8.081
5		0.00		4.00		3.701e-02		-52.281		9.204e-03		9.188
5		0.00		3.60		3.707e-02		-52.599		9.185e-03		10.773
5		0.00		3.20		3.788e-02		-52.404		8.615e-03		9.132
5		0.00		2.80		3.765e-02		-53.405		7.966e-03		7.308
5		0.00		2.40		3.760e-02		-52.861		6.841e-03		6.701
5		0.00		2.00		3.799e-02		-52.423		6.226e-03		5.869
5		0.00		1.60		3.826e-02		-52.127		5.847e-03		6.144
5		0.00		1.20		3.828e-02		-51.219		5.899e-03		6.936
5		0.00		0.80		3.752e-02		-52.124		6.008e-03		6.562
5		0.00		0.40		3.754e-02		-50.458		6.509e-03		7.136
5		0.00		0.00		3.742e-02		-52.335		7.454e-03		7.850
5		0.00		-0.40		3.695e-02		-52.426		7.783e-03		8.955
5		0.00		-0.80		3.610e-02		-52.354		8.582e-03		8.655
5		0.00		-1.20		3.570e-02		-53.452		8.780e-03		8.678
5		0.00		-1.60		3.526e-02		-53.293		8.388e-03		9.167
5		0.00		-2.00		3.470e-02		-53.563		7.871e-03		8.089
5		0.00		-2.40		3.413e-02		-52.993		6.520e-03		5.633
5		0.00		-2.80		3.360e-02		-54.413		5.758e-03		6.454
5		0.00		-3.20		3.202e-02		-52.096		5.105e-03		6.897
5		0.00		-3.60		2.942e-02		-51.458		4.774e-03		9.057
5		0.00		-4.00		2.680e-02		-52.637		4.414e-03		8.894
5		0.00		-4.40		2.419e-02		-50.842		4.119e-03		8.886
5		0.00		-4.80		2.050e-02		-53.417		4.083e-03		10.515
5		0.00		-5.20		1.690e-02		-49.983		3.594e-03		12.474
5		0.00		-5.60		1.186e-02		-48.518		2.819e-03		13.707
5		0.00		-6.00		7.799e-03		-44.322		2.245e-03		16.806
5		0.00		-6.40		4.396e-03		-47.364		1.534e-03		23.890
5		0.00		-6.80		2.303e-03		-31.127		9.080e-04		41.414
5		0.00		-7.20		2.108e-03		32.219		1.067e-03		69.956
5		0.00		-7.60		3.844e-03		99.550		1.362e-03		23.489
5		0.00		-8.00		5.700e-03		114.684		1.841e-03		20.349
5		0.00		-8.40		8.237e-03		117.075		2.331e-03		18.379
5		0.00		-8.80		9.770e-03		123.163		2.234e-03		11.463
5		0.00		-9.20		1.089e-02		122.993		2.634e-03		11.849
5		0.00		-9.60		1.263e-02		123.248		2.686e-03		10.546
5		0.00		-10.00		1.384e-02		123.939		3.112e-03		10.266
5		0.00		-9.60		1.451e-02		122.497		3.325e-03		11.510
5		0.00		-9.20		1.483e-02		125.073		3.320e-03		12.641
5		0.00		-8.80		1.413e-02		124.144		3.732e-03		13.644
5		0.00		-8.40		1.368e-02		122.583		3.614e-03		16.616
5		0.00		-8.00		1.393e-02		121.678		4.135e-03		15.764
5		0.00		-7.60		1.328e-02		122.212		3.827e-03		17.468
5		0.00		-7.20		1.281e-02		121.137		3.631e-03		11.296
5		0.00		-6.80		1.253e-02		123.066		2.884e-03		12.432
5		0.00		-6.40		1.152e-02		123.550		2.712e-03		10.632
5		0.00		-6.00		1.115e-02		123.568		2.485e-03		11.315
5		0.00		-5.60		1.060e-02		123.993		2.155e-03		11.989
5		0.00		-5.20		9.965e-03		123.492		1.977e-03		12.824
5		0.00		-4.80		9.527e-03		123.337		2.020e-03		13.685
5		0.00		-4.40		8.157e-03		123.434		1.840e-03		14.301
5		0.00		-4.00		7.705e-03		121.734		2.069e-03		15.876
5		0.00		-3.60		6.799e-03		114.435		1.734e-03		18.910
5		0.00		-3.20		6.648e-03		118.224		1.737e-03		15.451
5		0.00		-2.80		6.060e-03		120.833		1.922e-03		18.621
5		0.00		-2.40		5.685e-03		114.412		1.778e-03		26.499
5		0.00		-2.00		5.012e-03		109.976		1.793e-03		24.488
5		0.00		-1.60		4.550e-03		113.433		1.504e-03		26.617
5		0.00		-1.20		4.253e-03		118.172		1.465e-03		26.601
5		0.00		-0.80		4.194e-03		116.674		1.227e-03		22.631
5		0.00		-0.40		3.883e-03		107.337		1.480e-03		37.690
6		0.00		0.00		3.761e-03		105.672		1.319e-03		33.533
6		0.00		0.40		3.180e-03		96.110		1.206e-03		33.558
6		0.00		0.80		2.910e-03		102.785		1.131e-03		47.153
6		0.00		1.20		2.490e-03		82.883		9.786e-04		59.729
6		0.00		1.60		1.712e-03		26.353		8.134e-04		72.262
6		0.00		2.00		1.664e-03		36.485		6.051e-04		76.578
6		0.00		2.40		1.888e-03		0.507		6.469e-04		60.198
6		0.00		2.80		1.997e-03		-29.468		8.202e-04		60.999
6		0.00		3.20		2.790e-03		-42.595		1.147e-03		32.039
6		0.00		3.60		3.526e-03		-54.438		1.358e-03		28.275
6		0.00		4.00		4.562e-03		-50.844		1.398e-03		20.381
6		0.00		4.40		5.721e-03		-48.897		1.625e-03		18.912
6		0.00		4.80		6.685e-03		-58.419		1.702e-03		18.651
6		0.00		5.20		8.100e-03		-51.640		1.892e-03		16.714
6		0.00		5.60		9.250e-03		-52.567		2.006e-03		14.163
6		0.00		6.00		1.048e-02		-50.108		2.308e-03		15.555
6		0.00		6.40		1.223e-02		-54.678		2.768e-03		13.335
6		0.00		6.80		1.317e-02		-52.071		3.166e-03		15.549
6		0.00		7.20		1.669e-02		-51.414		4.248e-03		12.201
6		0.00		7.60		1.893e-02		-53.131		4.787e-03		13.579
6		0.00		8.00		2.198e-02		-52.863		5.628e-03		12.041
6		0.00		8.40		2.410e-02		-53.221		5.860e-03		10.375
6		0.00		8.80		2.784e-02		-52.809		5.786e-03		8.167
6		0.00		9.20		3.187e-02		-51.607		5.622e-03		6.835
6		0.00		9.60		3.570e-02		-51.139		5.872e-03		6.031
6		0.00		10.00		3.893e-02		-52.621		6.329e-03		6.345
6		0.00		9.60		3.981e-02		-52.026		6.388e-03		6.291
6		0.00		9.20		4.051e-02		-51.053		6.796e-03		5.712
6		0.00		8.80		3.989e-02		-51.223		6.969e-03		6.545
6		0.00		8.40		3.953e-02		-51.490		7.743e-03		7.266
6		0.00		8.00		3.981e-02		-51.641		8.493e-03		7.928
6		0.00		7.60		3.955e-02		-51.333		8.796e-03		8.346
6		0.00		7.20		3.868e-02		-52.208		9.011e-03		9.501
6		0.00		6.80		3.816e-02		-51.895		9.274e-03		8.581
6		0.00		6.40		3.784e-02		-54.014		9.140e-03		9.247
6		0.00		6.00		3.785e-02		-54.160		8.282e-03		7.372
6		0.00		5.60		3.777e-02		-52.100		7.028e-03		6.161
6		0.00		5.20		3.834e-02		-53.092		6.598e-03		5.718
6		0.00		4.80		3.749e-02		-51.680		5.788e-03		5.842
6		0.00		4.40		3.750e-02		-51.414		5.753e-03		6.561
6		0.00		4.00		3.692e-02		-52.010		5.831e-03		6.577
6		0.00		3.60		3.679e-02		-52.200		6.049e-03		5.976
6		0.00		3.20		3.661e-02		-50.360		5.884e-03		6.469
6		0.00		2.80		3.641e-02		-51.174		6.396e-03		6.162
6		0.00		2.40		3.565e-02		-49.910		6.960e-03		8.216
6		0.00		2.00		3.547e-02		-51.943		7.469e-03		10.434
6		0.00		1.60		3.503e-02		-52.219		7.722e-03		11.440
6		0.00		1.20		3.529e-02		-51.684		8.065e-03		8.651
6		0.00		0.80		3.563e-02		-52.403		7.925e-03		8.078
6		0.00		0.40		3.558e-02		-52.996		7.269e-03		8.127
6		0.00		0.00		3.596e-02		-52.310		6.889e-03		7.614
6		0.00		-0.40		3.646e-02		-51.816		6.356e-03		6.855
6		0.00		-0.80		3.591e-02		-52.800		6.132e-03		6.249
6		0.00		-1.20		3.540e-02		-52.540		6.171e-03		5.538
6		0.00		-1.60		3.512e-02		-51.802		6.149e-03		6.211
6		0.00		-2.00		3.427e-02		-52.724		5.948e-03		7.923
6		0.00		-2.40		3.342e-02		-51.925		5.641e-03		7.316
6		0.00		-2.80		3.243e-02		-53.800		6.083e-03		6.643
6		0.00		-3.20		3.115e-02		-51.801		5.997e-03		7.645
6		0.00		-3.60		2.924e-02		-51.568		6.241e-03		7.401
6		0.00		-4.00		2.684e-02		-51.808		6.123e-03		9.840
6		0.00		-4.40		2.331e-02		-51.943		5.752e-03		10.035
6		0.00		-4.80		2.090e-02		-52.151		5.015e-03		11.721
6		0.00		-5.20		1.726e-02		-50.183		4.167e-03		11.773
6		0.00		-5.60		1.406e-02		-46.894		3.303e-03		11.946
6		0.00		-6.00		1.029e-02		-47.401		2.488e-03		11.986
6		0.00		-6.40		6.613e-03		-45.231		1.919e-03		18.847
6		0.00		-6.80		3.481e-03		-39.809		1.431e-03		34.394
6		0.00		-7.20		1.957e-03		20.227		7.158e-04		68.069
6		0.00		-7.60		3.583e-03		100.923		1.458e-03		43.928
6		0.00		-8.00		5.314e-03		117.616		1.761e-03		25.884
6		0.00		-8.40		7.563e-03		121.870		2.066e-03		13.623
6		0.00		-8.80		9.689e-03		124.151		2.098e-03		14.509
6		0.00		-9.20		1.095e-02		120.283		2.750e-03		16.125
6		0.00		-9.60		1.248e-02		121.717		3.480e-03		17.115
6		0.00		-10.00		1.376e-02		124.533		3.674e-03		13.678
6		0.00		-9.60		1.446e-02		122.089		3.836e-03		13.851
6		0.00		-9.20		1.435e-02		122.635		3.346e-03		12.421
6		0.00		-8.80		1.472e-02		124.982		3.372e-03		10.335
6		0.00		-8.40		1.480e-02		123.106		3.190e-03		9.465
6		0.00		-8.00		1.390e-02		125.033		2.741e-03		10.900
6		0.00		-7.60		1.384e-02		125.615		2.592e-03		11.203
6		0.00		-7.20		1.330e-02		123.308		2.839e-03		11.208
6		0.00		-6.80		1.220e-02		123.732		2.422e-03		9.475
6		0.00		-6.40		1.229e-02		124.114		2.470e-03		10.867
6		0.00		-6.00		1.073e-02		121.311		2.285e-03		12.448
6		0.00		-5.60		9.936e-03		121.143		2.477e-03		14.160
6		0.00		-5.20		9.248e-03		122.909		2.249e-03		19.039
6		0.00		-4.80		8.990e-03		119.930		2.385e-03		18.690
6		0.00		-4.40		8.061e-03		118.558		2.228e-03		18.626
6		0.00		-4.00		7.829e-03		120.553		2.267e-03		13.394
6		0.00		-3.60		6.950e-03		120.333		1.798e-03		14.565
6		0.00		-3.20		6.623e-03		121.396		1.773e-03		15.964
6		0.00		-2.80		5.908e-03		115.468		1.568e-03		19.848
6		0.00		-2.40		5.654e-03		118.999		1.490e-03		18.479
6		0.00		-2.00		5.331e-03		118.220		1.470e-03		16.131
6		0.00		-1.60		4.742e-03		116.597		1.447e-03		27.415
6		0.00		-1.20		4.581e-03		115.849		1.403e-03		19.985
6		0.00		-0.80		4.137e-03		115.671		1.387e-03		23.538
6		0.00		-0.40		4.006e-03		111.106		1.362e-03		23.910
7		0.00		0.00		3.348e-03		103.527		1.200e-03		38.033
7		0.00		0.40		3.163e-03		92.001		1.150e-03		55.970
7		0.00		0.80		2.964e-03		85.862		1.314e-03		44.555
7		0.00		1.20		2.277e-03		95.218		8.991e-04		46.949
7		0.00		1.60		2.228e-03		75.156		9.524e-04		59.628
7		0.00		2.00		1.908e-03		23.271		8.164e-04		88.437
7		0.00		2.40		1.890e-03		-5.215		8.200e-04		71.887
7		0.00		2.80		1.972e-03		-40.492		7.788e-04		62.868
7		0.00		3.20		2.567e-03		-42.461		1.079e-03		44.472
7		0.00		3.60		3.440e-03		-55.165		1.106e-03		23.279
7		0.00		4.00		4.238e-03		-56.284		1.426e-03		27.132
7		0.00		4.40		5.454e-03		-51.677		1.400e-03		18.379
7		0.00		4.80		6.721e-03		-43.141		1.613e-03		17.261
7		0.00		5.20		7.318e-03		-46.310		1.572e-03		15.500
7		0.00		5.60		8.788e-03		-49.288		2.210e-03		12.755
7		0.00		6.00		9.461e-03		-55.154		2.348e-03		14.504
7		0.00		6.40		1.109e-02		-52.543		3.024e-03		13.651
7		0.00		6.80		1.249e-02		-53.926		3.100e-03		14.592
7		0.00		7.20		1.413e-02		-51.608		3.495e-03		11.544
7		0.00		7.60		1.594e-02		-50.783		3.953e-03		10.669
7		0.00		8.00		1.831e-02		-52.546		4.438e-03		10.049
7		0.00		8.40		2.219e-02		-52.453		4.300e-03		8.356
7		0.00		8.80		2.622e-02		-51.751		5.175e-03		6.695
7		0.00		9.20		3.139e-02		-53.318		4.877e-03		6.490
7		0.00		9.60		3.540e-02		-51.608		5.392e-03		6.824
7		0.00		10.00		3.789e-02		-53.030		5.982e-03		6.489
7		0.00		9.60		3.939e-02		-51.887		6.021e-03		7.195
7		0.00		9.20		4.052e-02		-51.946		6.230e-03		6.190
7		0.00		8.80		4.035e-02		-51.442		6.415e-03		6.079
7		0.00		8.40		4.102e-02		-51.310		5.999e-03		6.149
7		0.00		8.00		4.029e-02		-51.766		6.471e-03		6.003
7		0.00		7.60		3.945e-02		-51.468		6.193e-03		6.609
7		0.00		7.20		3.824e-02		-50.752		6.638e-03		6.017
7		0.00		6.80		3.836e-02		-50.718		7.014e-03		6.870
7		0.00		6.40		3.742e-02		-51.735		7.750e-03		7.733
7		0.00		6.00		3.680e-02		-52.272		7.979e-03		8.451
7		0.00		5.60		3.653e-02		-51.429		8.239e-03		8.870
7		0.00		5.20		3.561e-02		-50.364		8.362e-03		7.935
7		0.00		4.80		3.560e-02		-51.575		8.396e-03		7.751
7		0.00		4.40		3.478e-02		-51.526		7.930e-03		9.342
7		0.00		4.00		3.479e-02		-51.355		8.530e-03		8.708
7		0.00		3.60		3.414e-02		-50.873		8.637e-03		10.900
7		0.00		3.20		3.454e-02		-51.537		8.088e-03		8.920
7		0.00		2.80		3.521e-02		-51.165		8.108e-03		9.499
7		0.00		2.40		3.474e-02		-51.861		7.864e-03		9.305
7		0.00		2.00		3.446e-02		-50.585		7.842e-03		8.638
7		0.00		1.60		3.452e-02		-51.969		7.820e-03		10.294
7		0.00		1.20		3.522e-02		-51.629		8.153e-03		9.239
7		0.00		0.80		3.436e-02		-51.778		7.655e-03		7.977
7		0.00		0.40		3.430e-02		-51.814		7.675e-03		8.921
7		0.00		0.00		3.451e-02		-51.845		7.843e-03		8.995
7		0.00		-0.40		3.448e-02		-53.128		7.997e-03		8.982
7		0.00		-0.80		3.377e-02		-50.768		7.839e-03		8.381
7		0.00		-1.20		3.305e-02		-53.085		7.733e-03		7.836
7		0.00		-1.60		3.295e-02		-51.946		7.855e-03		7.920
7		0.00		-2.00		3.220e-02		-52.633		7.465e-03		8.341
7		0.00		-2.40		3.105e-02		-54.165		7.143e-03		8.223
7		0.00		-2.80		2.980e-02		-51.458		6.351e-03		7.036
7		0.00		-3.20		2.759e-02		-51.249		5.820e-03		8.992
7		0.00		-3.60		2.665e-02		-51.371		5.346e-03		7.454
7		0.00		-4.00		2.455e-02		-51.553		4.938e-03		7.793
7		0.00		-4.40		2.180e-02		-50.393		4.215e-03		8.357
7		0.00		-4.80		1.911e-02		-53.156		3.499e-03		9.658
7		0.00		-5.20		1.572e-02		-49.598		2.960e-03		10.923
7		0.00		-5.60		1.325e-02		-49.993		2.669e-03		11.916
7		0.00		-6.00		9.182e-03		-48.149		2.156e-03		13.731
7		0.00		-6.40		5.955e-03		-50.049		1.620e-03		18.116
7		0.00		-6.80		2.647e-03		-38.429		1.245e-03		37.547
7		0.00		-7.20		2.128e-03		36.328		8.350e-04		66.343
7		0.00		-7.60		3.831e-03		97.387		1.625e-03		38.140
7		0.00		-8.00		5.791e-03		119.164		1.781e-03		18.950
7		0.00		-8.40		9.502e-03		120.760		2.181e-03		12.732
7		0.00		-8.80		1.108e-02		126.081		2.950e-03		11.315
7		0.00		-9.20		1.161e-02		120.666		3.086e-03		11.202
7		0.00		-9.60		1.307e-02		124.398		3.294e-03		12.480
7		0.00		-10.00		1.457e-02		121.092		3.727e-03		9.253
7		0.00		-9.60		1.458e-02		124.551		3.575e-03		8.704
7		0.00		-9.20		1.518e-02		122.722		3.964e-03		9.903
7		0.00		-8.80		1.520e-02		120.382		3.967e-03		12.223
7		0.00		-8.40		1.451e-02		122.606		3.878e-03		10.717
7		0.00		-8.00		1.454e-02		124.483		3.568e-03		12.748
7		0.00		-7.60		1.371e-02		123.001		3.379e-03		14.213
7		0.00		-7.20		1.323e-02		122.828		3.308e-03		15.190
7		0.00		-6.80		1.246e-02		123.112		3.112e-03		16.167
7		0.00		-6.40		1.163e-02		122.894		2.866e-03		14.738
7		0.00		-6.00		1.128e-02		125.783		2.639e-03		14.806
7		0.00		-5.60		1.101e-02		123.958		2.673e-03		14.230
7		0.00		-5.20		9.977e-03		123.980		2.161e-03		15.929
7		0.00		-4.80		9.182e-03		121.196		1.948e-03		14.113
7		0.00		-4.40		8.826e-03		124.424		1.910e-03		16.133
7		0.00		-4.00		7.837e-03		124.315		2.001e-03		13.775
7		0.00		-3.60		7.671e-03		127.637		1.916e-03		13.679
7		0.00		-3.20		6.954e-03		123.572		1.813e-03		12.768
7		0.00		-2.80		6.645e-03		124.020		1.551e-03		15.462
7		0.00		-2.40		6.499e-03		119.391		1.564e-03		15.229
7		0.00		-2.00		5.724e-03		119.506		1.580e-03		15.184
7		0.00		-1.60		5.245e-03		114.991		1.447e-03		24.763
7		0.00		-1.20		4.783e-03		116.350		1.316e-03		17.966
7		0.00		-0.80		4.554e-03		116.745		1.221e-03		20.311
7		0.00		-0.40		4.372e-03		106.979		1.482e-03		31.194
8		0.00		0.00		3.945e-03		110.341		1.519e-03		30.371
8		0.00		0.40		3.682e-03		112.579		1.426e-03		31.641
8		0.00		0.80		3.271e-03		101.913		1.127e-03		36.300
8		0.00		1.20		2.674e-03		84.994		1.051e-03		51.445
8		0.00		1.60		2.406e-03		69.645		1.013e-03		70.354
8		0.00		2.00		2.019e-03		63.360		9.337e-04		65.908
8		0.00		2.40		1.844e-03		25.973		7.426e-04		66.264
8		0.00		2.80		1.848e-03		-26.984		8.192e-04		60.406
8		0.00		3.20		2.237e-03		-43.287		1.070e-03		51.677
8		0.00		3.60		2.907e-03		-31.601		1.277e-03		32.635
8		0.00		4.00		3.924e-03		-37.708		1.219e-03		24.734
8		0.00		4.40		4.466e-03		-54.001		1.435e-03		25.150
8		0.00		4.80		5.611e-03		-49.353		1.637e-03		19.911
8		0.00		5.20		6.602e-03		-47.549		2.055e-03		17.568
8		0.00		5.60		7.709e-03		-54.433		2.283e-03		15.788
8		0.00		6.00		9.000e-03		-54.736		2.227e-03		13.254
8		0.00		6.40		1.033e-02		-48.255		2.502e-03		15.425
8		0.00		6.80		1.193e-02		-51.086		2.552e-03		13.176
8		0.00		7.20		1.367e-02		-51.093		3.107e-03		11.524
8		0.00		7.60		1.556e-02		-49.748		3.030e-03		13.515
8		0.00		8.00		1.842e-02		-49.449		3.419e-03		9.953
8		0.00		8.40		2.154e-02		-49.132		3.689e-03		9.075
8		0.00		8.80		2.539e-02		-49.798		4.605e-03		7.833
8		0.00		9.20		2.863e-02		-50.254		4.647e-03		8.487
8		0.00		9.60		3.261e-02		-51.260		5.440e-03		7.581
8		0.00		10.00		3.501e-02		-50.762		5.586e-03		7.522
8		0.00		9.60		3.744e-02		-51.291		5.783e-03		6.717
8		0.00		9.20		3.840e-02		-53.016		5.837e-03		6.136
8		0.00		8.80		3.849e-02		-50.881		6.510e-03		6.490
8		0.00		8.40		3.788e-02		-52.412		6.430e-03		7.504
8		0.00		8.00		3.783e-02		-50.888		6.683e-03		6.204
8		0.00		7.60		3.694e-02		-52.448		6.907e-03		6.118
8		0.00		7.20		3.713e-02		-52.930		7.210e-03		6.359
8		0.00		6.80		3.618e-02		-52.216		7.450e-03		5.939
8		0.00		6.40		3.549e-02		-53.556		8.180e-03		7.032
8		0.00		6.00		3.456e-02		-53.568		8.243e-03		9.383
8		0.00		5.60		3.492e-02		-53.672		8.367e-03		8.261
8		0.00		5.20		3.415e-02		-50.676		8.190e-03		7.984
8		0.00		4.80		3.423e-02		-51.885		7.721e-03		8.871
8		0.00		4.40		3.414e-02		-50.616		7.579e-03		8.193
8		0.00		4.00		3.395e-02		-51.122		7.487e-03		9.335
8		0.00		3.60		3.394e-02		-51.225		6.912e-03		8.774
8		0.00		3.20		3.446e-02		-50.805		6.641e-03		7.038
8		0.00		2.80		3.456e-02		-51.246		6.430e-03		7.726
8		0.00		2.40		3.463e-02		-50.606		5.863e-03		7.281
8		0.00		2.00		3.449e-02		-50.774		5.518e-03		7.278
8		0.00		1.60		3.454e-02		-51.970		5.610e-03		5.680
8		0.00		1.20		3.430e-02		-51.941		5.940e-03		7.079
8		0.00		0.80		3.402e-02		-52.412		6.163e-03		7.008
8		0.00		0.40		3.356e-02		-51.593		5.839e-03		6.963
8		0.00		0.00		3.373e-02		-53.478		6.642e-03		7.104
8		0.00		-0.40		3.285e-02		-52.553		6.708e-03		7.691
8		0.00		-0.80		3.269e-02		-52.168		7.134e-03		8.130
8		0.00		-1.20		3.207e-02		-52.156		7.689e-03		9.120
8		0.00		-1.60		3.168e-02		-52.840		8.150e-03		8.628
8		0.00		-2.00		3.171e-02		-53.037		7.400e-03		11.183
8		0.00		-2.40		3.079e-02		-49.312		6.844e-03		9.353
8		0.00		-2.80		2.944e-02		-50.597		6.491e-03		9.387
8		0.00		-3.20		2.812e-02		-50.579		5.835e-03		9.830
8		0.00		-3.60		2.685e-02		-50.254		5.270e-03		7.715
8		0.00		-4.00		2.502e-02		-50.317		4.245e-03		8.782
8		0.00		-4.40		2.242e-02		-50.404		3.705e-03		7.887
8		0.00		-4.80		1.945e-02		-48.004		3.242e-03		9.756
8		0.00		-5.20		1.607e-02		-50.379		2.869e-03		10.814
8		0.00		-5.60		1.263e-02		-47.886		2.280e-03		13.054
8		0.00		-6.00		8.672e-03		-47.101		2.079e-03		16.689
8		0.00		-6.40		4.579e-03		-46.485		1.677e-03		19.956
8		0.00		-6.80		2.162e-03		-2.425		9.538e-04		59.938
8		0.00		-7.20		2.479e-03		73.056		1.199e-03		56.059
8		0.00		-7.60		5.011e-03		115.239		1.574e-03		18.733
8		0.00		-8.00		7.139e-03		121.761		2.148e-03		13.912
8		0.00		-8.40		9.401e-03		120.968		2.703e-03		12.671
8		0.00		-8.80		1.089e-02		123.187		3.019e-03		15.601
8		0.00		-9.20		1.312e-02		121.009		3.668e-03		14.900
8		0.00		-9.60		1.434e-02		123.713		3.379e-03		13.268
8		0.00		-10.00		1.587e-02		123.670		3.901e-03		13.093
8		0.00		-9.60		1.625e-02		123.555		3.797e-03		13.873
8		0.00		-9.20		1.583e-02		124.860		3.505e-03		15.282
8		0.00		-8.80		1.571e-02		126.210		3.151e-03		10.030
8		0.00		-8.40		1.552e-02		125.357		3.087e-03		11.912
8		0.00		-8.00		1.517e-02		124.203		3.073e-03		10.707
8		0.00		-7.60		1.513e-02		127.584		2.811e-03		8.454
8		0.00		-7.20		1.416e-02		124.464		2.456e-03		9.007
8		0.00		-6.80		1.331e-02		126.420		2.482e-03		9.649
8		0.00		-6.40		1.282e-02		125.813		2.461e-03		9.093
8		0.00		-6.00		1.198e-02		125.494		2.555e-03		10.643
8		0.00		-5.60		1.142e-02		125.009		2.488e-03		10.305
8		0.00		-5.20		1.117e-02		123.408		2.342e-03		11.730
8		0.00		-4.80		1.045e-02		122.533		2.297e-03		11.999
8		0.00		-4.40		9.410e-03		124.287		2.040e-03		10.972
8		0.00		-4.00		8.936e-03		124.265		1.868e-03		15.478
8		0.00		-3.60		8.593e-03		123.280		2.006e-03		12.895
8		0.00		-3.20		8.163e-03		124.753		2.013e-03		13.123
8		0.00		-2.80		7.870e-03		121.001		1.876e-03		12.024
8		0.00		-2.40		7.250e-03		121.877		1.677e-03		15.597
8		0.00		-2.00		6.989e-03		127.385		1.802e-03		13.913
8		0.00		-1.60		6.317e-03		115.918		1.722e-03		18.565
8		0.00		-1.20		5.932e-03		124.822		1.803e-03		16.724
8		0.00		-0.80		5.382e-03		114.202		1.681e-03		29.113
8		0.00		-0.40		4.792e-03		117.093		1.443e-03		28.721
