# Date of analysis: 2024-03-08 10;59
# Segment other properties: height: -47.0409553833655, diff height: 224.96183272783895, deflection: 35.95995759252844, deflection error: 3.2018903521699, adhesion: 45.22828583676531, phase offset: 0
# 
# Loop index	Read Volt (V)	Write Volt (V)	Amplitude (a.u)	Phase (deg)	Sigma Amp (a.u)	Sigma Pha (deg)	
1		0.00		0.00		1.382e-02		-53.711		3.563e-03		12.682
1		0.00		0.40		1.361e-02		-54.572		3.090e-03		13.732
1		0.00		0.80		1.345e-02		-56.471		3.386e-03		15.734
1		0.00		1.20		1.263e-02		-54.430		3.349e-03		16.936
1		0.00		1.60		1.311e-02		-52.276		3.812e-03		15.841
1		0.00		2.00		1.294e-02		-53.821		3.738e-03		19.965
1		0.00		2.40		1.294e-02		-55.494		3.973e-03		20.855
1		0.00		2.80		1.324e-02		-48.562		3.861e-03		16.581
1		0.00		3.20		1.328e-02		-54.342		3.516e-03		13.266
1		0.00		3.60		1.391e-02		-53.146		3.415e-03		12.275
1		0.00		4.00		1.454e-02		-57.096		3.417e-03		15.907
1		0.00		4.40		1.485e-02		-54.083		3.148e-03		14.433
1		0.00		4.80		1.533e-02		-56.079		3.600e-03		16.784
1		0.00		5.20		1.512e-02		-52.945		3.954e-03		16.182
1		0.00		5.60		1.604e-02		-54.352		4.205e-03		14.649
1		0.00		6.00		1.643e-02		-55.197		4.651e-03		18.312
1		0.00		6.40		1.709e-02		-51.769		4.773e-03		16.869
1		0.00		6.80		1.784e-02		-52.944		5.148e-03		13.775
1		0.00		7.20		1.914e-02		-53.556		4.695e-03		11.983
1		0.00		7.60		2.082e-02		-55.122		4.946e-03		11.987
1		0.00		8.00		2.197e-02		-55.616		5.262e-03		13.188
1		0.00		8.40		2.319e-02		-56.822		6.159e-03		14.296
1		0.00		8.80		2.475e-02		-53.810		6.627e-03		14.022
1		0.00		9.20		2.688e-02		-55.224		7.849e-03		14.957
1		0.00		9.60		2.885e-02		-54.389		8.710e-03		12.835
1		0.00		10.00		3.100e-02		-53.109		1.007e-02		12.587
1		0.00		9.60		3.323e-02		-52.376		1.058e-02		10.759
1		0.00		9.20		3.437e-02		-54.228		9.725e-03		9.323
1		0.00		8.80		3.489e-02		-55.303		8.989e-03		11.024
1		0.00		8.40		3.501e-02		-56.158		8.705e-03		11.583
1		0.00		8.00		3.481e-02		-55.157		8.706e-03		11.173
1		0.00		7.60		3.453e-02		-54.983		8.704e-03		12.332
1		0.00		7.20		3.358e-02		-53.878		9.009e-03		14.487
1		0.00		6.80		3.300e-02		-50.651		9.337e-03		12.780
1		0.00		6.40		3.263e-02		-51.569		9.381e-03		9.408
1		0.00		6.00		3.310e-02		-53.526		8.676e-03		7.976
1		0.00		5.60		3.285e-02		-53.323		7.717e-03		10.383
1		0.00		5.20		3.184e-02		-55.965		7.957e-03		11.822
1		0.00		4.80		3.152e-02		-54.645		7.848e-03		12.510
1		0.00		4.40		3.120e-02		-51.994		8.258e-03		12.619
1		0.00		4.00		3.060e-02		-53.763		8.564e-03		15.860
1		0.00		3.60		2.993e-02		-48.867		9.050e-03		21.239
1		0.00		3.20		2.985e-02		-51.637		9.599e-03		12.150
1		0.00		2.80		3.086e-02		-53.113		9.097e-03		10.422
1		0.00		2.40		3.007e-02		-56.831		8.252e-03		11.734
1		0.00		2.00		3.046e-02		-55.621		7.959e-03		12.640
1		0.00		1.60		2.906e-02		-55.969		8.380e-03		14.694
1		0.00		1.20		2.920e-02		-56.028		8.704e-03		14.514
1		0.00		0.80		2.872e-02		-53.936		8.456e-03		14.239
1		0.00		0.40		2.836e-02		-51.621		8.909e-03		17.183
1		0.00		0.00		2.874e-02		-51.374		8.555e-03		12.933
1		0.00		-0.40		2.933e-02		-53.395		8.336e-03		10.348
1		0.00		-0.80		2.923e-02		-53.575		7.416e-03		10.051
1		0.00		-1.20		2.921e-02		-54.289		6.971e-03		10.906
1		0.00		-1.60		2.771e-02		-55.347		6.995e-03		12.164
1		0.00		-2.00		2.774e-02		-54.331		7.213e-03		13.007
1		0.00		-2.40		2.606e-02		-52.558		7.311e-03		14.631
1		0.00		-2.80		2.565e-02		-52.660		7.101e-03		12.748
1		0.00		-3.20		2.434e-02		-51.277		7.075e-03		10.283
1		0.00		-3.60		2.425e-02		-52.738		6.337e-03		9.277
1		0.00		-4.00		2.312e-02		-53.085		5.611e-03		11.580
1		0.00		-4.40		2.065e-02		-54.348		5.175e-03		14.015
1		0.00		-4.80		1.781e-02		-52.760		4.001e-03		11.808
1		0.00		-5.20		1.466e-02		-51.483		3.571e-03		13.572
1		0.00		-5.60		1.084e-02		-53.061		3.228e-03		17.080
1		0.00		-6.00		7.184e-03		-54.638		2.047e-03		21.628
1		0.00		-6.40		4.052e-03		-51.953		1.415e-03		25.735
1		0.00		-6.80		1.931e-03		-20.343		7.676e-04		57.050
1		0.00		-7.20		3.168e-03		84.721		1.338e-03		63.120
1		0.00		-7.60		5.857e-03		110.084		2.059e-03		43.233
1		0.00		-8.00		8.475e-03		123.412		2.978e-03		20.747
1		0.00		-8.40		9.840e-03		125.285		3.327e-03		15.333
1		0.00		-8.80		1.206e-02		122.997		4.025e-03		20.912
1		0.00		-9.20		1.292e-02		121.094		4.031e-03		15.887
1		0.00		-9.60		1.442e-02		124.409		4.540e-03		18.043
1		0.00		-10.00		1.587e-02		122.750		4.487e-03		10.779
1		0.00		-9.60		1.628e-02		123.750		4.457e-03		9.684
1		0.00		-9.20		1.621e-02		121.833		4.127e-03		10.608
1		0.00		-8.80		1.597e-02		125.438		4.080e-03		13.062
1		0.00		-8.40		1.556e-02		126.091		4.479e-03		14.071
1		0.00		-8.00		1.491e-02		120.089		4.567e-03		21.603
1		0.00		-7.60		1.499e-02		124.047		4.829e-03		16.057
1		0.00		-7.20		1.465e-02		125.341		4.492e-03		9.887
1		0.00		-6.80		1.472e-02		126.107		4.315e-03		11.502
1		0.00		-6.40		1.385e-02		125.318		4.202e-03		10.844
1		0.00		-6.00		1.301e-02		124.185		3.779e-03		12.526
1		0.00		-5.60		1.297e-02		122.641		4.223e-03		16.270
1		0.00		-5.20		1.180e-02		121.450		4.006e-03		25.063
1		0.00		-4.80		1.123e-02		119.997		3.915e-03		26.944
1		0.00		-4.40		1.123e-02		120.648		3.808e-03		26.687
1		0.00		-4.00		1.058e-02		123.690		3.616e-03		18.962
1		0.00		-3.60		1.071e-02		124.021		3.412e-03		12.150
1		0.00		-3.20		1.062e-02		124.158		3.285e-03		13.064
1		0.00		-2.80		9.671e-03		122.081		3.165e-03		17.057
1		0.00		-2.40		9.514e-03		121.585		3.123e-03		19.565
1		0.00		-2.00		9.174e-03		122.268		2.992e-03		21.030
1		0.00		-1.60		8.923e-03		121.094		3.185e-03		21.655
1		0.00		-1.20		8.521e-03		129.358		2.701e-03		14.429
1		0.00		-0.80		8.331e-03		127.976		2.543e-03		14.973
1		0.00		-0.40		8.246e-03		126.334		2.417e-03		13.905
2		0.00		0.00		8.433e-03		122.255		2.596e-03		14.572
2		0.00		0.40		7.997e-03		125.347		2.454e-03		18.206
2		0.00		0.80		7.367e-03		122.175		2.529e-03		21.802
2		0.00		1.20		7.278e-03		123.143		2.609e-03		27.618
2		0.00		1.60		6.327e-03		122.759		2.199e-03		28.096
2		0.00		2.00		5.970e-03		124.388		2.124e-03		18.230
2		0.00		2.40		5.170e-03		128.420		1.799e-03		21.889
2		0.00		2.80		4.441e-03		122.310		1.648e-03		25.856
2		0.00		3.20		3.829e-03		113.453		1.443e-03		43.152
2		0.00		3.60		3.374e-03		112.144		1.206e-03		46.870
2		0.00		4.00		2.523e-03		71.835		1.127e-03		79.100
2		0.00		4.40		2.118e-03		14.437		7.568e-04		93.988
2		0.00		4.80		1.884e-03		-8.239		6.867e-04		86.205
2		0.00		5.20		2.174e-03		-51.526		8.636e-04		60.570
2		0.00		5.60		3.037e-03		-55.475		1.002e-03		43.738
2		0.00		6.00		3.979e-03		-52.296		1.312e-03		26.623
2		0.00		6.40		5.180e-03		-62.601		1.674e-03		23.646
2		0.00		6.80		5.825e-03		-51.892		1.919e-03		22.137
2		0.00		7.20		7.793e-03		-53.958		2.508e-03		15.435
2		0.00		7.60		9.173e-03		-57.457		2.567e-03		13.704
2		0.00		8.00		1.197e-02		-58.238		2.812e-03		15.781
2		0.00		8.40		1.468e-02		-59.361		3.467e-03		15.417
2		0.00		8.80		1.717e-02		-54.882		4.443e-03		14.587
2		0.00		9.20		2.020e-02		-54.585		5.728e-03		13.283
2		0.00		9.60		2.395e-02		-55.726		6.983e-03		17.481
2		0.00		10.00		2.656e-02		-52.656		7.917e-03		9.556
2		0.00		9.60		2.904e-02		-54.973		7.952e-03		10.046
2		0.00		9.20		2.930e-02		-56.915		7.936e-03		11.238
2		0.00		8.80		2.933e-02		-55.479		8.506e-03		13.235
2		0.00		8.40		2.945e-02		-54.860		8.863e-03		15.866
2		0.00		8.00		2.876e-02		-52.908		9.315e-03		13.429
2		0.00		7.60		2.869e-02		-53.941		9.619e-03		11.582
2		0.00		7.20		2.913e-02		-54.777		8.304e-03		10.289
2		0.00		6.80		2.833e-02		-56.391		7.767e-03		12.578
2		0.00		6.40		2.772e-02		-57.238		7.883e-03		13.454
2		0.00		6.00		2.677e-02		-55.671		8.059e-03		15.783
2		0.00		5.60		2.704e-02		-53.033		8.216e-03		12.653
2		0.00		5.20		2.692e-02		-54.969		8.086e-03		11.074
2		0.00		4.80		2.752e-02		-53.984		7.091e-03		10.768
2		0.00		4.40		2.656e-02		-56.038		6.874e-03		11.946
2		0.00		4.00		2.629e-02		-54.137		6.925e-03		12.823
2		0.00		3.60		2.554e-02		-53.695		7.268e-03		16.415
2		0.00		3.20		2.555e-02		-51.121		7.328e-03		12.524
2		0.00		2.80		2.587e-02		-54.163		7.077e-03		10.195
2		0.00		2.40		2.546e-02		-53.922		6.493e-03		12.629
2		0.00		2.00		2.510e-02		-54.429		6.385e-03		13.726
2		0.00		1.60		2.489e-02		-53.219		7.231e-03		14.163
2		0.00		1.20		2.473e-02		-52.623		7.762e-03		11.727
2		0.00		0.80		2.521e-02		-54.769		8.000e-03		9.380
2		0.00		0.40		2.529e-02		-55.538		6.682e-03		11.929
2		0.00		0.00		2.548e-02		-54.357		6.724e-03		12.682
2		0.00		-0.40		2.502e-02		-54.132		7.198e-03		15.543
2		0.00		-0.80		2.427e-02		-55.754		7.552e-03		16.557
2		0.00		-1.20		2.430e-02		-55.494		7.574e-03		13.375
2		0.00		-1.60		2.481e-02		-56.123		6.711e-03		11.401
2		0.00		-2.00		2.505e-02		-55.472		6.319e-03		11.581
2		0.00		-2.40		2.419e-02		-54.957		6.238e-03		13.295
2		0.00		-2.80		2.319e-02		-53.025		6.261e-03		14.149
2		0.00		-3.20		2.184e-02		-50.880		6.488e-03		14.378
2		0.00		-3.60		2.150e-02		-53.457		5.641e-03		10.685
2		0.00		-4.00		2.021e-02		-54.984		5.195e-03		12.195
2		0.00		-4.40		1.808e-02		-55.471		4.618e-03		12.095
2		0.00		-4.80		1.549e-02		-51.189		3.816e-03		13.444
2		0.00		-5.20		1.223e-02		-49.450		3.401e-03		14.618
2		0.00		-5.60		1.084e-02		-51.260		2.898e-03		13.238
2		0.00		-6.00		8.335e-03		-55.047		2.018e-03		13.472
2		0.00		-6.40		5.152e-03		-47.100		1.520e-03		20.612
2		0.00		-6.80		2.776e-03		-51.513		1.081e-03		40.856
2		0.00		-7.20		1.760e-03		30.551		7.425e-04		79.722
2		0.00		-7.60		4.445e-03		103.820		1.840e-03		47.884
2		0.00		-8.00		7.531e-03		118.788		2.724e-03		20.023
2		0.00		-8.40		9.736e-03		122.448		2.846e-03		15.294
2		0.00		-8.80		1.217e-02		122.982		3.779e-03		17.015
2		0.00		-9.20		1.314e-02		121.240		4.427e-03		23.599
2		0.00		-9.60		1.452e-02		120.458		5.071e-03		16.921
2		0.00		-10.00		1.634e-02		122.668		4.964e-03		12.543
2		0.00		-9.60		1.584e-02		124.320		4.683e-03		12.199
2		0.00		-9.20		1.572e-02		125.105		4.332e-03		12.611
2		0.00		-8.80		1.556e-02		124.812		4.517e-03		17.512
2		0.00		-8.40		1.570e-02		125.001		4.581e-03		22.343
2		0.00		-8.00		1.572e-02		123.601		4.311e-03		12.060
2		0.00		-7.60		1.547e-02		126.440		3.873e-03		11.952
2		0.00		-7.20		1.486e-02		124.720		3.668e-03		12.006
2		0.00		-6.80		1.448e-02		127.220		3.819e-03		15.265
2		0.00		-6.40		1.396e-02		124.110		4.372e-03		21.528
2		0.00		-6.00		1.383e-02		125.943		4.039e-03		13.528
2		0.00		-5.60		1.335e-02		124.650		3.555e-03		11.197
2		0.00		-5.20		1.289e-02		125.641		3.424e-03		13.268
2		0.00		-4.80		1.265e-02		123.958		3.583e-03		16.144
2		0.00		-4.40		1.184e-02		122.356		3.391e-03		21.289
2		0.00		-4.00		1.143e-02		125.293		3.471e-03		13.918
2		0.00		-3.60		1.129e-02		127.118		3.338e-03		18.693
2		0.00		-3.20		1.108e-02		124.966		2.958e-03		14.372
2		0.00		-2.80		1.044e-02		126.324		2.998e-03		13.606
2		0.00		-2.40		9.966e-03		124.485		3.000e-03		21.853
2		0.00		-2.00		9.986e-03		124.779		3.246e-03		15.123
2		0.00		-1.60		1.000e-02		126.198		2.948e-03		14.418
2		0.00		-1.20		9.963e-03		128.072		2.638e-03		9.990
2		0.00		-0.80		9.715e-03		125.824		2.441e-03		11.411
2		0.00		-0.40		9.153e-03		122.235		2.603e-03		16.665
3		0.00		0.00		9.140e-03		125.091		2.840e-03		22.471
3		0.00		0.40		8.510e-03		127.552		2.468e-03		17.548
3		0.00		0.80		8.531e-03		124.472		2.336e-03		12.076
3		0.00		1.20		7.314e-03		125.861		2.071e-03		19.056
3		0.00		1.60		7.053e-03		122.271		2.241e-03		20.536
3		0.00		2.00		6.393e-03		119.429		2.098e-03		25.878
3		0.00		2.40		5.804e-03		128.091		2.098e-03		14.781
3		0.00		2.80		5.281e-03		128.924		1.705e-03		28.421
3		0.00		3.20		4.396e-03		121.503		1.546e-03		34.802
3		0.00		3.60		3.503e-03		106.723		1.401e-03		54.940
3		0.00		4.00		2.877e-03		91.990		1.056e-03		67.992
3		0.00		4.40		2.222e-03		65.965		9.546e-04		79.164
3		0.00		4.80		1.932e-03		29.351		8.241e-04		80.950
3		0.00		5.20		1.739e-03		-29.904		6.464e-04		83.520
3		0.00		5.60		2.205e-03		-43.592		9.900e-04		51.586
3		0.00		6.00		3.008e-03		-60.998		1.257e-03		33.572
3		0.00		6.40		3.722e-03		-61.440		1.476e-03		23.138
3		0.00		6.80		5.423e-03		-67.350		1.784e-03		16.474
3		0.00		7.20		7.707e-03		-55.155		2.080e-03		18.206
3		0.00		7.60		8.932e-03		-59.767		2.765e-03		15.930
3		0.00		8.00		9.977e-03		-55.096		3.174e-03		15.887
3		0.00		8.40		1.193e-02		-50.756		3.676e-03		14.784
3		0.00		8.80		1.497e-02		-55.294		4.331e-03		11.251
3		0.00		9.20		1.866e-02		-55.171		4.402e-03		11.547
3		0.00		9.60		2.132e-02		-55.004		5.183e-03		12.211
3		0.00		10.00		2.441e-02		-54.114		6.172e-03		13.420
3		0.00		9.60		2.629e-02		-52.690		6.920e-03		14.890
3		0.00		9.20		2.638e-02		-53.504		7.364e-03		11.704
3		0.00		8.80		2.726e-02		-53.031		7.427e-03		11.027
3		0.00		8.40		2.794e-02		-53.028		6.570e-03		9.567
3		0.00		8.00		2.815e-02		-52.745		6.286e-03		10.978
3		0.00		7.60		2.746e-02		-51.790		6.722e-03		11.405
3		0.00		7.20		2.702e-02		-56.159		7.325e-03		15.753
3		0.00		6.80		2.666e-02		-52.156		7.782e-03		12.181
3		0.00		6.40		2.640e-02		-52.707		8.050e-03		11.091
3		0.00		6.00		2.645e-02		-53.726		7.135e-03		10.046
3		0.00		5.60		2.618e-02		-54.340		6.334e-03		10.742
3		0.00		5.20		2.499e-02		-52.941		6.471e-03		11.510
3		0.00		4.80		2.457e-02		-53.743		6.712e-03		14.123
3		0.00		4.40		2.373e-02		-54.548		7.186e-03		17.602
3		0.00		4.00		2.412e-02		-52.389		7.606e-03		12.066
3		0.00		3.60		2.391e-02		-53.943		6.811e-03		10.749
3		0.00		3.20		2.412e-02		-55.283		6.073e-03		11.199
3		0.00		2.80		2.409e-02		-53.110		5.779e-03		11.864
3		0.00		2.40		2.358e-02		-53.909		5.947e-03		12.920
3		0.00		2.00		2.397e-02		-53.170		6.569e-03		13.313
3		0.00		1.60		2.322e-02		-50.376		6.823e-03		16.520
3		0.00		1.20		2.397e-02		-54.036		6.745e-03		11.303
3		0.00		0.80		2.414e-02		-53.612		6.104e-03		10.342
3		0.00		0.40		2.446e-02		-56.769		5.519e-03		11.266
3		0.00		0.00		2.398e-02		-53.806		5.840e-03		12.002
3		0.00		-0.40		2.365e-02		-52.397		6.069e-03		12.328
3		0.00		-0.80		2.264e-02		-53.422		6.577e-03		13.755
3		0.00		-1.20		2.292e-02		-50.596		6.712e-03		11.633
3		0.00		-1.60		2.242e-02		-51.860		6.768e-03		10.578
3		0.00		-2.00		2.238e-02		-54.835		6.330e-03		10.065
3		0.00		-2.40		2.207e-02		-55.653		6.083e-03		12.281
3		0.00		-2.80		2.052e-02		-55.540		6.047e-03		13.810
3		0.00		-3.20		1.978e-02		-55.007		5.913e-03		14.767
3		0.00		-3.60		1.879e-02		-57.419		5.963e-03		17.571
3		0.00		-4.00		1.714e-02		-51.390		5.719e-03		15.113
3		0.00		-4.40		1.678e-02		-56.105		5.196e-03		13.318
3		0.00		-4.80		1.509e-02		-56.600		3.986e-03		12.835
3		0.00		-5.20		1.318e-02		-57.053		3.482e-03		15.112
3		0.00		-5.60		1.129e-02		-54.356		2.899e-03		14.663
3		0.00		-6.00		8.506e-03		-53.617		2.566e-03		18.055
3		0.00		-6.40		5.693e-03		-46.658		1.721e-03		20.903
3		0.00		-6.80		3.240e-03		-51.746		1.268e-03		27.910
3		0.00		-7.20		2.584e-03		71.952		1.128e-03		69.934
3		0.00		-7.60		5.648e-03		120.080		1.971e-03		36.999
3		0.00		-8.00		7.790e-03		124.846		2.156e-03		14.309
3		0.00		-8.40		9.295e-03		124.196		2.750e-03		20.291
3		0.00		-8.80		1.038e-02		122.617		3.050e-03		21.417
3		0.00		-9.20		1.217e-02		125.204		3.755e-03		17.621
3		0.00		-9.60		1.404e-02		125.065		4.166e-03		10.644
3		0.00		-10.00		1.550e-02		125.871		4.265e-03		9.697
3		0.00		-9.60		1.580e-02		127.687		4.293e-03		12.501
3		0.00		-9.20		1.549e-02		125.494		4.201e-03		12.490
3		0.00		-8.80		1.542e-02		124.918		4.512e-03		18.909
3		0.00		-8.40		1.479e-02		123.653		4.804e-03		21.040
3		0.00		-8.00		1.461e-02		124.780		4.616e-03		12.977
3		0.00		-7.60		1.532e-02		126.563		4.316e-03		12.015
3		0.00		-7.20		1.485e-02		125.814		3.786e-03		11.177
3		0.00		-6.80		1.430e-02		126.821		3.549e-03		10.983
3		0.00		-6.40		1.383e-02		125.647		3.754e-03		12.975
3		0.00		-6.00		1.298e-02		123.745		3.887e-03		18.426
3		0.00		-5.60		1.283e-02		123.257		3.935e-03		14.791
3		0.00		-5.20		1.277e-02		128.276		3.391e-03		10.967
3		0.00		-4.80		1.267e-02		126.369		3.441e-03		9.942
3		0.00		-4.40		1.219e-02		126.355		2.838e-03		12.900
3		0.00		-4.00		1.170e-02		127.289		2.878e-03		12.669
3		0.00		-3.60		1.120e-02		123.398		3.303e-03		19.937
3		0.00		-3.20		1.059e-02		124.134		3.098e-03		25.309
3		0.00		-2.80		1.051e-02		126.122		3.136e-03		10.932
3		0.00		-2.40		1.029e-02		123.745		2.850e-03		13.441
3		0.00		-2.00		9.951e-03		126.358		2.649e-03		14.128
3		0.00		-1.60		1.000e-02		124.670		2.547e-03		16.442
3		0.00		-1.20		9.033e-03		121.531		3.042e-03		20.409
3		0.00		-0.80		8.909e-03		120.727		2.980e-03		27.164
3		0.00		-0.40		8.820e-03		123.013		3.085e-03		18.933
4		0.00		0.00		8.383e-03		124.505		2.867e-03		14.317
4		0.00		0.40		8.151e-03		121.714		2.525e-03		21.443
4		0.00		0.80		7.399e-03		127.925		2.485e-03		16.717
4		0.00		1.20		7.226e-03		122.162		2.389e-03		19.843
4		0.00		1.60		6.682e-03		116.243		2.200e-03		30.687
4		0.00		2.00		5.936e-03		121.419		2.264e-03		34.070
4		0.00		2.40		5.713e-03		117.647		2.120e-03		32.693
4		0.00		2.80		4.832e-03		124.835		1.561e-03		32.122
4		0.00		3.20		3.993e-03		113.321		1.590e-03		36.012
4		0.00		3.60		3.428e-03		109.624		1.440e-03		43.998
4		0.00		4.00		2.842e-03		88.829		1.190e-03		65.730
4		0.00		4.40		2.472e-03		59.712		1.015e-03		79.812
4		0.00		4.80		1.846e-03		31.579		7.894e-04		86.720
4		0.00		5.20		1.972e-03		-32.549		8.217e-04		80.211
4		0.00		5.60		2.050e-03		-54.444		8.561e-04		60.640
4		0.00		6.00		2.845e-03		-70.683		1.055e-03		37.872
4		0.00		6.40		3.683e-03		-54.283		1.295e-03		31.039
4		0.00		6.80		4.728e-03		-53.370		1.694e-03		28.883
4		0.00		7.20		5.729e-03		-42.920		2.050e-03		28.268
4		0.00		7.60		7.579e-03		-51.574		2.437e-03		18.770
4		0.00		8.00		9.532e-03		-56.847		2.857e-03		13.921
4		0.00		8.40		1.098e-02		-54.599		2.689e-03		14.626
4		0.00		8.80		1.323e-02		-54.832		3.693e-03		14.051
4		0.00		9.20		1.452e-02		-54.435		4.326e-03		17.065
4		0.00		9.60		1.673e-02		-55.564		5.223e-03		19.019
4		0.00		10.00		1.998e-02		-54.965		6.727e-03		15.923
4		0.00		9.60		2.185e-02		-52.818		7.095e-03		10.428
4		0.00		9.20		2.313e-02		-54.233		6.840e-03		10.528
4		0.00		8.80		2.340e-02		-55.658		6.407e-03		13.413
4		0.00		8.40		2.357e-02		-56.183		6.309e-03		13.316
4		0.00		8.00		2.332e-02		-54.630		6.580e-03		13.346
4		0.00		7.60		2.268e-02		-55.929		6.662e-03		19.622
4		0.00		7.20		2.247e-02		-51.234		6.511e-03		20.755
4		0.00		6.80		2.268e-02		-50.468		6.611e-03		11.534
4		0.00		6.40		2.309e-02		-52.709		6.194e-03		10.953
4		0.00		6.00		2.292e-02		-56.174		5.780e-03		10.099
4		0.00		5.60		2.208e-02		-53.937		5.562e-03		12.838
4		0.00		5.20		2.194e-02		-51.707		6.223e-03		12.949
4		0.00		4.80		2.179e-02		-53.412		6.353e-03		14.101
4		0.00		4.40		2.091e-02		-50.798		6.735e-03		17.054
4		0.00		4.00		2.131e-02		-53.092		7.324e-03		13.926
4		0.00		3.60		2.093e-02		-52.450		6.845e-03		11.494
4		0.00		3.20		2.111e-02		-55.696		6.031e-03		14.365
4		0.00		2.80		2.071e-02		-54.988		6.062e-03		13.149
4		0.00		2.40		2.023e-02		-54.939		6.320e-03		14.588
4		0.00		2.00		1.986e-02		-54.972		6.795e-03		17.236
4		0.00		1.60		1.971e-02		-47.349		6.650e-03		20.407
4		0.00		1.20		1.974e-02		-54.090		6.720e-03		12.367
4		0.00		0.80		2.064e-02		-55.458		6.151e-03		12.323
4		0.00		0.40		2.054e-02		-55.700		5.494e-03		13.014
4		0.00		0.00		2.018e-02		-53.786		5.521e-03		13.385
4		0.00		-0.40		1.996e-02		-53.166		5.487e-03		15.549
4		0.00		-0.80		2.016e-02		-52.420		5.915e-03		19.974
4		0.00		-1.20		2.051e-02		-50.138		6.307e-03		13.032
4		0.00		-1.60		2.015e-02		-53.781		5.305e-03		10.577
4		0.00		-2.00		2.005e-02		-54.626		5.026e-03		12.980
4		0.00		-2.40		1.870e-02		-53.997		4.996e-03		14.343
4		0.00		-2.80		1.843e-02		-52.973		5.343e-03		15.028
4		0.00		-3.20		1.794e-02		-51.037		5.508e-03		15.827
4		0.00		-3.60		1.790e-02		-52.857		5.450e-03		12.360
4		0.00		-4.00		1.708e-02		-51.555		4.743e-03		12.521
4		0.00		-4.40		1.528e-02		-55.989		4.080e-03		15.415
4		0.00		-4.80		1.422e-02		-55.584		4.110e-03		15.098
4		0.00		-5.20		1.218e-02		-52.988		3.728e-03		17.052
4		0.00		-5.60		1.037e-02		-50.622		3.407e-03		22.229
4		0.00		-6.00		8.291e-03		-54.776		2.544e-03		14.335
4		0.00		-6.40		6.141e-03		-58.583		1.722e-03		18.540
4		0.00		-6.80		3.626e-03		-53.292		1.197e-03		28.398
4		0.00		-7.20		1.667e-03		20.338		6.620e-04		77.583
4		0.00		-7.60		3.381e-03		106.557		1.541e-03		52.066
4		0.00		-8.00		5.935e-03		124.217		1.987e-03		26.519
4		0.00		-8.40		8.647e-03		119.315		2.679e-03		24.958
4		0.00		-8.80		1.033e-02		126.774		3.090e-03		13.342
4		0.00		-9.20		1.136e-02		125.598		3.328e-03		15.761
4		0.00		-9.60		1.296e-02		121.646		3.932e-03		24.368
4		0.00		-10.00		1.416e-02		124.609		4.498e-03		16.185
4		0.00		-9.60		1.528e-02		125.019		4.341e-03		10.569
4		0.00		-9.20		1.507e-02		124.893		3.653e-03		12.179
4		0.00		-8.80		1.489e-02		125.959		3.885e-03		11.687
4		0.00		-8.40		1.419e-02		123.727		4.207e-03		17.456
4		0.00		-8.00		1.431e-02		125.718		4.432e-03		21.249
4		0.00		-7.60		1.429e-02		125.156		4.378e-03		11.618
4		0.00		-7.20		1.398e-02		126.957		3.808e-03		10.702
4		0.00		-6.80		1.332e-02		126.601		3.721e-03		13.062
4		0.00		-6.40		1.285e-02		125.857		3.780e-03		16.015
4		0.00		-6.00		1.231e-02		116.535		4.143e-03		30.056
4		0.00		-5.60		1.213e-02		126.212		4.209e-03		16.047
4		0.00		-5.20		1.225e-02		125.242		3.727e-03		11.348
4		0.00		-4.80		1.161e-02		125.691		3.366e-03		13.230
4		0.00		-4.40		1.139e-02		124.771		3.508e-03		15.088
4		0.00		-4.00		1.101e-02		120.203		3.669e-03		22.945
4		0.00		-3.60		1.015e-02		116.571		3.542e-03		28.371
4		0.00		-3.20		1.041e-02		124.633		3.410e-03		18.348
4		0.00		-2.80		1.028e-02		124.005		2.803e-03		12.828
4		0.00		-2.40		9.982e-03		125.229		2.598e-03		12.434
4		0.00		-2.00		9.696e-03		124.190		2.741e-03		18.363
4		0.00		-1.60		9.127e-03		123.759		2.567e-03		23.285
4		0.00		-1.20		9.068e-03		123.483		2.898e-03		15.503
4		0.00		-0.80		9.142e-03		126.965		2.543e-03		12.353
4		0.00		-0.40		9.147e-03		125.663		2.345e-03		11.990
5		0.00		0.00		8.204e-03		128.131		2.375e-03		13.678
5		0.00		0.40		8.146e-03		121.811		2.496e-03		23.503
5		0.00		0.80		8.117e-03		122.055		2.572e-03		27.069
5		0.00		1.20		7.692e-03		126.890		2.573e-03		17.012
5		0.00		1.60		7.056e-03		131.525		2.061e-03		14.175
5		0.00		2.00		6.657e-03		126.250		1.820e-03		25.526
5		0.00		2.40		5.902e-03		120.750		1.932e-03		24.425
5		0.00		2.80		5.251e-03		119.872		1.923e-03		30.621
5		0.00		3.20		4.685e-03		123.406		1.823e-03		40.405
5		0.00		3.60		4.042e-03		118.563		1.397e-03		34.788
5		0.00		4.00		3.095e-03		109.087		1.155e-03		56.179
5		0.00		4.40		2.859e-03		82.591		1.132e-03		77.946
5		0.00		4.80		2.471e-03		83.048		1.042e-03		69.948
5		0.00		5.20		1.735e-03		-6.202		7.508e-04		78.621
5		0.00		5.60		2.046e-03		-40.355		8.327e-04		66.383
5		0.00		6.00		2.776e-03		-57.387		1.258e-03		52.814
5		0.00		6.40		3.058e-03		-54.479		1.377e-03		38.212
5		0.00		6.80		3.747e-03		-59.419		1.408e-03		26.965
5		0.00		7.20		5.293e-03		-52.069		1.873e-03		26.374
5		0.00		7.60		6.688e-03		-49.687		2.102e-03		15.990
5		0.00		8.00		8.381e-03		-61.664		2.182e-03		18.355
5		0.00		8.40		9.653e-03		-54.110		2.463e-03		15.546
5		0.00		8.80		1.127e-02		-54.970		3.217e-03		15.050
5		0.00		9.20		1.401e-02		-56.421		3.920e-03		18.716
5		0.00		9.60		1.643e-02		-53.540		4.371e-03		9.816
5		0.00		10.00		1.868e-02		-54.623		4.537e-03		11.501
5		0.00		9.60		1.989e-02		-54.418		5.186e-03		11.701
5		0.00		9.20		2.043e-02		-54.336		6.427e-03		16.937
5		0.00		8.80		2.072e-02		-50.552		6.990e-03		15.999
5		0.00		8.40		2.194e-02		-52.075		6.568e-03		10.071
5		0.00		8.00		2.222e-02		-55.975		5.470e-03		10.337
5		0.00		7.60		2.179e-02		-55.359		5.652e-03		13.490
5		0.00		7.20		2.189e-02		-53.537		6.255e-03		15.462
5		0.00		6.80		2.142e-02		-54.961		6.336e-03		17.298
5		0.00		6.40		2.172e-02		-52.508		6.203e-03		10.157
5		0.00		6.00		2.161e-02		-54.420		5.042e-03		10.698
5		0.00		5.60		2.111e-02		-55.841		5.329e-03		13.329
5		0.00		5.20		2.086e-02		-52.994		5.002e-03		12.689
5		0.00		4.80		2.070e-02		-52.957		5.461e-03		16.224
5		0.00		4.40		2.083e-02		-51.718		5.686e-03		10.186
5		0.00		4.00		2.100e-02		-53.820		4.803e-03		10.651
5		0.00		3.60		2.119e-02		-54.372		4.613e-03		12.421
5		0.00		3.20		2.072e-02		-52.504		4.621e-03		11.898
5		0.00		2.80		2.028e-02		-51.241		5.278e-03		13.831
5		0.00		2.40		2.058e-02		-53.135		5.369e-03		11.434
5		0.00		2.00		2.109e-02		-52.408		4.824e-03		8.998
5		0.00		1.60		2.131e-02		-53.139		4.352e-03		10.195
5		0.00		1.20		2.168e-02		-50.175		3.947e-03		10.883
5		0.00		0.80		2.036e-02		-52.517		5.153e-03		14.842
5		0.00		0.40		1.993e-02		-51.962		5.757e-03		13.796
5		0.00		0.00		2.033e-02		-54.564		5.143e-03		12.529
5		0.00		-0.40		2.081e-02		-50.930		4.395e-03		9.331
5		0.00		-0.80		2.060e-02		-53.386		4.401e-03		10.877
5		0.00		-1.20		1.991e-02		-53.397		4.749e-03		11.396
5		0.00		-1.60		1.938e-02		-54.549		5.362e-03		13.324
5		0.00		-2.00		1.941e-02		-50.464		5.681e-03		9.844
5		0.00		-2.40		1.971e-02		-52.937		4.627e-03		9.189
5		0.00		-2.80		1.968e-02		-51.663		3.857e-03		10.714
5		0.00		-3.20		1.917e-02		-51.660		4.056e-03		10.865
5		0.00		-3.60		1.817e-02		-49.089		4.241e-03		13.611
5		0.00		-4.00		1.673e-02		-52.335		4.343e-03		12.502
5		0.00		-4.40		1.602e-02		-50.842		3.536e-03		11.381
5		0.00		-4.80		1.533e-02		-55.171		3.024e-03		11.279
5		0.00		-5.20		1.352e-02		-52.452		2.339e-03		10.922
5		0.00		-5.60		1.076e-02		-49.692		2.356e-03		14.083
5		0.00		-6.00		8.481e-03		-54.580		2.314e-03		15.669
5		0.00		-6.40		6.138e-03		-47.144		1.903e-03		18.068
5		0.00		-6.80		4.270e-03		-67.722		1.227e-03		20.205
5		0.00		-7.20		2.298e-03		-46.025		1.029e-03		53.243
5		0.00		-7.60		2.525e-03		90.455		1.031e-03		58.178
5		0.00		-8.00		5.042e-03		117.981		1.662e-03		29.843
5		0.00		-8.40		7.889e-03		120.649		2.523e-03		24.435
5		0.00		-8.80		1.015e-02		124.113		2.886e-03		16.783
5		0.00		-9.20		1.201e-02		123.674		3.208e-03		10.988
5		0.00		-9.60		1.352e-02		125.634		3.620e-03		12.392
5		0.00		-10.00		1.468e-02		123.159		4.046e-03		17.537
5		0.00		-9.60		1.555e-02		125.164		4.930e-03		19.207
5		0.00		-9.20		1.595e-02		126.134		4.283e-03		9.156
5		0.00		-8.80		1.578e-02		125.798		3.633e-03		9.745
5		0.00		-8.40		1.544e-02		127.139		3.756e-03		11.616
5		0.00		-8.00		1.503e-02		124.087		3.717e-03		14.476
5		0.00		-7.60		1.486e-02		124.912		4.062e-03		17.490
5		0.00		-7.20		1.479e-02		128.880		3.552e-03		9.949
5		0.00		-6.80		1.463e-02		123.512		3.317e-03		11.210
5		0.00		-6.40		1.366e-02		126.956		2.902e-03		11.406
5		0.00		-6.00		1.362e-02		125.835		3.301e-03		13.944
5		0.00		-5.60		1.285e-02		123.808		3.509e-03		20.871
5		0.00		-5.20		1.275e-02		125.654		3.353e-03		11.432
5		0.00		-4.80		1.232e-02		126.934		2.817e-03		9.984
5		0.00		-4.40		1.247e-02		129.110		2.628e-03		10.415
5		0.00		-4.00		1.200e-02		126.597		2.779e-03		15.402
5		0.00		-3.60		1.139e-02		126.371		3.188e-03		20.292
5		0.00		-3.20		1.109e-02		127.420		2.961e-03		12.318
5		0.00		-2.80		1.067e-02		125.816		2.643e-03		9.586
5		0.00		-2.40		1.001e-02		125.812		2.429e-03		12.534
5		0.00		-2.00		9.996e-03		124.626		2.770e-03		17.712
5		0.00		-1.60		9.735e-03		120.340		2.972e-03		25.171
5		0.00		-1.20		9.883e-03		122.325		3.010e-03		22.913
5		0.00		-0.80		1.003e-02		128.754		2.456e-03		12.659
5		0.00		-0.40		9.381e-03		123.912		2.302e-03		12.416
6		0.00		0.00		9.801e-03		122.680		2.397e-03		13.902
6		0.00		0.40		9.229e-03		124.653		2.698e-03		22.666
6		0.00		0.80		8.915e-03		130.803		2.500e-03		12.641
6		0.00		1.20		9.129e-03		126.149		2.075e-03		12.115
6		0.00		1.60		8.138e-03		124.103		2.032e-03		12.392
6		0.00		2.00		7.528e-03		129.790		1.859e-03		14.492
6		0.00		2.40		6.842e-03		125.264		1.853e-03		24.378
6		0.00		2.80		5.880e-03		125.829		1.703e-03		23.440
6		0.00		3.20		5.324e-03		127.089		1.608e-03		18.579
6		0.00		3.60		4.779e-03		131.567		1.572e-03		22.430
6		0.00		4.00		3.773e-03		115.462		1.183e-03		50.967
6		0.00		4.40		3.144e-03		88.087		1.290e-03		69.133
6		0.00		4.80		2.626e-03		82.164		1.088e-03		76.651
6		0.00		5.20		1.871e-03		29.584		7.668e-04		78.213
6		0.00		5.60		1.744e-03		2.290		7.479e-04		81.047
6		0.00		6.00		2.026e-03		-46.362		7.799e-04		67.816
6		0.00		6.40		2.939e-03		-59.282		1.153e-03		33.897
6		0.00		6.80		3.973e-03		-54.834		1.406e-03		28.533
6		0.00		7.20		5.629e-03		-62.087		1.816e-03		21.692
6		0.00		7.60		6.819e-03		-52.290		1.863e-03		18.337
6		0.00		8.00		7.203e-03		-55.290		2.141e-03		18.246
6		0.00		8.40		9.014e-03		-57.924		2.649e-03		18.926
6		0.00		8.80		1.101e-02		-57.206		3.706e-03		15.073
6		0.00		9.20		1.358e-02		-55.325		3.625e-03		12.308
6		0.00		9.60		1.646e-02		-53.983		3.609e-03		11.331
6		0.00		10.00		1.878e-02		-55.449		4.086e-03		12.302
6		0.00		9.60		1.974e-02		-51.789		4.793e-03		12.128
6		0.00		9.20		2.101e-02		-52.130		5.791e-03		13.221
6		0.00		8.80		2.165e-02		-52.787		5.672e-03		9.508
6		0.00		8.40		2.228e-02		-53.463		4.926e-03		10.079
6		0.00		8.00		2.177e-02		-54.941		4.795e-03		11.787
6		0.00		7.60		2.116e-02		-52.538		5.106e-03		12.124
6		0.00		7.20		2.135e-02		-53.978		5.641e-03		16.797
6		0.00		6.80		2.108e-02		-50.481		5.924e-03		12.103
6		0.00		6.40		2.162e-02		-53.102		5.449e-03		10.083
6		0.00		6.00		2.116e-02		-52.448		4.669e-03		10.548
6		0.00		5.60		2.143e-02		-52.781		4.635e-03		10.997
6		0.00		5.20		2.043e-02		-52.063		4.876e-03		11.073
6		0.00		4.80		2.012e-02		-52.374		5.397e-03		12.410
6		0.00		4.40		1.982e-02		-51.608		5.835e-03		14.878
6		0.00		4.00		2.010e-02		-51.251		5.553e-03		9.797
6		0.00		3.60		2.087e-02		-51.502		4.658e-03		9.602
6		0.00		3.20		2.065e-02		-53.416		4.397e-03		10.602
6		0.00		2.80		2.013e-02		-52.474		4.772e-03		12.525
6		0.00		2.40		1.929e-02		-53.262		5.037e-03		13.319
6		0.00		2.00		1.954e-02		-50.890		5.305e-03		14.094
6		0.00		1.60		2.015e-02		-52.588		4.632e-03		9.400
6		0.00		1.20		2.066e-02		-54.744		4.438e-03		9.203
6		0.00		0.80		2.031e-02		-53.113		4.015e-03		10.551
6		0.00		0.40		1.984e-02		-52.235		4.514e-03		12.132
6		0.00		0.00		1.983e-02		-51.474		4.833e-03		12.758
6		0.00		-0.40		1.944e-02		-49.452		5.286e-03		11.132
6		0.00		-0.80		1.997e-02		-52.883		4.885e-03		8.996
6		0.00		-1.20		2.059e-02		-53.070		3.982e-03		8.431
6		0.00		-1.60		2.088e-02		-53.507		3.582e-03		9.470
6		0.00		-2.00		2.012e-02		-51.557		4.187e-03		11.749
6		0.00		-2.40		1.899e-02		-52.738		4.624e-03		12.770
6		0.00		-2.80		1.879e-02		-51.207		4.961e-03		11.778
6		0.00		-3.20		1.765e-02		-51.741		5.130e-03		11.000
6		0.00		-3.60		1.703e-02		-53.532		4.315e-03		10.862
6		0.00		-4.00		1.699e-02		-52.909		3.690e-03		9.650
6		0.00		-4.40		1.544e-02		-52.505		3.462e-03		12.021
6		0.00		-4.80		1.393e-02		-52.576		3.384e-03		12.923
6		0.00		-5.20		1.254e-02		-55.241		3.309e-03		16.315
6		0.00		-5.60		1.059e-02		-49.249		3.086e-03		19.103
6		0.00		-6.00		8.797e-03		-57.072		2.516e-03		15.404
6		0.00		-6.40		6.892e-03		-50.748		1.823e-03		17.129
6		0.00		-6.80		5.134e-03		-51.721		1.451e-03		19.332
6		0.00		-7.20		2.969e-03		-46.122		1.106e-03		31.151
6		0.00		-7.60		1.926e-03		31.232		8.522e-04		76.027
6		0.00		-8.00		3.129e-03		97.763		1.241e-03		62.801
6		0.00		-8.40		6.430e-03		125.573		1.893e-03		18.575
6		0.00		-8.80		8.885e-03		119.442		2.468e-03		15.479
6		0.00		-9.20		1.056e-02		124.557		2.641e-03		10.775
6		0.00		-9.60		1.267e-02		125.035		2.792e-03		11.110
6		0.00		-10.00		1.475e-02		126.731		3.410e-03		10.672
6		0.00		-9.60		1.605e-02		130.284		3.373e-03		11.500
6		0.00		-9.20		1.627e-02		124.568		4.065e-03		16.152
6		0.00		-8.80		1.600e-02		126.463		4.288e-03		19.840
6		0.00		-8.40		1.556e-02		124.711		4.287e-03		17.109
6		0.00		-8.00		1.501e-02		124.939		4.207e-03		11.722
6		0.00		-7.60		1.545e-02		125.119		3.610e-03		10.758
6		0.00		-7.20		1.518e-02		126.066		3.097e-03		10.482
6		0.00		-6.80		1.448e-02		128.151		3.064e-03		10.348
6		0.00		-6.40		1.410e-02		126.096		3.097e-03		11.205
6		0.00		-6.00		1.353e-02		129.332		3.428e-03		13.185
6		0.00		-5.60		1.356e-02		123.297		3.412e-03		16.313
6		0.00		-5.20		1.267e-02		123.149		3.539e-03		23.367
6		0.00		-4.80		1.241e-02		125.658		3.669e-03		19.587
6		0.00		-4.40		1.208e-02		126.112		3.295e-03		11.247
6		0.00		-4.00		1.222e-02		126.442		2.806e-03		11.659
6		0.00		-3.60		1.168e-02		127.635		2.611e-03		11.098
6		0.00		-3.20		1.114e-02		122.737		2.546e-03		11.273
6		0.00		-2.80		1.142e-02		125.117		2.370e-03		12.843
6		0.00		-2.40		1.078e-02		126.713		2.621e-03		13.802
6		0.00		-2.00		1.064e-02		127.588		2.675e-03		16.205
6		0.00		-1.60		1.022e-02		126.222		2.724e-03		20.058
6		0.00		-1.20		1.027e-02		122.902		2.812e-03		12.681
6		0.00		-0.80		9.888e-03		127.676		2.895e-03		13.300
6		0.00		-0.40		9.484e-03		125.990		2.625e-03		11.132
7		0.00		0.00		9.567e-03		126.088		2.749e-03		11.603
7		0.00		0.40		9.130e-03		123.063		2.300e-03		15.497
7		0.00		0.80		9.432e-03		126.190		2.558e-03		11.448
7		0.00		1.20		8.909e-03		126.241		2.079e-03		13.197
7		0.00		1.60		8.234e-03		126.386		2.468e-03		16.458
7		0.00		2.00		7.450e-03		128.107		2.104e-03		21.476
7		0.00		2.40		6.726e-03		125.777		2.063e-03		29.542
7		0.00		2.80		6.239e-03		122.811		2.115e-03		25.588
7		0.00		3.20		5.295e-03		124.037		1.736e-03		20.676
7		0.00		3.60		4.711e-03		120.779		1.615e-03		19.934
7		0.00		4.00		3.943e-03		118.053		1.272e-03		34.461
7		0.00		4.40		3.395e-03		110.614		1.123e-03		44.017
7		0.00		4.80		2.431e-03		72.188		1.030e-03		80.068
7		0.00		5.20		2.013e-03		36.928		9.068e-04		91.331
7		0.00		5.60		1.664e-03		-23.641		6.226e-04		79.512
7		0.00		6.00		2.192e-03		-54.834		8.511e-04		50.583
7		0.00		6.40		2.707e-03		-50.919		1.168e-03		50.582
7		0.00		6.80		3.646e-03		-52.072		1.481e-03		37.388
7		0.00		7.20		4.988e-03		-53.465		1.914e-03		23.316
7		0.00		7.60		6.130e-03		-60.096		1.985e-03		20.646
7		0.00		8.00		7.320e-03		-57.600		2.126e-03		14.673
7		0.00		8.40		8.729e-03		-56.563		2.345e-03		17.508
7		0.00		8.80		1.090e-02		-53.067		2.902e-03		14.607
7		0.00		9.20		1.296e-02		-55.576		3.581e-03		13.766
7		0.00		9.60		1.528e-02		-56.086		4.520e-03		15.509
7		0.00		10.00		1.757e-02		-54.117		5.167e-03		17.370
7		0.00		9.60		1.887e-02		-52.856		5.754e-03		14.850
7		0.00		9.20		2.029e-02		-52.809		6.238e-03		13.447
7		0.00		8.80		2.149e-02		-53.413		6.019e-03		9.484
7		0.00		8.40		2.201e-02		-53.826		5.470e-03		9.266
7		0.00		8.00		2.253e-02		-52.189		4.941e-03		10.978
7		0.00		7.60		2.162e-02		-52.905		4.766e-03		11.941
7		0.00		7.20		2.123e-02		-51.795		4.994e-03		12.254
7		0.00		6.80		2.126e-02		-51.988		4.866e-03		11.760
7		0.00		6.40		2.064e-02		-51.769		5.236e-03		13.042
7		0.00		6.00		2.031e-02		-54.015		5.499e-03		15.169
7		0.00		5.60		2.052e-02		-53.312		5.899e-03		12.999
7		0.00		5.20		2.071e-02		-52.729		5.499e-03		8.956
7		0.00		4.80		2.078e-02		-52.130		4.910e-03		7.835
7		0.00		4.40		2.048e-02		-53.309		4.666e-03		10.800
7		0.00		4.00		2.038e-02		-53.007		4.605e-03		10.621
7		0.00		3.60		1.940e-02		-52.102		4.749e-03		12.517
7		0.00		3.20		1.894e-02		-49.504		5.179e-03		14.605
7		0.00		2.80		1.862e-02		-49.695		5.615e-03		17.886
7		0.00		2.40		1.867e-02		-51.683		5.691e-03		17.012
7		0.00		2.00		1.862e-02		-52.738		5.786e-03		11.676
7		0.00		1.60		1.913e-02		-49.551		5.432e-03		10.831
7		0.00		1.20		1.935e-02		-52.724		5.045e-03		10.244
7		0.00		0.80		1.940e-02		-53.091		4.358e-03		12.156
7		0.00		0.40		1.971e-02		-54.976		4.345e-03		11.167
7		0.00		0.00		1.939e-02		-52.574		4.470e-03		11.580
7		0.00		-0.40		1.973e-02		-54.364		4.882e-03		14.874
7		0.00		-0.80		1.895e-02		-52.013		4.800e-03		14.223
7		0.00		-1.20		1.869e-02		-50.742		4.923e-03		9.704
7		0.00		-1.60		1.899e-02		-55.322		4.558e-03		9.534
7		0.00		-2.00		1.913e-02		-55.528		3.906e-03		9.246
7		0.00		-2.40		1.870e-02		-53.499		3.438e-03		10.152
7		0.00		-2.80		1.878e-02		-52.711		3.789e-03		11.159
7		0.00		-3.20		1.738e-02		-52.767		3.995e-03		12.211
7		0.00		-3.60		1.655e-02		-51.099		4.073e-03		12.440
7		0.00		-4.00		1.584e-02		-52.048		4.553e-03		12.174
7		0.00		-4.40		1.490e-02		-50.888		4.100e-03		10.578
7		0.00		-4.80		1.413e-02		-52.932		3.067e-03		11.316
7		0.00		-5.20		1.289e-02		-53.300		2.639e-03		13.724
7		0.00		-5.60		1.128e-02		-49.223		2.226e-03		13.939
7		0.00		-6.00		9.578e-03		-53.210		2.190e-03		13.155
7		0.00		-6.40		7.614e-03		-52.754		2.051e-03		17.157
7		0.00		-6.80		5.600e-03		-52.849		1.671e-03		20.433
7		0.00		-7.20		2.908e-03		-44.359		1.137e-03		40.487
7		0.00		-7.60		1.680e-03		19.629		7.006e-04		81.009
7		0.00		-8.00		4.121e-03		116.899		1.458e-03		25.321
7		0.00		-8.40		6.451e-03		123.472		1.687e-03		16.432
7		0.00		-8.80		8.989e-03		126.364		2.392e-03		16.792
7		0.00		-9.20		1.054e-02		124.130		2.778e-03		19.821
7		0.00		-9.60		1.170e-02		123.310		3.336e-03		24.891
7		0.00		-10.00		1.337e-02		126.142		3.640e-03		11.108
7		0.00		-9.60		1.404e-02		126.777		2.998e-03		10.219
7		0.00		-9.20		1.449e-02		124.587		3.103e-03		11.654
7		0.00		-8.80		1.477e-02		127.952		2.945e-03		11.146
7		0.00		-8.40		1.396e-02		127.381		3.626e-03		13.896
7		0.00		-8.00		1.466e-02		125.679		4.058e-03		18.226
7		0.00		-7.60		1.422e-02		126.934		3.875e-03		11.460
7		0.00		-7.20		1.388e-02		125.284		3.747e-03		9.573
7		0.00		-6.80		1.402e-02		123.782		3.254e-03		9.930
7		0.00		-6.40		1.346e-02		128.127		3.152e-03		10.715
7		0.00		-6.00		1.367e-02		124.802		3.227e-03		10.702
7		0.00		-5.60		1.259e-02		123.454		3.352e-03		16.609
7		0.00		-5.20		1.195e-02		124.744		3.779e-03		25.067
7		0.00		-4.80		1.222e-02		123.637		3.665e-03		12.635
7		0.00		-4.40		1.198e-02		125.877		3.339e-03		12.262
7		0.00		-4.00		1.154e-02		123.336		3.133e-03		12.582
7		0.00		-3.60		1.107e-02		122.904		2.845e-03		14.098
7		0.00		-3.20		1.055e-02		127.681		2.797e-03		15.025
7		0.00		-2.80		1.062e-02		124.993		2.861e-03		19.613
7		0.00		-2.40		1.021e-02		123.575		3.104e-03		16.233
7		0.00		-2.00		1.035e-02		126.295		2.542e-03		10.365
7		0.00		-1.60		1.010e-02		124.874		2.271e-03		11.401
7		0.00		-1.20		9.733e-03		127.894		2.270e-03		11.833
7		0.00		-0.80		9.245e-03		130.486		2.296e-03		15.230
7		0.00		-0.40		9.141e-03		121.424		2.697e-03		23.539
8		0.00		0.00		9.046e-03		128.234		2.595e-03		15.762
8		0.00		0.40		8.686e-03		123.071		2.318e-03		12.140
8		0.00		0.80		8.667e-03		127.640		2.315e-03		12.206
8		0.00		1.20		7.957e-03		124.486		1.829e-03		12.688
8		0.00		1.60		7.532e-03		125.961		1.958e-03		18.442
8		0.00		2.00		6.981e-03		125.825		1.947e-03		22.523
8		0.00		2.40		6.719e-03		120.026		2.034e-03		24.664
8		0.00		2.80		6.082e-03		126.243		1.812e-03		13.006
8		0.00		3.20		5.643e-03		127.463		1.647e-03		16.483
8		0.00		3.60		4.714e-03		127.291		1.485e-03		30.895
8		0.00		4.00		3.997e-03		124.886		1.256e-03		21.797
8		0.00		4.40		2.858e-03		90.139		1.212e-03		58.569
8		0.00		4.80		2.832e-03		97.131		1.100e-03		57.792
8		0.00		5.20		2.222e-03		59.810		9.152e-04		89.183
8		0.00		5.60		1.885e-03		32.137		7.212e-04		85.001
8		0.00		6.00		2.048e-03		-54.751		6.959e-04		64.736
8		0.00		6.40		2.399e-03		-49.575		1.144e-03		58.965
8		0.00		6.80		3.079e-03		-48.855		1.207e-03		35.476
8		0.00		7.20		4.842e-03		-48.072		1.692e-03		19.955
8		0.00		7.60		6.066e-03		-53.018		1.686e-03		16.292
8		0.00		8.00		8.168e-03		-53.918		1.731e-03		14.064
8		0.00		8.40		9.097e-03		-57.195		2.246e-03		14.930
8		0.00		8.80		1.103e-02		-54.788		2.992e-03		20.282
8		0.00		9.20		1.321e-02		-52.748		3.673e-03		12.307
8		0.00		9.60		1.584e-02		-52.207		4.040e-03		8.753
8		0.00		10.00		1.787e-02		-53.071		3.807e-03		10.102
8		0.00		9.60		1.927e-02		-52.427		4.716e-03		11.874
8		0.00		9.20		1.921e-02		-54.257		5.220e-03		16.611
8		0.00		8.80		2.016e-02		-53.297		5.762e-03		15.745
8		0.00		8.40		2.029e-02		-52.362		5.731e-03		10.619
8		0.00		8.00		2.062e-02		-54.009		4.830e-03		10.257
8		0.00		7.60		2.104e-02		-55.740		4.682e-03		11.746
8		0.00		7.20		2.053e-02		-52.899		4.945e-03		12.463
8		0.00		6.80		2.015e-02		-51.817		5.557e-03		13.887
8		0.00		6.40		2.030e-02		-51.716		5.461e-03		9.787
8		0.00		6.00		2.007e-02		-52.483		4.935e-03		9.364
8		0.00		5.60		2.054e-02		-52.303		4.047e-03		9.659
8		0.00		5.20		2.022e-02		-52.642		4.212e-03		10.364
8		0.00		4.80		1.989e-02		-51.440		4.660e-03		11.250
8		0.00		4.40		1.882e-02		-52.931		4.721e-03		13.159
8		0.00		4.00		1.896e-02		-53.070		4.713e-03		10.748
8		0.00		3.60		1.964e-02		-52.996		4.032e-03		9.293
8		0.00		3.20		1.940e-02		-55.025		3.791e-03		10.006
8		0.00		2.80		1.931e-02		-49.918		3.932e-03		9.998
8		0.00		2.40		1.902e-02		-51.838		4.393e-03		14.693
8		0.00		2.00		1.868e-02		-49.418		4.894e-03		11.153
8		0.00		1.60		1.936e-02		-49.961		4.593e-03		9.544
8		0.00		1.20		1.960e-02		-53.626		3.679e-03		11.440
8		0.00		0.80		1.909e-02		-50.419		3.711e-03		10.880
8		0.00		0.40		1.908e-02		-53.060		4.136e-03		11.081
8		0.00		0.00		1.900e-02		-51.080		4.644e-03		13.620
8		0.00		-0.40		1.863e-02		-51.454		5.022e-03		12.566
8		0.00		-0.80		1.893e-02		-52.916		4.931e-03		10.097
8		0.00		-1.20		1.888e-02		-53.241		4.013e-03		9.455
8		0.00		-1.60		1.879e-02		-52.881		3.526e-03		10.761
8		0.00		-2.00		1.854e-02		-51.669		4.045e-03		10.299
8		0.00		-2.40		1.801e-02		-51.223		4.725e-03		12.505
8		0.00		-2.80		1.772e-02		-49.621		4.421e-03		11.281
8		0.00		-3.20		1.720e-02		-51.295		4.006e-03		10.948
8		0.00		-3.60		1.697e-02		-53.028		3.237e-03		9.525
8		0.00		-4.00		1.659e-02		-50.119		3.066e-03		11.147
8		0.00		-4.40		1.522e-02		-51.193		3.291e-03		11.573
8		0.00		-4.80		1.379e-02		-53.158		3.221e-03		14.136
8		0.00		-5.20		1.231e-02		-48.131		3.174e-03		14.899
8		0.00		-5.60		1.091e-02		-50.585		2.704e-03		12.124
8		0.00		-6.00		9.123e-03		-52.526		2.261e-03		14.815
8		0.00		-6.40		7.276e-03		-61.088		1.572e-03		17.189
8		0.00		-6.80		3.704e-03		-40.328		1.390e-03		25.966
8		0.00		-7.20		1.961e-03		-16.521		7.701e-04		54.160
8		0.00		-7.60		2.424e-03		66.645		9.976e-04		72.267
8		0.00		-8.00		4.643e-03		120.032		1.638e-03		31.729
8		0.00		-8.40		6.507e-03		125.213		1.818e-03		14.160
8		0.00		-8.80		8.866e-03		123.770		2.362e-03		14.873
8		0.00		-9.20		1.111e-02		128.223		3.075e-03		17.004
8		0.00		-9.60		1.323e-02		127.666		3.696e-03		18.697
8		0.00		-10.00		1.431e-02		124.722		4.317e-03		20.307
8		0.00		-9.60		1.478e-02		124.940		4.306e-03		11.521
8		0.00		-9.20		1.577e-02		128.261		3.614e-03		9.285
8		0.00		-8.80		1.553e-02		125.035		3.346e-03		11.068
8		0.00		-8.40		1.494e-02		125.203		3.398e-03		12.191
8		0.00		-8.00		1.450e-02		126.000		3.783e-03		17.564
8		0.00		-7.60		1.476e-02		125.971		4.030e-03		11.716
8		0.00		-7.20		1.414e-02		127.193		3.748e-03		8.946
8		0.00		-6.80		1.447e-02		127.845		2.944e-03		9.539
8		0.00		-6.40		1.380e-02		128.151		3.096e-03		11.211
8		0.00		-6.00		1.327e-02		126.681		3.264e-03		14.992
8		0.00		-5.60		1.282e-02		125.201		3.345e-03		19.004
8		0.00		-5.20		1.280e-02		126.831		3.329e-03		12.580
8		0.00		-4.80		1.274e-02		126.809		3.051e-03		10.930
8		0.00		-4.40		1.244e-02		125.676		2.497e-03		11.210
8		0.00		-4.00		1.197e-02		126.504		2.811e-03		10.820
8		0.00		-3.60		1.127e-02		124.848		3.160e-03		15.988
8		0.00		-3.20		1.116e-02		124.494		3.126e-03		20.644
8		0.00		-2.80		1.144e-02		128.581		2.747e-03		13.162
8		0.00		-2.40		1.140e-02		128.136		2.410e-03		10.301
8		0.00		-2.00		1.101e-02		129.135		2.411e-03		11.131
8		0.00		-1.60		1.051e-02		124.516		2.559e-03		16.677
8		0.00		-1.20		1.044e-02		121.729		2.949e-03		19.645
8		0.00		-0.80		1.065e-02		124.691		2.846e-03		11.916
8		0.00		-0.40		1.060e-02		128.572		2.396e-03		8.893
