# Date of analysis: 2023-11-20 16;16
# 
# Loop index	Read Volt (V)	Write Volt (V)	Amplitude (a.u)	Phase (deg)	Sigma Amp (a.u)	Sigma Pha (deg)	
1		0.00		0.00		4.952e-02		-52.356		1.170e-02		8.368
1		0.00		0.40		4.979e-02		-52.298		1.054e-02		6.029
1		0.00		0.80		4.954e-02		-52.575		9.887e-03		4.888
1		0.00		1.20		4.992e-02		-52.429		8.901e-03		5.832
1		0.00		1.60		4.937e-02		-51.864		8.490e-03		5.012
1		0.00		2.00		4.893e-02		-51.747		8.205e-03		5.629
1		0.00		2.40		4.851e-02		-52.178		9.289e-03		6.809
1		0.00		2.80		4.745e-02		-52.278		9.331e-03		8.565
1		0.00		3.20		4.760e-02		-52.701		9.791e-03		7.940
1		0.00		3.60		4.727e-02		-53.003		1.048e-02		9.205
1		0.00		4.00		4.668e-02		-52.773		1.088e-02		10.484
1		0.00		4.40		4.700e-02		-51.262		1.139e-02		9.621
1		0.00		4.80		4.560e-02		-50.753		1.171e-02		10.514
1		0.00		5.20		4.618e-02		-51.231		1.246e-02		11.180
1		0.00		5.60		4.593e-02		-52.401		1.246e-02		10.160
1		0.00		6.00		4.631e-02		-52.664		1.222e-02		9.715
1		0.00		6.40		4.716e-02		-53.812		1.207e-02		7.350
1		0.00		6.80		4.851e-02		-52.214		1.093e-02		6.254
1		0.00		7.20		4.878e-02		-51.068		1.087e-02		6.549
1		0.00		7.60		4.994e-02		-51.573		1.022e-02		6.507
1		0.00		8.00		5.034e-02		-52.002		9.585e-03		6.078
1		0.00		8.40		5.139e-02		-52.042		9.909e-03		7.608
1		0.00		8.80		5.256e-02		-52.842		1.085e-02		9.803
1		0.00		9.20		5.328e-02		-51.128		1.123e-02		9.316
1		0.00		9.60		5.404e-02		-51.655		1.148e-02		8.482
1		0.00		10.00		5.619e-02		-52.699		1.333e-02		10.584
1		0.00		9.60		5.508e-02		-51.493		1.469e-02		12.186
1		0.00		9.20		5.331e-02		-50.895		1.499e-02		13.869
1		0.00		8.80		5.357e-02		-50.858		1.554e-02		8.626
1		0.00		8.40		5.354e-02		-52.286		1.533e-02		11.826
1		0.00		8.00		5.364e-02		-52.700		1.540e-02		10.527
1		0.00		7.60		5.386e-02		-52.882		1.596e-02		10.862
1		0.00		7.20		5.314e-02		-53.160		1.532e-02		8.748
1		0.00		6.80		5.375e-02		-52.619		1.471e-02		7.480
1		0.00		6.40		5.359e-02		-51.392		1.355e-02		5.777
1		0.00		6.00		5.334e-02		-51.354		1.184e-02		5.882
1		0.00		5.60		5.393e-02		-51.569		1.081e-02		5.955
1		0.00		5.20		5.287e-02		-51.273		9.880e-03		5.500
1		0.00		4.80		5.194e-02		-52.154		9.791e-03		6.505
1		0.00		4.40		5.056e-02		-52.000		9.660e-03		7.167
1		0.00		4.00		4.940e-02		-52.733		9.950e-03		7.456
1		0.00		3.60		4.896e-02		-51.625		1.048e-02		7.375
1		0.00		3.20		4.852e-02		-51.455		1.117e-02		7.782
1		0.00		2.80		4.873e-02		-51.872		1.204e-02		7.805
1		0.00		2.40		4.851e-02		-51.276		1.243e-02		7.338
1		0.00		2.00		4.719e-02		-52.318		1.324e-02		11.869
1		0.00		1.60		4.715e-02		-54.179		1.406e-02		13.040
1		0.00		1.20		4.698e-02		-54.253		1.434e-02		10.429
1		0.00		0.80		4.631e-02		-52.837		1.395e-02		7.055
1		0.00		0.40		4.663e-02		-53.181		1.312e-02		5.861
1		0.00		0.00		4.699e-02		-52.968		1.201e-02		5.410
1		0.00		-0.40		4.697e-02		-51.448		1.108e-02		5.167
1		0.00		-0.80		4.507e-02		-52.398		1.017e-02		6.116
1		0.00		-1.20		4.495e-02		-51.461		1.035e-02		7.147
1		0.00		-1.60		4.150e-02		-53.418		1.004e-02		8.131
1		0.00		-2.00		4.077e-02		-52.563		9.497e-03		7.267
1		0.00		-2.40		3.846e-02		-51.413		8.739e-03		7.445
1		0.00		-2.80		3.537e-02		-51.827		9.097e-03		9.729
1		0.00		-3.20		3.209e-02		-50.902		8.287e-03		10.078
1		0.00		-3.60		2.788e-02		-51.131		7.595e-03		13.286
1		0.00		-4.00		2.488e-02		-49.508		7.011e-03		10.267
1		0.00		-4.40		2.022e-02		-49.888		5.952e-03		13.987
1		0.00		-4.80		1.590e-02		-49.990		4.487e-03		10.012
1		0.00		-5.20		1.190e-02		-47.128		3.679e-03		12.172
1		0.00		-5.60		7.279e-03		-47.259		2.581e-03		16.904
1		0.00		-6.00		4.196e-03		-37.904		2.291e-03		39.025
1		0.00		-6.40		2.780e-03		-12.601		1.289e-03		69.326
1		0.00		-6.80		2.865e-03		58.640		1.827e-03		72.624
1		0.00		-7.20		4.915e-03		104.407		2.437e-03		42.215
1		0.00		-7.60		6.657e-03		120.181		2.687e-03		26.123
1		0.00		-8.00		9.628e-03		122.330		3.413e-03		15.084
1		0.00		-8.40		1.176e-02		119.904		3.807e-03		20.757
1		0.00		-8.80		1.225e-02		119.189		4.282e-03		21.541
1		0.00		-9.20		1.469e-02		121.579		4.695e-03		21.032
1		0.00		-9.60		1.623e-02		123.714		5.322e-03		11.778
1		0.00		-10.00		1.813e-02		124.782		5.465e-03		9.535
1		0.00		-9.60		1.806e-02		125.249		4.950e-03		10.074
1		0.00		-9.20		1.898e-02		125.791		4.877e-03		8.355
1		0.00		-8.80		1.806e-02		125.177		4.319e-03		8.520
1		0.00		-8.40		1.798e-02		126.028		4.229e-03		8.241
1		0.00		-8.00		1.713e-02		126.562		4.147e-03		10.044
1		0.00		-7.60		1.601e-02		125.160		4.170e-03		11.234
1		0.00		-7.20		1.540e-02		124.434		4.364e-03		14.935
1		0.00		-6.80		1.482e-02		122.655		4.318e-03		18.973
1		0.00		-6.40		1.379e-02		123.809		3.829e-03		20.534
1		0.00		-6.00		1.282e-02		122.982		4.070e-03		15.821
1		0.00		-5.60		1.139e-02		124.475		3.269e-03		12.762
1		0.00		-5.20		1.094e-02		126.167		3.227e-03		11.133
1		0.00		-4.80		9.754e-03		124.486		2.797e-03		9.698
1		0.00		-4.40		9.144e-03		123.047		2.715e-03		10.587
1		0.00		-4.00		8.948e-03		125.379		2.580e-03		10.354
1		0.00		-3.60		8.157e-03		124.526		2.542e-03		10.467
1		0.00		-3.20		7.717e-03		123.193		2.678e-03		15.289
1		0.00		-2.80		6.868e-03		117.488		2.415e-03		24.583
1		0.00		-2.40		6.836e-03		122.591		2.434e-03		26.742
1		0.00		-2.00		6.086e-03		116.174		2.271e-03		32.864
1		0.00		-1.60		5.951e-03		120.014		2.118e-03		20.619
1		0.00		-1.20		5.088e-03		120.461		1.892e-03		34.855
1		0.00		-0.80		4.523e-03		116.722		1.737e-03		33.060
1		0.00		-0.40		4.049e-03		118.123		1.510e-03		27.479
2		0.00		0.00		4.047e-03		114.111		1.560e-03		43.217
2		0.00		0.40		3.794e-03		107.151		1.682e-03		53.357
2		0.00		0.80		2.976e-03		86.201		1.280e-03		73.356
2		0.00		1.20		2.612e-03		74.240		1.156e-03		74.479
2		0.00		1.60		2.351e-03		59.804		1.026e-03		84.382
2		0.00		2.00		2.027e-03		34.505		9.243e-04		85.804
2		0.00		2.40		1.919e-03		-10.657		8.363e-04		73.259
2		0.00		2.80		2.063e-03		-50.544		7.850e-04		65.249
2		0.00		3.20		2.925e-03		-85.394		1.055e-03		32.455
2		0.00		3.60		3.027e-03		-69.234		1.147e-03		35.113
2		0.00		4.00		4.507e-03		-57.577		1.527e-03		23.997
2		0.00		4.40		5.543e-03		-59.022		1.682e-03		18.614
2		0.00		4.80		6.899e-03		-49.077		2.068e-03		19.631
2		0.00		5.20		8.422e-03		-56.652		2.524e-03		17.044
2		0.00		5.60		1.011e-02		-58.708		2.908e-03		14.968
2		0.00		6.00		1.256e-02		-53.581		3.105e-03		10.880
2		0.00		6.40		1.464e-02		-52.071		3.388e-03		9.965
2		0.00		6.80		1.679e-02		-52.229		3.554e-03		10.188
2		0.00		7.20		1.909e-02		-55.743		4.030e-03		10.725
2		0.00		7.60		2.269e-02		-52.901		5.346e-03		9.834
2		0.00		8.00		2.529e-02		-51.805		6.369e-03		11.549
2		0.00		8.40		2.911e-02		-52.873		7.420e-03		12.488
2		0.00		8.80		3.359e-02		-54.273		9.147e-03		14.170
2		0.00		9.20		3.814e-02		-53.557		9.746e-03		8.070
2		0.00		9.60		4.397e-02		-53.548		1.008e-02		5.832
2		0.00		10.00		4.837e-02		-51.902		1.034e-02		6.049
2		0.00		9.60		4.993e-02		-52.766		1.017e-02		5.638
2		0.00		9.20		4.885e-02		-52.234		1.124e-02		8.358
2		0.00		8.80		4.882e-02		-53.531		1.258e-02		7.550
2		0.00		8.40		4.765e-02		-53.576		1.351e-02		11.660
2		0.00		8.00		4.696e-02		-53.565		1.416e-02		14.095
2		0.00		7.60		4.606e-02		-54.182		1.383e-02		14.914
2		0.00		7.20		4.594e-02		-54.611		1.384e-02		10.059
2		0.00		6.80		4.655e-02		-53.588		1.261e-02		6.267
2		0.00		6.40		4.608e-02		-51.517		1.075e-02		5.420
2		0.00		6.00		4.565e-02		-51.615		9.714e-03		5.641
2		0.00		5.60		4.435e-02		-51.084		9.562e-03		5.842
2		0.00		5.20		4.381e-02		-51.517		1.016e-02		9.135
2		0.00		4.80		4.336e-02		-51.868		1.020e-02		7.041
2		0.00		4.40		4.335e-02		-51.301		1.038e-02		7.567
2		0.00		4.00		4.244e-02		-51.786		1.082e-02		11.658
2		0.00		3.60		4.233e-02		-52.718		1.107e-02		11.498
2		0.00		3.20		4.248e-02		-52.922		1.126e-02		7.775
2		0.00		2.80		4.230e-02		-51.283		1.036e-02		6.418
2		0.00		2.40		4.250e-02		-52.818		9.399e-03		5.394
2		0.00		2.00		4.364e-02		-51.459		8.681e-03		5.219
2		0.00		1.60		4.341e-02		-51.543		8.074e-03		5.646
2		0.00		1.20		4.258e-02		-50.755		8.419e-03		6.213
2		0.00		0.80		4.203e-02		-51.339		8.177e-03		7.023
2		0.00		0.40		4.154e-02		-52.288		9.004e-03		7.208
2		0.00		0.00		4.146e-02		-51.733		9.453e-03		8.444
2		0.00		-0.40		4.082e-02		-50.926		1.012e-02		7.925
2		0.00		-0.80		4.087e-02		-50.835		1.025e-02		9.370
2		0.00		-1.20		3.978e-02		-52.016		1.050e-02		11.228
2		0.00		-1.60		3.828e-02		-53.388		1.034e-02		10.442
2		0.00		-2.00		3.508e-02		-53.422		9.577e-03		10.100
2		0.00		-2.40		3.195e-02		-52.463		8.129e-03		7.105
2		0.00		-2.80		2.981e-02		-52.888		6.676e-03		5.334
2		0.00		-3.20		2.694e-02		-51.414		5.310e-03		7.206
2		0.00		-3.60		2.319e-02		-50.520		4.488e-03		6.904
2		0.00		-4.00		1.872e-02		-50.138		3.466e-03		8.762
2		0.00		-4.40		1.464e-02		-49.271		3.190e-03		11.125
2		0.00		-4.80		1.232e-02		-52.862		2.525e-03		10.823
2		0.00		-5.20		8.264e-03		-51.376		2.286e-03		15.280
2		0.00		-5.60		5.838e-03		-38.698		2.212e-03		19.911
2		0.00		-6.00		3.311e-03		-42.579		1.457e-03		38.388
2		0.00		-6.40		2.226e-03		29.496		1.021e-03		73.282
2		0.00		-6.80		4.140e-03		106.290		1.891e-03		41.514
2		0.00		-7.20		6.956e-03		119.445		2.348e-03		33.312
2		0.00		-7.60		8.512e-03		122.661		2.957e-03		23.054
2		0.00		-8.00		1.144e-02		123.284		3.638e-03		14.056
2		0.00		-8.40		1.206e-02		123.756		3.631e-03		11.452
2		0.00		-8.80		1.365e-02		123.927		4.100e-03		9.637
2		0.00		-9.20		1.478e-02		126.146		4.154e-03		8.055
2		0.00		-9.60		1.600e-02		127.125		4.095e-03		7.783
2		0.00		-10.00		1.706e-02		125.709		4.337e-03		7.893
2		0.00		-9.60		1.633e-02		125.827		4.010e-03		8.278
2		0.00		-9.20		1.710e-02		125.566		3.812e-03		7.601
2		0.00		-8.80		1.661e-02		127.255		3.730e-03		9.637
2		0.00		-8.40		1.641e-02		125.691		3.688e-03		9.182
2		0.00		-8.00		1.571e-02		125.211		3.560e-03		32.870
2		0.00		-7.60		1.535e-02		126.342		3.490e-03		9.820
2		0.00		-7.20		1.464e-02		127.831		3.600e-03		11.840
2		0.00		-6.80		1.415e-02		126.317		3.375e-03		13.971
2		0.00		-6.40		1.338e-02		124.612		3.469e-03		18.443
2		0.00		-6.00		1.303e-02		124.740		3.396e-03		14.102
2		0.00		-5.60		1.206e-02		125.626		3.134e-03		16.962
2		0.00		-5.20		1.109e-02		126.189		3.288e-03		14.943
2		0.00		-4.80		9.730e-03		120.764		3.091e-03		16.562
2		0.00		-4.40		8.946e-03		120.328		2.938e-03		15.365
2		0.00		-4.00		8.635e-03		126.443		2.692e-03		13.061
2		0.00		-3.60		7.877e-03		120.332		2.249e-03		14.647
2		0.00		-3.20		7.366e-03		124.283		2.311e-03		14.153
2		0.00		-2.80		6.887e-03		126.779		2.304e-03		14.055
2		0.00		-2.40		6.412e-03		123.588		1.789e-03		17.464
2		0.00		-2.00		5.988e-03		122.335		1.746e-03		16.145
2		0.00		-1.60		5.201e-03		126.173		1.592e-03		21.767
2		0.00		-1.20		4.689e-03		126.563		1.464e-03		19.690
2		0.00		-0.80		4.521e-03		119.892		1.681e-03		36.311
2		0.00		-0.40		3.711e-03		110.730		1.425e-03		36.702
3		0.00		0.00		3.486e-03		113.301		1.275e-03		39.269
3		0.00		0.40		3.148e-03		91.610		1.249e-03		58.445
3		0.00		0.80		2.896e-03		99.095		1.136e-03		68.038
3		0.00		1.20		2.622e-03		67.257		1.169e-03		77.161
3		0.00		1.60		2.192e-03		43.238		8.909e-04		82.475
3		0.00		2.00		1.939e-03		25.571		7.871e-04		91.876
3		0.00		2.40		1.936e-03		-21.210		7.777e-04		65.211
3		0.00		2.80		1.988e-03		-45.909		7.285e-04		54.289
3		0.00		3.20		2.893e-03		-47.962		1.123e-03		40.733
3		0.00		3.60		3.622e-03		-51.405		1.329e-03		38.447
3		0.00		4.00		4.328e-03		-53.411		1.350e-03		23.926
3		0.00		4.40		5.292e-03		-59.079		1.791e-03		22.418
3		0.00		4.80		6.388e-03		-60.232		1.951e-03		19.303
3		0.00		5.20		7.880e-03		-51.881		2.278e-03		17.703
3		0.00		5.60		9.187e-03		-55.631		2.445e-03		15.880
3		0.00		6.00		1.029e-02		-53.710		2.479e-03		11.229
3		0.00		6.40		1.196e-02		-54.229		2.830e-03		11.578
3		0.00		6.80		1.437e-02		-54.488		2.950e-03		10.368
3		0.00		7.20		1.642e-02		-51.613		3.061e-03		10.400
3		0.00		7.60		1.957e-02		-52.683		3.415e-03		9.632
3		0.00		8.00		2.259e-02		-53.892		3.892e-03		8.448
3		0.00		8.40		2.626e-02		-52.060		4.579e-03		7.141
3		0.00		8.80		3.079e-02		-52.598		5.009e-03		6.589
3		0.00		9.20		3.412e-02		-51.678		5.870e-03		6.345
3		0.00		9.60		3.832e-02		-51.667		6.731e-03		6.607
3		0.00		10.00		4.169e-02		-52.138		7.359e-03		6.513
3		0.00		9.60		4.309e-02		-51.120		7.580e-03		6.202
3		0.00		9.20		4.322e-02		-52.622		8.389e-03		7.440
3		0.00		8.80		4.389e-02		-51.115		9.098e-03		6.374
3		0.00		8.40		4.277e-02		-51.798		9.543e-03		8.030
3		0.00		8.00		4.245e-02		-52.717		9.273e-03		8.286
3		0.00		7.60		4.193e-02		-51.946		9.827e-03		9.836
3		0.00		7.20		4.174e-02		-51.436		1.049e-02		9.315
3		0.00		6.80		4.143e-02		-51.861		1.063e-02		9.107
3		0.00		6.40		4.058e-02		-52.267		1.063e-02		11.968
3		0.00		6.00		3.979e-02		-52.523		1.063e-02		13.180
3		0.00		5.60		4.048e-02		-52.390		1.095e-02		12.879
3		0.00		5.20		4.020e-02		-52.863		1.022e-02		10.107
3		0.00		4.80		4.052e-02		-52.670		9.848e-03		8.588
3		0.00		4.40		3.998e-02		-53.153		9.216e-03		6.526
3		0.00		4.00		4.014e-02		-53.471		8.862e-03		6.237
3		0.00		3.60		4.045e-02		-51.758		8.098e-03		5.201
3		0.00		3.20		3.976e-02		-51.903		7.811e-03		6.395
3		0.00		2.80		4.033e-02		-52.528		7.411e-03		5.742
3		0.00		2.40		3.975e-02		-51.473		6.984e-03		5.554
3		0.00		2.00		3.980e-02		-51.373		6.708e-03		5.925
3		0.00		1.60		3.966e-02		-51.761		7.207e-03		6.190
3		0.00		1.20		3.938e-02		-50.818		7.511e-03		6.790
3		0.00		0.80		3.876e-02		-52.183		7.465e-03		6.840
3		0.00		0.40		3.851e-02		-52.089		7.786e-03		7.059
3		0.00		0.00		3.815e-02		-51.593		8.202e-03		6.932
3		0.00		-0.40		3.791e-02		-50.746		8.112e-03		6.104
3		0.00		-0.80		3.641e-02		-50.682		8.507e-03		7.792
3		0.00		-1.20		3.610e-02		-52.807		8.258e-03		9.106
3		0.00		-1.60		3.571e-02		-51.788		8.613e-03		10.151
3		0.00		-2.00		3.442e-02		-50.757		8.597e-03		9.694
3		0.00		-2.40		3.271e-02		-50.973		7.994e-03		10.487
3		0.00		-2.80		3.023e-02		-50.843		7.117e-03		10.558
3		0.00		-3.20		2.540e-02		-50.961		5.728e-03		10.896
3		0.00		-3.60		2.240e-02		-50.032		5.129e-03		10.566
3		0.00		-4.00		1.829e-02		-49.926		4.443e-03		11.091
3		0.00		-4.40		1.594e-02		-49.285		4.208e-03		12.742
3		0.00		-4.80		1.312e-02		-46.507		3.548e-03		9.725
3		0.00		-5.20		9.547e-03		-47.205		2.674e-03		13.508
3		0.00		-5.60		6.215e-03		-49.034		2.325e-03		13.837
3		0.00		-6.00		4.193e-03		-39.837		2.066e-03		38.602
3		0.00		-6.40		2.164e-03		15.530		1.025e-03		68.773
3		0.00		-6.80		3.452e-03		99.091		1.715e-03		41.339
3		0.00		-7.20		5.472e-03		119.247		2.043e-03		22.600
3		0.00		-7.60		7.877e-03		123.832		2.614e-03		13.988
3		0.00		-8.00		1.007e-02		121.255		3.127e-03		11.742
3		0.00		-8.40		1.151e-02		122.018		3.409e-03		11.477
3		0.00		-8.80		1.313e-02		122.605		3.794e-03		10.918
3		0.00		-9.20		1.487e-02		126.211		4.033e-03		8.837
3		0.00		-9.60		1.557e-02		126.072		3.941e-03		7.816
3		0.00		-10.00		1.651e-02		124.831		4.166e-03		9.800
3		0.00		-9.60		1.719e-02		124.692		3.908e-03		8.437
3		0.00		-9.20		1.729e-02		127.583		3.914e-03		7.558
3		0.00		-8.80		1.702e-02		125.708		3.400e-03		8.124
3		0.00		-8.40		1.709e-02		126.417		3.665e-03		8.519
3		0.00		-8.00		1.635e-02		126.266		3.511e-03		9.135
3		0.00		-7.60		1.623e-02		125.470		3.442e-03		8.645
3		0.00		-7.20		1.484e-02		126.296		3.165e-03		8.412
3		0.00		-6.80		1.424e-02		126.992		3.041e-03		8.994
3		0.00		-6.40		1.356e-02		127.111		2.776e-03		7.624
3		0.00		-6.00		1.270e-02		129.013		3.016e-03		8.335
3		0.00		-5.60		1.207e-02		125.696		2.852e-03		9.871
3		0.00		-5.20		1.090e-02		123.870		2.587e-03		10.898
3		0.00		-4.80		9.995e-03		126.369		2.578e-03		12.890
3		0.00		-4.40		9.300e-03		121.412		2.586e-03		10.795
3		0.00		-4.00		8.988e-03		127.892		2.328e-03		12.521
3		0.00		-3.60		8.679e-03		126.601		2.334e-03		12.339
3		0.00		-3.20		8.121e-03		127.636		2.276e-03		11.979
3		0.00		-2.80		7.563e-03		126.497		2.060e-03		13.403
3		0.00		-2.40		6.968e-03		121.682		2.010e-03		20.938
3		0.00		-2.00		6.558e-03		123.922		1.921e-03		14.235
3		0.00		-1.60		6.203e-03		127.456		1.776e-03		13.816
3		0.00		-1.20		4.958e-03		124.160		1.627e-03		20.572
3		0.00		-0.80		4.808e-03		125.403		1.601e-03		22.163
3		0.00		-0.40		4.567e-03		125.967		1.484e-03		20.426
4		0.00		0.00		4.356e-03		118.517		1.545e-03		30.536
4		0.00		0.40		3.735e-03		105.685		1.443e-03		50.577
4		0.00		0.80		3.097e-03		99.607		1.462e-03		62.856
4		0.00		1.20		2.717e-03		79.346		1.043e-03		66.838
4		0.00		1.60		2.231e-03		67.078		1.137e-03		77.219
4		0.00		2.00		1.906e-03		11.455		7.472e-04		85.816
4		0.00		2.40		1.808e-03		-24.023		7.837e-04		83.685
4		0.00		2.80		2.290e-03		-47.299		9.006e-04		61.104
4		0.00		3.20		2.520e-03		-67.738		1.059e-03		40.973
4		0.00		3.60		3.591e-03		-65.166		1.199e-03		24.942
4		0.00		4.00		4.503e-03		-58.870		1.322e-03		18.929
4		0.00		4.40		5.583e-03		-58.530		1.572e-03		16.772
4		0.00		4.80		6.384e-03		-51.075		1.478e-03		16.595
4		0.00		5.20		7.531e-03		-57.000		1.653e-03		12.147
4		0.00		5.60		8.914e-03		-51.705		1.819e-03		14.344
4		0.00		6.00		1.062e-02		-54.343		2.057e-03		10.979
4		0.00		6.40		1.278e-02		-57.344		2.242e-03		9.524
4		0.00		6.80		1.427e-02		-52.100		2.317e-03		9.769
4		0.00		7.20		1.601e-02		-54.750		2.864e-03		9.572
4		0.00		7.60		1.867e-02		-51.996		3.389e-03		8.317
4		0.00		8.00		2.165e-02		-51.019		3.832e-03		7.009
4		0.00		8.40		2.417e-02		-50.145		4.287e-03		7.157
4		0.00		8.80		2.815e-02		-52.798		5.020e-03		6.403
4		0.00		9.20		3.112e-02		-52.285		6.024e-03		6.346
4		0.00		9.60		3.473e-02		-52.627		7.478e-03		6.417
4		0.00		10.00		3.868e-02		-53.548		8.602e-03		6.128
4		0.00		9.60		4.047e-02		-52.146		9.735e-03		6.553
4		0.00		9.20		4.100e-02		-52.462		1.005e-02		7.358
4		0.00		8.80		4.072e-02		-51.944		1.008e-02		7.667
4		0.00		8.40		4.068e-02		-53.074		1.052e-02		8.417
4		0.00		8.00		4.032e-02		-51.948		1.044e-02		7.554
4		0.00		7.60		3.924e-02		-52.670		1.045e-02		8.992
4		0.00		7.20		3.901e-02		-52.346		1.052e-02		9.182
4		0.00		6.80		3.874e-02		-52.618		9.898e-03		9.397
4		0.00		6.40		3.885e-02		-50.662		8.953e-03		10.271
4		0.00		6.00		3.833e-02		-50.932		8.692e-03		9.947
4		0.00		5.60		3.795e-02		-51.557		8.346e-03		13.102
4		0.00		5.20		3.753e-02		-51.450		7.873e-03		10.625
4		0.00		4.80		3.689e-02		-51.634		7.564e-03		12.413
4		0.00		4.40		3.700e-02		-49.738		6.980e-03		8.139
4		0.00		4.00		3.608e-02		-49.345		6.805e-03		7.498
4		0.00		3.60		3.649e-02		-50.170		6.535e-03		7.042
4		0.00		3.20		3.736e-02		-51.786		6.986e-03		6.993
4		0.00		2.80		3.658e-02		-49.863		6.230e-03		7.085
4		0.00		2.40		3.637e-02		-51.652		6.014e-03		6.172
4		0.00		2.00		3.643e-02		-51.028		6.057e-03		5.436
4		0.00		1.60		3.680e-02		-52.397		5.984e-03		6.300
4		0.00		1.20		3.696e-02		-50.893		5.629e-03		5.208
4		0.00		0.80		3.656e-02		-52.064		5.717e-03		4.859
4		0.00		0.40		3.579e-02		-52.013		5.939e-03		5.958
4		0.00		0.00		3.573e-02		-52.635		6.348e-03		5.791
4		0.00		-0.40		3.590e-02		-52.546		6.826e-03		6.167
4		0.00		-0.80		3.513e-02		-53.599		7.070e-03		7.056
4		0.00		-1.20		3.393e-02		-52.321		7.343e-03		8.194
4		0.00		-1.60		3.276e-02		-51.340		7.407e-03		8.201
4		0.00		-2.00		3.152e-02		-51.046		7.340e-03		8.878
4		0.00		-2.40		2.973e-02		-49.983		7.012e-03		8.437
4		0.00		-2.80		2.709e-02		-50.020		6.349e-03		10.269
4		0.00		-3.20		2.380e-02		-52.092		5.470e-03		12.513
4		0.00		-3.60		2.122e-02		-50.790		4.744e-03		10.007
4		0.00		-4.00		1.865e-02		-49.678		3.841e-03		10.980
4		0.00		-4.40		1.523e-02		-47.400		3.176e-03		10.766
4		0.00		-4.80		1.185e-02		-50.757		2.826e-03		12.871
4		0.00		-5.20		8.697e-03		-52.139		2.400e-03		12.912
4		0.00		-5.60		5.629e-03		-42.619		2.004e-03		21.943
4		0.00		-6.00		3.037e-03		-49.565		1.317e-03		38.331
4		0.00		-6.40		2.330e-03		39.802		1.217e-03		83.033
4		0.00		-6.80		4.170e-03		109.982		1.813e-03		44.596
4		0.00		-7.20		6.289e-03		123.320		2.162e-03		13.642
4		0.00		-7.60		8.153e-03		127.093		2.657e-03		11.908
4		0.00		-8.00		9.781e-03		126.364		2.768e-03		10.303
4		0.00		-8.40		1.200e-02		125.342		3.006e-03		9.336
4		0.00		-8.80		1.335e-02		125.194		3.639e-03		13.642
4		0.00		-9.20		1.465e-02		125.954		3.907e-03		13.759
4		0.00		-9.60		1.566e-02		124.335		4.054e-03		15.539
4		0.00		-10.00		1.652e-02		123.326		4.196e-03		16.395
4		0.00		-9.60		1.702e-02		126.804		4.207e-03		13.547
4		0.00		-9.20		1.659e-02		126.722		3.931e-03		13.786
4		0.00		-8.80		1.679e-02		127.259		3.698e-03		10.955
4		0.00		-8.40		1.676e-02		127.676		3.500e-03		9.030
4		0.00		-8.00		1.675e-02		128.283		3.318e-03		9.687
4		0.00		-7.60		1.646e-02		127.181		3.315e-03		7.540
4		0.00		-7.20		1.552e-02		126.091		3.011e-03		8.980
4		0.00		-6.80		1.529e-02		127.031		2.795e-03		8.585
4		0.00		-6.40		1.438e-02		127.219		3.038e-03		8.891
4		0.00		-6.00		1.341e-02		128.011		3.072e-03		9.423
4		0.00		-5.60		1.298e-02		123.645		3.136e-03		9.376
4		0.00		-5.20		1.189e-02		125.345		3.244e-03		10.821
4		0.00		-4.80		1.097e-02		125.699		3.068e-03		14.456
4		0.00		-4.40		1.055e-02		125.107		2.753e-03		13.892
4		0.00		-4.00		9.881e-03		125.398		2.728e-03		17.319
4		0.00		-3.60		9.082e-03		124.721		2.450e-03		16.676
4		0.00		-3.20		8.143e-03		127.447		2.306e-03		20.087
4		0.00		-2.80		7.953e-03		127.928		2.156e-03		16.284
4		0.00		-2.40		7.311e-03		127.033		2.126e-03		17.928
4		0.00		-2.00		6.648e-03		124.041		1.756e-03		18.767
4		0.00		-1.60		6.461e-03		122.267		1.697e-03		15.441
4		0.00		-1.20		6.268e-03		124.294		1.578e-03		14.535
4		0.00		-0.80		5.734e-03		122.535		1.719e-03		14.868
4		0.00		-0.40		5.125e-03		123.302		1.619e-03		18.976
5		0.00		0.00		4.410e-03		123.315		1.639e-03		21.848
5		0.00		0.40		4.051e-03		121.505		1.365e-03		33.260
5		0.00		0.80		3.833e-03		109.144		1.240e-03		58.310
5		0.00		1.20		3.104e-03		106.622		1.485e-03		45.422
5		0.00		1.60		2.762e-03		92.972		1.277e-03		63.038
5		0.00		2.00		2.633e-03		59.097		1.166e-03		90.607
5		0.00		2.40		2.010e-03		28.472		8.758e-04		84.942
5		0.00		2.80		1.895e-03		-15.699		7.370e-04		84.001
5		0.00		3.20		2.015e-03		-31.907		9.038e-04		69.627
5		0.00		3.60		2.482e-03		-66.777		1.065e-03		49.352
5		0.00		4.00		3.381e-03		-41.920		1.255e-03		31.799
5		0.00		4.40		3.884e-03		-51.340		1.278e-03		26.099
5		0.00		4.80		5.350e-03		-54.728		1.401e-03		19.359
5		0.00		5.20		6.520e-03		-47.761		1.457e-03		16.605
5		0.00		5.60		7.912e-03		-52.493		1.748e-03		15.189
5		0.00		6.00		9.490e-03		-50.359		1.861e-03		12.412
5		0.00		6.40		1.102e-02		-55.341		2.142e-03		10.037
5		0.00		6.80		1.393e-02		-53.811		3.303e-03		12.088
5		0.00		7.20		1.557e-02		-51.183		3.716e-03		8.935
5		0.00		7.60		1.773e-02		-53.776		4.408e-03		9.300
5		0.00		8.00		1.936e-02		-50.816		5.019e-03		11.825
5		0.00		8.40		2.248e-02		-51.364		5.765e-03		10.012
5		0.00		8.80		2.545e-02		-50.128		5.724e-03		9.254
5		0.00		9.20		2.840e-02		-52.020		5.993e-03		8.487
5		0.00		9.60		3.206e-02		-51.870		5.973e-03		8.641
5		0.00		10.00		3.601e-02		-52.120		6.646e-03		7.118
5		0.00		9.60		3.925e-02		-51.449		6.605e-03		6.165
5		0.00		9.20		3.991e-02		-51.405		6.684e-03		6.247
5		0.00		8.80		4.029e-02		-51.295		7.090e-03		5.305
5		0.00		8.40		3.960e-02		-52.931		8.162e-03		7.190
5		0.00		8.00		3.882e-02		-52.413		8.899e-03		8.020
5		0.00		7.60		3.827e-02		-50.814		8.981e-03		9.420
5		0.00		7.20		3.848e-02		-51.175		8.264e-03		11.078
5		0.00		6.80		3.790e-02		-50.711		8.315e-03		9.926
5		0.00		6.40		3.764e-02		-51.369		7.109e-03		6.647
5		0.00		6.00		3.803e-02		-50.275		7.122e-03		6.835
5		0.00		5.60		3.747e-02		-52.285		6.434e-03		6.490
5		0.00		5.20		3.746e-02		-51.699		6.187e-03		6.276
5		0.00		4.80		3.692e-02		-51.278		6.512e-03		6.111
5		0.00		4.40		3.577e-02		-51.897		6.822e-03		5.981
5		0.00		4.00		3.485e-02		-53.566		7.802e-03		7.386
5		0.00		3.60		3.431e-02		-52.304		8.624e-03		9.335
5		0.00		3.20		3.351e-02		-51.574		8.822e-03		9.993
5		0.00		2.80		3.309e-02		-51.998		8.605e-03		13.118
5		0.00		2.40		3.371e-02		-49.991		7.356e-03		8.909
5		0.00		2.00		3.358e-02		-50.523		6.579e-03		8.385
5		0.00		1.60		3.420e-02		-50.348		5.909e-03		6.298
5		0.00		1.20		3.496e-02		-51.148		5.682e-03		6.308
5		0.00		0.80		3.491e-02		-50.971		5.243e-03		6.522
5		0.00		0.40		3.521e-02		-52.158		5.407e-03		6.194
5		0.00		0.00		3.461e-02		-51.565		5.504e-03		5.874
5		0.00		-0.40		3.444e-02		-52.829		6.189e-03		6.426
5		0.00		-0.80		3.361e-02		-51.043		7.322e-03		7.919
5		0.00		-1.20		3.281e-02		-51.810		7.922e-03		9.046
5		0.00		-1.60		3.169e-02		-52.180		7.775e-03		10.873
5		0.00		-2.00		3.091e-02		-50.582		6.724e-03		9.795
5		0.00		-2.40		2.959e-02		-50.774		5.763e-03		7.736
5		0.00		-2.80		2.845e-02		-51.651		4.600e-03		6.554
5		0.00		-3.20		2.647e-02		-52.668		4.145e-03		7.300
5		0.00		-3.60		2.316e-02		-52.425		3.433e-03		6.239
5		0.00		-4.00		1.901e-02		-51.622		3.268e-03		8.857
5		0.00		-4.40		1.554e-02		-49.064		3.503e-03		9.025
5		0.00		-4.80		1.226e-02		-48.590		3.141e-03		12.732
5		0.00		-5.20		7.946e-03		-45.839		2.209e-03		13.499
5		0.00		-5.60		5.351e-03		-46.400		1.954e-03		26.467
5		0.00		-6.00		3.270e-03		-39.566		1.540e-03		48.313
5		0.00		-6.40		2.208e-03		-12.378		9.276e-04		82.643
5		0.00		-6.80		4.176e-03		112.070		1.706e-03		39.749
5		0.00		-7.20		6.875e-03		123.303		2.176e-03		14.980
5		0.00		-7.60		9.029e-03		128.561		2.199e-03		12.195
5		0.00		-8.00		1.027e-02		126.846		2.917e-03		9.399
5		0.00		-8.40		1.188e-02		125.670		3.514e-03		10.489
5		0.00		-8.80		1.383e-02		122.144		4.236e-03		17.892
5		0.00		-9.20		1.438e-02		121.733		3.929e-03		18.614
5		0.00		-9.60		1.555e-02		126.301		4.039e-03		11.860
5		0.00		-10.00		1.767e-02		127.106		3.886e-03		9.617
5		0.00		-9.60		1.786e-02		126.656		3.751e-03		9.183
5		0.00		-9.20		1.782e-02		128.422		3.613e-03		8.123
5		0.00		-8.80		1.708e-02		123.937		3.784e-03		7.483
5		0.00		-8.40		1.682e-02		125.860		4.031e-03		9.010
5		0.00		-8.00		1.629e-02		125.707		4.080e-03		9.687
5		0.00		-7.60		1.551e-02		126.696		4.045e-03		11.372
5		0.00		-7.20		1.519e-02		127.412		3.786e-03		15.182
5		0.00		-6.80		1.476e-02		128.275		3.468e-03		8.860
5		0.00		-6.40		1.406e-02		131.243		2.934e-03		8.660
5		0.00		-6.00		1.340e-02		127.333		2.648e-03		8.701
5		0.00		-5.60		1.287e-02		128.750		2.502e-03		9.846
5		0.00		-5.20		1.254e-02		129.181		2.525e-03		7.867
5		0.00		-4.80		1.172e-02		125.875		2.655e-03		9.207
5		0.00		-4.40		1.083e-02		126.369		2.856e-03		10.906
5		0.00		-4.00		1.036e-02		122.008		2.748e-03		14.719
5		0.00		-3.60		9.074e-03		125.420		2.791e-03		16.918
5		0.00		-3.20		8.768e-03		124.373		2.442e-03		12.937
5		0.00		-2.80		8.510e-03		127.631		2.081e-03		13.739
5		0.00		-2.40		8.397e-03		128.814		1.906e-03		10.952
5		0.00		-2.00		7.694e-03		130.809		1.958e-03		13.702
5		0.00		-1.60		7.292e-03		126.159		1.858e-03		11.157
5		0.00		-1.20		6.857e-03		124.094		2.006e-03		13.402
5		0.00		-0.80		6.401e-03		128.239		1.846e-03		17.135
5		0.00		-0.40		5.575e-03		122.731		1.829e-03		25.095
6		0.00		0.00		5.407e-03		123.346		1.768e-03		26.111
6		0.00		0.40		5.342e-03		128.203		1.759e-03		16.013
6		0.00		0.80		4.342e-03		123.589		1.332e-03		33.485
6		0.00		1.20		4.408e-03		120.288		1.408e-03		33.186
6		0.00		1.60		3.441e-03		105.392		1.363e-03		53.244
6		0.00		2.00		2.774e-03		100.227		1.093e-03		62.552
6		0.00		2.40		2.247e-03		58.798		1.016e-03		80.557
6		0.00		2.80		1.846e-03		22.921		7.533e-04		83.364
6		0.00		3.20		1.861e-03		-17.202		7.647e-04		72.270
6		0.00		3.60		2.112e-03		-53.689		8.123e-04		54.756
6		0.00		4.00		3.096e-03		-56.707		1.200e-03		36.358
6		0.00		4.40		3.822e-03		-57.679		1.248e-03		21.026
6		0.00		4.80		5.348e-03		-61.524		1.466e-03		18.198
6		0.00		5.20		7.126e-03		-59.288		1.761e-03		14.255
6		0.00		5.60		8.383e-03		-51.264		1.709e-03		12.454
6		0.00		6.00		9.970e-03		-54.539		2.304e-03		11.339
6		0.00		6.40		1.188e-02		-50.847		2.914e-03		11.885
6		0.00		6.80		1.271e-02		-51.223		3.173e-03		12.329
6		0.00		7.20		1.501e-02		-51.603		3.534e-03		14.252
6		0.00		7.60		1.724e-02		-53.777		3.448e-03		10.435
6		0.00		8.00		1.994e-02		-52.513		3.378e-03		8.990
6		0.00		8.40		2.347e-02		-51.549		3.941e-03		7.464
6		0.00		8.80		2.637e-02		-50.810		4.334e-03		7.169
6		0.00		9.20		2.906e-02		-52.693		5.178e-03		6.669
6		0.00		9.60		3.165e-02		-51.067		7.313e-03		7.692
6		0.00		10.00		3.394e-02		-52.903		9.203e-03		7.845
6		0.00		9.60		3.583e-02		-53.123		9.852e-03		12.053
6		0.00		9.20		3.751e-02		-51.563		9.377e-03		10.398
6		0.00		8.80		3.671e-02		-50.363		8.195e-03		8.921
6		0.00		8.40		3.758e-02		-50.698		7.629e-03		7.557
6		0.00		8.00		3.741e-02		-50.712		7.067e-03		5.412
6		0.00		7.60		3.774e-02		-52.323		7.004e-03		5.861
6		0.00		7.20		3.677e-02		-51.861		7.028e-03		5.560
6		0.00		6.80		3.614e-02		-52.244		7.680e-03		5.334
6		0.00		6.40		3.553e-02		-52.278		8.645e-03		7.150
6		0.00		6.00		3.534e-02		-50.859		8.622e-03		9.133
6		0.00		5.60		3.501e-02		-51.791		8.486e-03		11.828
6		0.00		5.20		3.449e-02		-51.286		7.563e-03		10.260
6		0.00		4.80		3.480e-02		-51.183		6.720e-03		9.274
6		0.00		4.40		3.479e-02		-51.685		6.394e-03		7.633
6		0.00		4.00		3.455e-02		-52.335		5.836e-03		6.189
6		0.00		3.60		3.427e-02		-50.412		5.528e-03		5.868
6		0.00		3.20		3.364e-02		-50.949		6.382e-03		6.429
6		0.00		2.80		3.303e-02		-51.998		7.150e-03		5.692
6		0.00		2.40		3.240e-02		-52.838		8.530e-03		7.645
6		0.00		2.00		3.172e-02		-51.497		8.830e-03		12.034
6		0.00		1.60		3.154e-02		-50.993		8.397e-03		14.035
6		0.00		1.20		3.113e-02		-51.789		8.069e-03		11.033
6		0.00		0.80		3.128e-02		-51.065		7.087e-03		10.098
6		0.00		0.40		3.222e-02		-51.667		6.658e-03		8.470
6		0.00		0.00		3.178e-02		-50.951		6.457e-03		6.978
6		0.00		-0.40		3.204e-02		-51.990		5.750e-03		6.962
6		0.00		-0.80		3.213e-02		-51.969		5.504e-03		5.747
6		0.00		-1.20		3.047e-02		-53.069		5.680e-03		5.725
6		0.00		-1.60		3.000e-02		-51.701		6.098e-03		6.851
6		0.00		-2.00		2.810e-02		-53.068		6.567e-03		8.707
6		0.00		-2.40		2.585e-02		-53.448		6.404e-03		10.675
6		0.00		-2.80		2.433e-02		-51.752		5.855e-03		12.355
6		0.00		-3.20		2.203e-02		-50.563		5.066e-03		9.958
6		0.00		-3.60		1.904e-02		-48.598		4.066e-03		9.394
6		0.00		-4.00		1.602e-02		-48.743		3.242e-03		10.686
6		0.00		-4.40		1.347e-02		-50.259		2.911e-03		8.726
6		0.00		-4.80		9.280e-03		-50.273		2.351e-03		14.398
6		0.00		-5.20		6.100e-03		-36.008		2.019e-03		19.342
6		0.00		-5.60		3.079e-03		-47.500		1.392e-03		52.788
6		0.00		-6.00		2.209e-03		19.655		1.094e-03		77.110
6		0.00		-6.40		3.225e-03		93.625		1.643e-03		55.734
6		0.00		-6.80		5.789e-03		121.319		2.346e-03		20.484
6		0.00		-7.20		7.800e-03		119.159		2.729e-03		25.068
6		0.00		-7.60		9.132e-03		122.640		2.981e-03		21.593
6		0.00		-8.00		1.078e-02		128.078		3.068e-03		13.900
6		0.00		-8.40		1.202e-02		122.200		3.248e-03		14.636
6		0.00		-8.80		1.315e-02		127.549		3.138e-03		10.564
6		0.00		-9.20		1.493e-02		129.782		3.159e-03		9.065
6		0.00		-9.60		1.650e-02		129.221		3.403e-03		7.204
6		0.00		-10.00		1.813e-02		128.946		3.135e-03		7.275
6		0.00		-9.60		1.851e-02		130.131		3.525e-03		7.556
6		0.00		-9.20		1.867e-02		126.181		3.490e-03		7.311
6		0.00		-8.80		1.801e-02		127.755		3.522e-03		7.144
6		0.00		-8.40		1.787e-02		127.361		3.939e-03		8.162
6		0.00		-8.00		1.670e-02		125.455		4.375e-03		8.137
6		0.00		-7.60		1.635e-02		125.256		4.528e-03		10.643
6		0.00		-7.20		1.492e-02		125.241		4.486e-03		11.604
6		0.00		-6.80		1.412e-02		124.754		4.179e-03		11.310
6		0.00		-6.40		1.341e-02		126.952		4.062e-03		18.306
6		0.00		-6.00		1.265e-02		126.208		3.850e-03		20.854
6		0.00		-5.60		1.206e-02		126.382		3.412e-03		13.598
6		0.00		-5.20		1.148e-02		125.020		3.239e-03		14.616
6		0.00		-4.80		1.072e-02		125.084		2.847e-03		12.463
6		0.00		-4.40		1.017e-02		125.502		2.491e-03		11.430
6		0.00		-4.00		1.026e-02		126.741		2.124e-03		9.125
6		0.00		-3.60		9.444e-03		128.917		2.210e-03		11.786
6		0.00		-3.20		8.894e-03		127.423		2.123e-03		13.558
6		0.00		-2.80		8.441e-03		130.699		2.042e-03		10.799
6		0.00		-2.40		7.992e-03		125.961		2.051e-03		11.301
6		0.00		-2.00		7.188e-03		129.433		2.008e-03		12.048
6		0.00		-1.60		6.759e-03		128.131		1.925e-03		11.467
6		0.00		-1.20		6.421e-03		122.543		1.800e-03		16.770
6		0.00		-0.80		6.148e-03		123.273		2.178e-03		26.018
6		0.00		-0.40		5.606e-03		120.693		1.814e-03		25.250
7		0.00		0.00		4.898e-03		115.661		1.934e-03		44.150
7		0.00		0.40		4.309e-03		114.116		1.563e-03		36.600
7		0.00		0.80		3.870e-03		108.261		1.549e-03		44.563
7		0.00		1.20		3.667e-03		109.413		1.334e-03		53.778
7		0.00		1.60		3.296e-03		105.690		1.352e-03		56.255
7		0.00		2.00		2.379e-03		79.894		9.768e-04		70.798
7		0.00		2.40		2.226e-03		59.112		1.034e-03		68.989
7		0.00		2.80		1.698e-03		-15.345		5.970e-04		91.369
7		0.00		3.20		1.888e-03		-36.143		7.889e-04		70.856
7		0.00		3.60		2.200e-03		-53.720		8.390e-04		66.128
7		0.00		4.00		2.754e-03		-46.827		1.073e-03		33.177
7		0.00		4.40		4.060e-03		-53.113		1.046e-03		23.478
7		0.00		4.80		5.393e-03		-46.304		1.107e-03		18.468
7		0.00		5.20		6.543e-03		-51.806		1.520e-03		16.493
7		0.00		5.60		6.746e-03		-50.202		1.414e-03		15.034
7		0.00		6.00		8.139e-03		-54.022		2.126e-03		12.115
7		0.00		6.40		9.814e-03		-55.778		2.147e-03		10.774
7		0.00		6.80		1.163e-02		-52.275		2.700e-03		9.639
7		0.00		7.20		1.339e-02		-51.448		3.179e-03		11.718
7		0.00		7.60		1.522e-02		-51.583		3.976e-03		9.158
7		0.00		8.00		1.718e-02		-52.384		4.701e-03		11.082
7		0.00		8.40		1.969e-02		-51.869		5.165e-03		9.004
7		0.00		8.80		2.229e-02		-53.191		6.495e-03		10.505
7		0.00		9.20		2.649e-02		-51.518		7.084e-03		12.189
7		0.00		9.60		2.903e-02		-52.524		8.058e-03		12.292
7		0.00		10.00		3.220e-02		-52.684		8.218e-03		11.903
7		0.00		9.60		3.347e-02		-50.453		8.062e-03		10.213
7		0.00		9.20		3.503e-02		-51.098		7.869e-03		8.574
7		0.00		8.80		3.539e-02		-50.302		7.468e-03		7.861
7		0.00		8.40		3.542e-02		-51.360		7.246e-03		8.783
7		0.00		8.00		3.536e-02		-50.249		6.885e-03		7.534
7		0.00		7.60		3.533e-02		-49.305		6.490e-03		6.501
7		0.00		7.20		3.498e-02		-51.330		6.285e-03		7.766
7		0.00		6.80		3.479e-02		-51.173		5.719e-03		6.835
7		0.00		6.40		3.460e-02		-50.326		5.564e-03		6.236
7		0.00		6.00		3.431e-02		-51.253		5.697e-03		6.565
7		0.00		5.60		3.362e-02		-50.786		5.494e-03		5.780
7		0.00		5.20		3.266e-02		-51.842		5.536e-03		6.571
7		0.00		4.80		3.255e-02		-51.853		5.585e-03		5.451
7		0.00		4.40		3.241e-02		-51.204		5.522e-03		5.269
7		0.00		4.00		3.170e-02		-51.853		5.895e-03		6.643
7		0.00		3.60		3.117e-02		-52.584		6.446e-03		6.374
7		0.00		3.20		3.139e-02		-50.590		6.578e-03		7.459
7		0.00		2.80		3.051e-02		-53.088		6.951e-03		8.964
7		0.00		2.40		3.062e-02		-51.762		6.955e-03		9.097
7		0.00		2.00		3.027e-02		-50.214		7.040e-03		8.709
7		0.00		1.60		3.035e-02		-52.057		7.092e-03		10.749
7		0.00		1.20		3.037e-02		-51.657		7.131e-03		9.905
7		0.00		0.80		2.998e-02		-50.034		6.877e-03		11.715
7		0.00		0.40		3.008e-02		-49.466		7.210e-03		11.091
7		0.00		0.00		3.009e-02		-49.601		6.806e-03		10.270
7		0.00		-0.40		3.004e-02		-51.451		6.692e-03		8.889
7		0.00		-0.80		2.961e-02		-50.411		6.102e-03		7.113
7		0.00		-1.20		2.923e-02		-51.861		6.156e-03		8.322
7		0.00		-1.60		2.869e-02		-49.192		6.200e-03		7.446
7		0.00		-2.00		2.805e-02		-49.913		5.874e-03		8.134
7		0.00		-2.40		2.545e-02		-49.451		5.070e-03		8.092
7		0.00		-2.80		2.362e-02		-51.955		4.683e-03		8.668
7		0.00		-3.20		2.136e-02		-50.750		3.957e-03		8.069
7		0.00		-3.60		1.991e-02		-50.516		3.586e-03		7.476
7		0.00		-4.00		1.712e-02		-49.864		2.951e-03		9.204
7		0.00		-4.40		1.310e-02		-54.238		2.364e-03		8.548
7		0.00		-4.80		9.453e-03		-52.420		2.295e-03		13.986
7		0.00		-5.20		6.195e-03		-51.168		1.673e-03		16.852
7		0.00		-5.60		3.037e-03		-40.074		1.211e-03		43.600
7		0.00		-6.00		1.875e-03		23.321		8.844e-04		74.038
7		0.00		-6.40		3.754e-03		109.781		1.714e-03		31.705
7		0.00		-6.80		5.464e-03		125.505		2.127e-03		15.400
7		0.00		-7.20		8.728e-03		130.406		2.614e-03		12.662
7		0.00		-7.60		1.003e-02		125.673		3.087e-03		16.826
7		0.00		-8.00		1.164e-02		123.718		3.183e-03		12.732
7		0.00		-8.40		1.362e-02		123.386		3.624e-03		15.725
7		0.00		-8.80		1.536e-02		123.045		4.300e-03		18.531
7		0.00		-9.20		1.562e-02		126.326		4.407e-03		17.200
7		0.00		-9.60		1.659e-02		127.339		4.578e-03		17.530
7		0.00		-10.00		1.730e-02		126.236		4.696e-03		15.696
7		0.00		-9.60		1.743e-02		126.166		4.516e-03		14.684
7		0.00		-9.20		1.741e-02		126.418		4.568e-03		14.173
7		0.00		-8.80		1.845e-02		126.543		4.564e-03		9.876
7		0.00		-8.40		1.809e-02		126.735		4.309e-03		8.471
7		0.00		-8.00		1.706e-02		127.081		3.689e-03		6.838
7		0.00		-7.60		1.731e-02		128.098		3.524e-03		8.653
7		0.00		-7.20		1.622e-02		127.742		3.400e-03		9.328
7		0.00		-6.80		1.629e-02		127.837		3.035e-03		7.489
7		0.00		-6.40		1.552e-02		127.233		3.265e-03		9.927
7		0.00		-6.00		1.507e-02		128.424		3.004e-03		7.621
7		0.00		-5.60		1.402e-02		128.412		2.742e-03		8.498
7		0.00		-5.20		1.332e-02		128.506		2.936e-03		8.104
7		0.00		-4.80		1.301e-02		127.031		2.846e-03		10.031
7		0.00		-4.40		1.209e-02		128.496		2.997e-03		10.263
7		0.00		-4.00		1.103e-02		128.158		3.081e-03		10.588
7		0.00		-3.60		1.062e-02		126.262		2.995e-03		12.043
7		0.00		-3.20		9.509e-03		124.490		2.818e-03		20.115
7		0.00		-2.80		9.280e-03		122.115		2.756e-03		18.895
7		0.00		-2.40		8.527e-03		128.529		2.628e-03		18.049
7		0.00		-2.00		8.151e-03		123.476		2.458e-03		21.091
7		0.00		-1.60		7.673e-03		125.172		2.179e-03		11.479
7		0.00		-1.20		7.435e-03		127.509		2.168e-03		14.884
7		0.00		-0.80		6.456e-03		127.026		1.875e-03		13.384
7		0.00		-0.40		6.548e-03		130.968		1.762e-03		17.673
8		0.00		0.00		6.350e-03		128.582		1.710e-03		29.217
8		0.00		0.40		5.759e-03		127.864		1.555e-03		16.243
8		0.00		0.80		5.188e-03		123.936		1.881e-03		29.207
8		0.00		1.20		4.414e-03		115.216		1.613e-03		41.025
8		0.00		1.60		4.037e-03		117.204		1.528e-03		34.701
8		0.00		2.00		3.249e-03		98.506		1.248e-03		54.291
8		0.00		2.40		2.441e-03		74.425		1.162e-03		80.598
8		0.00		2.80		2.220e-03		45.650		1.019e-03		90.222
8		0.00		3.20		1.740e-03		8.743		7.125e-04		89.852
8		0.00		3.60		1.947e-03		-35.634		8.589e-04		72.092
8		0.00		4.00		2.482e-03		-54.945		1.060e-03		45.690
8		0.00		4.40		3.205e-03		-60.421		1.268e-03		30.083
8		0.00		4.80		3.902e-03		-56.865		1.274e-03		24.970
8		0.00		5.20		5.257e-03		-58.474		1.634e-03		24.688
8		0.00		5.60		6.433e-03		-52.220		2.036e-03		17.254
8		0.00		6.00		8.129e-03		-51.746		2.062e-03		16.083
8		0.00		6.40		9.551e-03		-53.516		2.300e-03		13.825
8		0.00		6.80		1.089e-02		-54.321		2.181e-03		12.069
8		0.00		7.20		1.236e-02		-51.292		2.620e-03		11.251
8		0.00		7.60		1.470e-02		-53.496		2.486e-03		10.230
8		0.00		8.00		1.786e-02		-51.617		3.080e-03		9.137
8		0.00		8.40		2.017e-02		-50.123		3.148e-03		7.730
8		0.00		8.80		2.202e-02		-52.028		3.628e-03		7.546
8		0.00		9.20		2.607e-02		-51.963		4.583e-03		7.950
8		0.00		9.60		2.974e-02		-51.253		5.453e-03		6.460
8		0.00		10.00		3.263e-02		-51.968		6.272e-03		5.468
8		0.00		9.60		3.405e-02		-52.806		6.771e-03		5.926
8		0.00		9.20		3.443e-02		-52.788		7.484e-03		6.284
8		0.00		8.80		3.393e-02		-52.395		8.475e-03		7.580
8		0.00		8.40		3.318e-02		-53.011		8.856e-03		7.490
8		0.00		8.00		3.279e-02		-53.209		8.863e-03		6.951
8		0.00		7.60		3.275e-02		-52.541		9.137e-03		9.802
8		0.00		7.20		3.225e-02		-51.703		9.170e-03		9.133
8		0.00		6.80		3.206e-02		-51.771		9.093e-03		11.330
8		0.00		6.40		3.141e-02		-52.561		8.609e-03		11.197
8		0.00		6.00		3.094e-02		-51.965		8.830e-03		11.495
8		0.00		5.60		3.060e-02		-53.032		8.491e-03		14.972
8		0.00		5.20		3.047e-02		-52.247		7.814e-03		12.375
8		0.00		4.80		3.048e-02		-51.523		7.018e-03		11.617
8		0.00		4.40		3.026e-02		-49.517		6.844e-03		9.114
8		0.00		4.00		2.974e-02		-50.278		6.462e-03		8.781
8		0.00		3.60		2.986e-02		-49.610		6.155e-03		7.427
8		0.00		3.20		2.979e-02		-49.866		6.071e-03		7.623
8		0.00		2.80		3.005e-02		-49.316		5.727e-03		7.849
8		0.00		2.40		3.041e-02		-51.382		5.737e-03		7.826
8		0.00		2.00		2.998e-02		-50.825		5.663e-03		7.302
8		0.00		1.60		2.993e-02		-50.399		5.383e-03		7.818
8		0.00		1.20		2.997e-02		-50.286		5.560e-03		7.390
8		0.00		0.80		3.005e-02		-50.314		5.639e-03		7.406
8		0.00		0.40		2.965e-02		-50.950		5.059e-03		7.840
8		0.00		0.00		2.942e-02		-49.813		5.264e-03		6.728
8		0.00		-0.40		2.938e-02		-50.733		4.979e-03		6.402
8		0.00		-0.80		2.846e-02		-51.011		4.916e-03		7.151
8		0.00		-1.20		2.861e-02		-54.066		4.717e-03		7.269
8		0.00		-1.60		2.807e-02		-50.883		4.617e-03		6.662
8		0.00		-2.00		2.771e-02		-51.701		4.704e-03		7.166
8		0.00		-2.40		2.606e-02		-51.172		4.557e-03		6.593
8		0.00		-2.80		2.480e-02		-52.932		4.247e-03		7.053
8		0.00		-3.20		2.222e-02		-52.385		3.631e-03		6.990
8		0.00		-3.60		2.002e-02		-52.222		3.638e-03		8.091
8		0.00		-4.00		1.798e-02		-51.078		3.310e-03		8.024
8		0.00		-4.40		1.511e-02		-50.023		3.429e-03		10.589
8		0.00		-4.80		1.194e-02		-54.072		2.849e-03		10.460
8		0.00		-5.20		8.748e-03		-51.260		2.412e-03		11.625
8		0.00		-5.60		4.828e-03		-47.953		1.922e-03		24.103
8		0.00		-6.00		2.586e-03		-20.234		1.222e-03		62.734
8		0.00		-6.40		2.612e-03		58.916		1.226e-03		80.300
8		0.00		-6.80		4.177e-03		110.267		1.814e-03		33.270
8		0.00		-7.20		7.524e-03		123.198		2.362e-03		16.619
8		0.00		-7.60		8.962e-03		124.261		3.083e-03		20.824
8		0.00		-8.00		1.074e-02		122.660		3.567e-03		18.494
8		0.00		-8.40		1.180e-02		123.115		3.865e-03		18.421
8		0.00		-8.80		1.311e-02		125.275		3.948e-03		23.556
8		0.00		-9.20		1.411e-02		126.937		4.388e-03		19.028
8		0.00		-9.60		1.523e-02		125.155		4.475e-03		17.338
8		0.00		-10.00		1.574e-02		127.831		4.319e-03		14.179
8		0.00		-9.60		1.725e-02		128.702		4.129e-03		9.358
8		0.00		-9.20		1.679e-02		126.746		3.814e-03		7.778
8		0.00		-8.80		1.749e-02		128.212		3.652e-03		8.333
8		0.00		-8.40		1.709e-02		126.787		3.742e-03		7.655
8		0.00		-8.00		1.700e-02		128.726		3.379e-03		7.986
8		0.00		-7.60		1.686e-02		125.818		3.153e-03		8.809
8		0.00		-7.20		1.542e-02		126.736		3.295e-03		8.261
8		0.00		-6.80		1.561e-02		127.406		3.127e-03		9.167
8		0.00		-6.40		1.477e-02		125.767		3.185e-03		8.184
8		0.00		-6.00		1.399e-02		127.738		3.140e-03		8.706
8		0.00		-5.60		1.273e-02		126.774		3.213e-03		9.190
8		0.00		-5.20		1.221e-02		124.838		3.210e-03		11.066
8		0.00		-4.80		1.168e-02		128.594		3.261e-03		8.334
8		0.00		-4.40		1.063e-02		127.941		3.188e-03		14.052
8		0.00		-4.00		1.007e-02		124.902		3.003e-03		15.018
8		0.00		-3.60		9.981e-03		124.905		3.064e-03		17.397
8		0.00		-3.20		9.128e-03		119.295		2.799e-03		20.067
8		0.00		-2.80		8.627e-03		121.654		2.489e-03		17.486
8		0.00		-2.40		7.969e-03		126.628		2.256e-03		18.119
8		0.00		-2.00		7.787e-03		126.123		2.327e-03		14.437
8		0.00		-1.60		7.225e-03		125.116		1.935e-03		17.421
8		0.00		-1.20		7.293e-03		127.304		1.854e-03		13.204
8		0.00		-0.80		6.925e-03		127.316		1.861e-03		13.390
8		0.00		-0.40		6.212e-03		130.025		1.496e-03		12.524
