# Date of analysis: 2023-11-20 16;16
# 
# Loop index	Read Volt (V)	Write Volt (V)	Amplitude (a.u)	Phase (deg)	Sigma Amp (a.u)	Sigma Pha (deg)	
1		0.00		0.00		1.183e-02		-47.518		2.303e-03		10.731
1		0.00		0.40		1.189e-02		-46.211		2.292e-03		11.885
1		0.00		0.80		1.190e-02		-44.708		2.478e-03		12.955
1		0.00		1.20		1.181e-02		-43.845		2.556e-03		10.899
1		0.00		1.60		1.240e-02		-45.202		2.410e-03		11.354
1		0.00		2.00		1.188e-02		-44.847		2.308e-03		11.253
1		0.00		2.40		1.176e-02		-40.683		2.526e-03		12.672
1		0.00		2.80		1.200e-02		-43.018		2.593e-03		11.559
1		0.00		3.20		1.224e-02		-44.853		2.285e-03		12.044
1		0.00		3.60		1.289e-02		-45.848		2.535e-03		12.009
1		0.00		4.00		1.268e-02		-45.024		2.682e-03		15.160
1		0.00		4.40		1.346e-02		-43.796		3.034e-03		10.836
1		0.00		4.80		1.492e-02		-45.068		2.506e-03		10.280
1		0.00		5.20		1.584e-02		-45.862		3.213e-03		10.583
1		0.00		5.60		1.623e-02		-45.368		3.830e-03		11.145
1		0.00		6.00		1.731e-02		-47.138		3.925e-03		10.165
1		0.00		6.40		1.792e-02		-48.680		3.460e-03		9.182
1		0.00		6.80		1.910e-02		-48.474		3.516e-03		10.211
1		0.00		7.20		1.952e-02		-45.718		4.707e-03		10.286
1		0.00		7.60		2.081e-02		-49.164		4.249e-03		9.521
1		0.00		8.00		2.160e-02		-50.429		3.715e-03		8.254
1		0.00		8.40		2.198e-02		-48.391		4.815e-03		9.839
1		0.00		8.80		2.279e-02		-49.173		5.580e-03		8.359
1		0.00		9.20		2.456e-02		-48.816		4.513e-03		7.897
1		0.00		9.60		2.681e-02		-50.681		4.700e-03		7.689
1		0.00		10.00		2.706e-02		-49.844		5.353e-03		9.816
1		0.00		9.60		2.765e-02		-49.313		5.879e-03		8.424
1		0.00		9.20		2.821e-02		-50.985		4.527e-03		6.897
1		0.00		8.80		2.942e-02		-49.620		4.654e-03		8.208
1		0.00		8.40		2.913e-02		-49.452		5.490e-03		8.444
1		0.00		8.00		2.930e-02		-50.766		5.918e-03		8.929
1		0.00		7.60		2.999e-02		-50.508		4.561e-03		7.783
1		0.00		7.20		2.967e-02		-48.259		5.056e-03		9.020
1		0.00		6.80		2.879e-02		-50.702		6.040e-03		10.550
1		0.00		6.40		2.836e-02		-51.520		6.045e-03		8.818
1		0.00		6.00		2.873e-02		-50.393		4.664e-03		7.272
1		0.00		5.60		2.735e-02		-47.772		5.231e-03		7.951
1		0.00		5.20		2.677e-02		-50.155		6.134e-03		9.391
1		0.00		4.80		2.704e-02		-50.404		5.138e-03		7.917
1		0.00		4.40		2.749e-02		-48.669		4.582e-03		8.762
1		0.00		4.00		2.688e-02		-47.913		5.187e-03		8.290
1		0.00		3.60		2.593e-02		-52.188		6.028e-03		9.182
1		0.00		3.20		2.654e-02		-50.118		4.623e-03		9.198
1		0.00		2.80		2.632e-02		-49.285		4.568e-03		7.349
1		0.00		2.40		2.594e-02		-48.155		5.416e-03		7.796
1		0.00		2.00		2.569e-02		-50.293		5.908e-03		9.246
1		0.00		1.60		2.639e-02		-50.685		4.571e-03		8.274
1		0.00		1.20		2.619e-02		-48.464		4.690e-03		8.633
1		0.00		0.80		2.563e-02		-47.938		5.291e-03		10.535
1		0.00		0.40		2.596e-02		-50.607		5.047e-03		7.518
1		0.00		0.00		2.609e-02		-48.873		3.955e-03		7.696
1		0.00		-0.40		2.611e-02		-49.044		4.489e-03		8.081
1		0.00		-0.80		2.519e-02		-46.841		5.557e-03		9.287
1		0.00		-1.20		2.515e-02		-51.465		4.745e-03		8.256
1		0.00		-1.60		2.533e-02		-49.688		4.161e-03		7.354
1		0.00		-2.00		2.455e-02		-48.867		4.985e-03		8.102
1		0.00		-2.40		2.386e-02		-48.871		5.384e-03		9.585
1		0.00		-2.80		2.380e-02		-47.820		4.636e-03		7.946
1		0.00		-3.20		2.322e-02		-49.387		4.238e-03		8.423
1		0.00		-3.60		2.206e-02		-49.958		5.186e-03		8.495
1		0.00		-4.00		2.119e-02		-48.133		5.321e-03		9.389
1		0.00		-4.40		2.124e-02		-48.474		4.492e-03		9.915
1		0.00		-4.80		1.964e-02		-50.512		4.249e-03		9.932
1		0.00		-5.20		1.902e-02		-47.961		4.770e-03		10.553
1		0.00		-5.60		1.798e-02		-48.660		4.183e-03		8.821
1		0.00		-6.00		1.733e-02		-47.757		3.713e-03		9.550
1		0.00		-6.40		1.632e-02		-45.888		3.546e-03		7.753
1		0.00		-6.80		1.461e-02		-47.323		3.654e-03		13.612
1		0.00		-7.20		1.329e-02		-46.924		2.866e-03		8.346
1		0.00		-7.60		1.172e-02		-47.980		2.484e-03		12.837
1		0.00		-8.00		8.945e-03		-50.113		2.356e-03		22.725
1		0.00		-8.40		7.176e-03		-39.706		1.868e-03		17.308
1		0.00		-8.80		5.401e-03		-33.417		1.561e-03		17.928
1		0.00		-9.20		3.664e-03		-28.254		1.381e-03		29.925
1		0.00		-9.60		2.341e-03		-34.017		1.037e-03		56.507
1		0.00		-10.00		2.262e-03		30.189		9.331e-04		53.337
1		0.00		-9.60		2.388e-03		51.393		9.375e-04		61.444
1		0.00		-9.20		3.162e-03		82.961		1.504e-03		48.115
1		0.00		-8.80		3.971e-03		86.948		1.425e-03		35.041
1		0.00		-8.40		3.981e-03		101.497		1.414e-03		31.411
1		0.00		-8.00		4.284e-03		100.891		1.518e-03		30.933
1		0.00		-7.60		3.821e-03		101.605		1.501e-03		34.394
1		0.00		-7.20		3.615e-03		97.390		1.473e-03		30.036
1		0.00		-6.80		3.858e-03		103.929		1.421e-03		37.543
1		0.00		-6.40		3.750e-03		93.225		1.305e-03		37.904
1		0.00		-6.00		3.239e-03		81.717		1.314e-03		41.709
1		0.00		-5.60		3.466e-03		97.249		1.225e-03		35.373
1		0.00		-5.20		3.313e-03		98.725		1.339e-03		34.455
1		0.00		-4.80		3.113e-03		80.590		1.193e-03		41.438
1		0.00		-4.40		3.247e-03		93.983		1.204e-03		35.850
1		0.00		-4.00		3.005e-03		90.869		1.253e-03		43.617
1		0.00		-3.60		3.079e-03		89.209		1.252e-03		43.961
1		0.00		-3.20		2.907e-03		75.897		9.538e-04		40.518
1		0.00		-2.80		2.767e-03		85.268		1.199e-03		48.885
1		0.00		-2.40		2.849e-03		65.464		1.224e-03		48.285
1		0.00		-2.00		2.548e-03		77.970		1.070e-03		44.695
1		0.00		-1.60		2.494e-03		63.749		1.023e-03		47.968
1		0.00		-1.20		2.687e-03		77.524		1.047e-03		49.049
1		0.00		-0.80		2.957e-03		86.871		1.251e-03		50.711
1		0.00		-0.40		2.712e-03		72.909		1.019e-03		48.340
2		0.00		0.00		2.534e-03		58.390		1.073e-03		57.855
2		0.00		0.40		2.698e-03		79.488		9.982e-04		46.365
2		0.00		0.80		2.610e-03		69.186		1.135e-03		48.553
2		0.00		1.20		2.343e-03		64.110		8.553e-04		60.808
2		0.00		1.60		2.262e-03		51.373		9.877e-04		54.797
2		0.00		2.00		2.153e-03		49.647		8.934e-04		57.387
2		0.00		2.40		2.005e-03		14.619		8.656e-04		57.011
2		0.00		2.80		2.252e-03		-1.508		9.429e-04		50.149
2		0.00		3.20		2.498e-03		-31.485		1.122e-03		42.662
2		0.00		3.60		2.828e-03		-42.930		9.471e-04		32.485
2		0.00		4.00		3.685e-03		-38.768		1.349e-03		29.265
2		0.00		4.40		4.387e-03		-48.033		1.368e-03		19.010
2		0.00		4.80		5.673e-03		-34.474		1.662e-03		20.356
2		0.00		5.20		6.638e-03		-49.799		2.053e-03		16.604
2		0.00		5.60		6.951e-03		-37.375		2.084e-03		14.833
2		0.00		6.00		7.961e-03		-45.584		1.657e-03		14.968
2		0.00		6.40		8.563e-03		-52.284		1.905e-03		11.203
2		0.00		6.80		9.497e-03		-45.967		2.173e-03		11.371
2		0.00		7.20		1.091e-02		-47.224		2.572e-03		12.583
2		0.00		7.60		1.166e-02		-46.913		2.227e-03		11.243
2		0.00		8.00		1.256e-02		-52.658		2.721e-03		16.118
2		0.00		8.40		1.324e-02		-47.604		2.999e-03		13.974
2		0.00		8.80		1.464e-02		-51.785		3.010e-03		10.766
2		0.00		9.20		1.655e-02		-46.012		2.853e-03		9.625
2		0.00		9.60		1.809e-02		-49.858		3.597e-03		10.408
2		0.00		10.00		2.020e-02		-50.499		4.662e-03		10.279
2		0.00		9.60		2.102e-02		-46.866		3.843e-03		8.183
2		0.00		9.20		2.176e-02		-48.428		3.718e-03		7.474
2		0.00		8.80		2.204e-02		-50.683		4.701e-03		8.245
2		0.00		8.40		2.175e-02		-48.564		5.107e-03		9.012
2		0.00		8.00		2.260e-02		-51.363		3.860e-03		7.418
2		0.00		7.60		2.289e-02		-49.958		3.919e-03		7.245
2		0.00		7.20		2.190e-02		-51.909		5.077e-03		12.114
2		0.00		6.80		2.192e-02		-49.997		5.128e-03		9.044
2		0.00		6.40		2.233e-02		-49.416		3.902e-03		9.043
2		0.00		6.00		2.241e-02		-49.793		4.220e-03		8.440
2		0.00		5.60		2.184e-02		-47.599		5.116e-03		12.884
2		0.00		5.20		2.126e-02		-48.068		4.446e-03		10.090
2		0.00		4.80		2.165e-02		-49.701		3.713e-03		7.590
2		0.00		4.40		2.165e-02		-50.367		3.943e-03		7.612
2		0.00		4.00		2.103e-02		-47.918		4.630e-03		11.294
2		0.00		3.60		2.112e-02		-49.866		4.316e-03		9.056
2		0.00		3.20		2.134e-02		-48.696		3.676e-03		8.212
2		0.00		2.80		2.100e-02		-48.668		4.013e-03		7.763
2		0.00		2.40		2.061e-02		-51.247		4.753e-03		10.046
2		0.00		2.00		2.072e-02		-47.787		4.023e-03		8.998
2		0.00		1.60		2.090e-02		-48.754		3.414e-03		8.914
2		0.00		1.20		2.080e-02		-47.911		3.672e-03		8.638
2		0.00		0.80		2.018e-02		-50.163		4.572e-03		13.421
2		0.00		0.40		2.005e-02		-50.348		4.321e-03		9.914
2		0.00		0.00		2.053e-02		-48.931		3.938e-03		8.360
2		0.00		-0.40		1.995e-02		-50.108		4.009e-03		8.721
2		0.00		-0.80		1.930e-02		-47.795		4.837e-03		11.710
2		0.00		-1.20		1.933e-02		-48.955		4.721e-03		7.741
2		0.00		-1.60		1.893e-02		-48.278		3.714e-03		8.933
2		0.00		-2.00		1.869e-02		-47.949		3.780e-03		8.731
2		0.00		-2.40		1.787e-02		-50.413		4.229e-03		10.759
2		0.00		-2.80		1.734e-02		-51.473		4.704e-03		9.402
2		0.00		-3.20		1.750e-02		-49.870		4.064e-03		9.020
2		0.00		-3.60		1.731e-02		-47.311		3.489e-03		8.442
2		0.00		-4.00		1.630e-02		-47.919		3.265e-03		10.739
2		0.00		-4.40		1.584e-02		-46.479		3.725e-03		13.318
2		0.00		-4.80		1.520e-02		-50.240		3.447e-03		10.223
2		0.00		-5.20		1.516e-02		-47.368		2.692e-03		9.746
2		0.00		-5.60		1.444e-02		-46.703		2.631e-03		10.967
2		0.00		-6.00		1.253e-02		-49.324		2.610e-03		11.280
2		0.00		-6.40		1.138e-02		-45.822		2.773e-03		12.585
2		0.00		-6.80		1.049e-02		-46.612		2.563e-03		12.264
2		0.00		-7.20		1.014e-02		-41.358		2.140e-03		11.697
2		0.00		-7.60		8.539e-03		-40.479		1.906e-03		12.945
2		0.00		-8.00		7.026e-03		-37.580		1.957e-03		15.570
2		0.00		-8.40		5.720e-03		-24.466		1.682e-03		19.180
2		0.00		-8.80		4.595e-03		-38.433		1.600e-03		19.520
2		0.00		-9.20		3.562e-03		-26.680		1.380e-03		32.184
2		0.00		-9.60		2.411e-03		5.688		1.093e-03		54.407
2		0.00		-10.00		2.441e-03		56.739		9.373e-04		51.328
2		0.00		-9.60		2.952e-03		70.867		1.168e-03		56.157
2		0.00		-9.20		3.431e-03		93.570		1.504e-03		34.966
2		0.00		-8.80		3.727e-03		102.931		1.359e-03		35.416
2		0.00		-8.40		3.784e-03		102.669		1.344e-03		33.453
2		0.00		-8.00		4.498e-03		97.721		1.629e-03		30.332
2		0.00		-7.60		4.087e-03		100.856		1.669e-03		34.349
2		0.00		-7.20		4.538e-03		104.607		1.427e-03		28.485
2		0.00		-6.80		4.200e-03		103.904		1.259e-03		31.340
2		0.00		-6.40		4.072e-03		104.512		1.476e-03		34.684
2		0.00		-6.00		4.166e-03		105.131		1.683e-03		31.478
2		0.00		-5.60		3.786e-03		101.051		1.419e-03		38.907
2		0.00		-5.20		3.793e-03		107.072		1.334e-03		32.814
2		0.00		-4.80		3.676e-03		104.512		1.387e-03		33.935
2		0.00		-4.40		3.791e-03		110.853		1.253e-03		31.239
2		0.00		-4.00		3.835e-03		100.532		1.450e-03		35.394
2		0.00		-3.60		3.649e-03		103.974		1.415e-03		34.017
2		0.00		-3.20		3.614e-03		98.332		1.197e-03		28.200
2		0.00		-2.80		3.727e-03		102.633		1.302e-03		27.627
2		0.00		-2.40		3.229e-03		106.589		1.179e-03		43.596
2		0.00		-2.00		3.490e-03		101.860		1.276e-03		34.077
2		0.00		-1.60		3.141e-03		93.895		1.132e-03		38.283
2		0.00		-1.20		3.671e-03		104.090		1.166e-03		29.971
2		0.00		-0.80		3.506e-03		100.513		1.092e-03		31.145
2		0.00		-0.40		3.369e-03		97.356		1.207e-03		34.426
3		0.00		0.00		3.330e-03		89.194		1.355e-03		40.830
3		0.00		0.40		3.403e-03		99.225		1.341e-03		35.780
3		0.00		0.80		3.177e-03		94.586		1.096e-03		34.822
3		0.00		1.20		3.087e-03		89.963		1.377e-03		51.569
3		0.00		1.60		2.731e-03		72.763		1.298e-03		51.945
3		0.00		2.00		2.328e-03		61.879		9.657e-04		60.979
3		0.00		2.40		2.380e-03		41.898		1.128e-03		55.509
3		0.00		2.80		1.964e-03		32.236		9.205e-04		59.857
3		0.00		3.20		1.991e-03		-8.892		7.725e-04		67.970
3		0.00		3.60		2.273e-03		-27.516		9.861e-04		55.980
3		0.00		4.00		2.915e-03		-51.676		1.145e-03		32.615
3		0.00		4.40		3.982e-03		-41.560		1.195e-03		31.385
3		0.00		4.80		4.526e-03		-45.667		1.298e-03		21.782
3		0.00		5.20		5.603e-03		-47.020		1.559e-03		21.717
3		0.00		5.60		5.833e-03		-42.432		1.620e-03		20.066
3		0.00		6.00		7.155e-03		-46.548		1.535e-03		14.600
3		0.00		6.40		8.246e-03		-42.256		1.730e-03		11.674
3		0.00		6.80		8.717e-03		-51.153		1.781e-03		13.080
3		0.00		7.20		9.525e-03		-48.600		2.260e-03		15.445
3		0.00		7.60		1.033e-02		-44.619		2.656e-03		12.167
3		0.00		8.00		1.163e-02		-47.273		2.076e-03		9.001
3		0.00		8.40		1.224e-02		-51.318		2.408e-03		13.683
3		0.00		8.80		1.398e-02		-49.168		2.867e-03		10.736
3		0.00		9.20		1.517e-02		-50.815		3.329e-03		10.660
3		0.00		9.60		1.707e-02		-47.320		3.705e-03		7.476
3		0.00		10.00		1.950e-02		-49.648		3.450e-03		8.826
3		0.00		9.60		2.084e-02		-47.886		3.492e-03		7.638
3		0.00		9.20		2.110e-02		-48.521		4.895e-03		8.388
3		0.00		8.80		2.135e-02		-48.766		5.140e-03		9.403
3		0.00		8.40		2.226e-02		-48.651		3.822e-03		6.969
3		0.00		8.00		2.245e-02		-48.930		3.650e-03		8.264
3		0.00		7.60		2.204e-02		-47.500		3.824e-03		8.608
3		0.00		7.20		2.179e-02		-49.654		4.465e-03		9.539
3		0.00		6.80		2.234e-02		-50.083		4.514e-03		8.149
3		0.00		6.40		2.213e-02		-47.771		3.194e-03		7.847
3		0.00		6.00		2.160e-02		-48.188		3.443e-03		8.638
3		0.00		5.60		2.140e-02		-48.354		4.144e-03		9.531
3		0.00		5.20		2.129e-02		-49.526		4.477e-03		8.560
3		0.00		4.80		2.154e-02		-50.936		3.954e-03		9.293
3		0.00		4.40		2.065e-02		-49.087		3.612e-03		9.116
3		0.00		4.00		2.063e-02		-49.038		4.265e-03		9.024
3		0.00		3.60		2.002e-02		-48.646		4.656e-03		9.272
3		0.00		3.20		2.059e-02		-50.804		4.185e-03		8.104
3		0.00		2.80		2.046e-02		-49.008		3.641e-03		9.909
3		0.00		2.40		1.994e-02		-48.527		4.061e-03		8.465
3		0.00		2.00		1.966e-02		-46.564		4.708e-03		9.844
3		0.00		1.60		1.978e-02		-48.656		4.377e-03		11.198
3		0.00		1.20		2.021e-02		-49.568		3.542e-03		10.422
3		0.00		0.80		1.986e-02		-46.068		3.762e-03		8.629
3		0.00		0.40		1.963e-02		-50.641		4.429e-03		10.897
3		0.00		0.00		1.960e-02		-49.547		4.510e-03		9.239
3		0.00		-0.40		1.981e-02		-49.372		3.495e-03		8.124
3		0.00		-0.80		1.968e-02		-47.364		3.263e-03		8.370
3		0.00		-1.20		1.911e-02		-47.247		4.035e-03		9.403
3		0.00		-1.60		1.873e-02		-47.854		3.966e-03		9.193
3		0.00		-2.00		1.851e-02		-47.985		3.361e-03		9.091
3		0.00		-2.40		1.859e-02		-45.898		2.930e-03		8.525
3		0.00		-2.80		1.771e-02		-48.785		3.069e-03		10.094
3		0.00		-3.20		1.718e-02		-47.578		3.716e-03		10.288
3		0.00		-3.60		1.657e-02		-46.294		3.281e-03		9.349
3		0.00		-4.00		1.629e-02		-46.317		2.809e-03		9.780
3		0.00		-4.40		1.572e-02		-48.175		2.783e-03		8.938
3		0.00		-4.80		1.519e-02		-48.754		3.271e-03		9.963
3		0.00		-5.20		1.372e-02		-46.867		3.237e-03		11.245
3		0.00		-5.60		1.319e-02		-47.771		2.764e-03		10.846
3		0.00		-6.00		1.323e-02		-44.370		2.284e-03		11.141
3		0.00		-6.40		1.177e-02		-50.291		2.351e-03		12.472
3		0.00		-6.80		1.036e-02		-42.719		2.376e-03		13.854
3		0.00		-7.20		9.679e-03		-44.725		2.494e-03		12.380
3		0.00		-7.60		9.022e-03		-45.331		2.198e-03		15.874
3		0.00		-8.00		7.517e-03		-36.057		1.745e-03		15.204
3		0.00		-8.40		6.326e-03		-44.944		1.796e-03		16.086
3		0.00		-8.80		5.197e-03		-40.877		1.692e-03		23.515
3		0.00		-9.20		3.738e-03		-25.347		1.314e-03		28.367
3		0.00		-9.60		2.455e-03		-29.113		9.147e-04		46.045
3		0.00		-10.00		2.101e-03		15.799		8.536e-04		60.270
3		0.00		-9.60		2.971e-03		86.470		1.107e-03		41.614
3		0.00		-9.20		3.284e-03		91.305		1.192e-03		37.884
3		0.00		-8.80		4.026e-03		100.147		1.319e-03		25.449
3		0.00		-8.40		4.078e-03		100.335		1.395e-03		36.529
3		0.00		-8.00		4.451e-03		114.039		1.705e-03		29.588
3		0.00		-7.60		4.183e-03		101.270		1.330e-03		27.444
3		0.00		-7.20		4.131e-03		110.587		1.420e-03		29.174
3		0.00		-6.80		4.091e-03		102.949		1.626e-03		31.149
3		0.00		-6.40		4.137e-03		104.645		1.513e-03		40.999
3		0.00		-6.00		3.789e-03		100.286		1.410e-03		33.347
3		0.00		-5.60		3.692e-03		96.459		1.440e-03		38.870
3		0.00		-5.20		3.406e-03		90.893		1.482e-03		53.958
3		0.00		-4.80		3.512e-03		99.176		1.219e-03		34.736
3		0.00		-4.40		3.469e-03		101.803		1.164e-03		28.193
3		0.00		-4.00		3.154e-03		104.565		1.206e-03		34.437
3		0.00		-3.60		3.125e-03		107.807		1.214e-03		41.256
3		0.00		-3.20		3.276e-03		98.173		1.286e-03		39.504
3		0.00		-2.80		3.311e-03		89.343		1.390e-03		42.212
3		0.00		-2.40		2.843e-03		94.014		1.076e-03		45.867
3		0.00		-2.00		3.205e-03		93.606		1.296e-03		37.647
3		0.00		-1.60		3.146e-03		97.208		1.158e-03		47.244
3		0.00		-1.20		3.103e-03		93.790		1.110e-03		48.750
3		0.00		-0.80		3.049e-03		87.191		1.270e-03		40.665
3		0.00		-0.40		3.401e-03		99.128		1.369e-03		40.488
4		0.00		0.00		3.396e-03		101.503		1.128e-03		39.224
4		0.00		0.40		3.117e-03		99.178		1.290e-03		37.436
4		0.00		0.80		2.725e-03		73.740		1.155e-03		56.258
4		0.00		1.20		2.812e-03		79.901		1.116e-03		51.590
4		0.00		1.60		2.613e-03		76.581		1.049e-03		53.697
4		0.00		2.00		2.390e-03		74.482		1.003e-03		47.850
4		0.00		2.40		2.050e-03		47.131		1.023e-03		63.750
4		0.00		2.80		1.791e-03		27.813		7.330e-04		62.372
4		0.00		3.20		2.020e-03		7.259		7.649e-04		59.389
4		0.00		3.60		2.136e-03		-4.074		9.011e-04		53.352
4		0.00		4.00		2.772e-03		-25.583		1.191e-03		44.534
4		0.00		4.40		3.248e-03		-29.592		1.216e-03		29.899
4		0.00		4.80		4.741e-03		-34.268		1.471e-03		19.233
4		0.00		5.20		5.106e-03		-40.854		1.512e-03		22.553
4		0.00		5.60		5.973e-03		-40.799		1.639e-03		20.084
4		0.00		6.00		6.960e-03		-43.163		2.079e-03		14.241
4		0.00		6.40		7.433e-03		-41.928		1.936e-03		15.236
4		0.00		6.80		8.559e-03		-47.985		1.863e-03		13.257
4		0.00		7.20		9.177e-03		-51.383		1.827e-03		13.247
4		0.00		7.60		9.608e-03		-44.832		2.238e-03		14.058
4		0.00		8.00		1.095e-02		-47.522		2.732e-03		12.973
4		0.00		8.40		1.208e-02		-46.467		2.652e-03		11.001
4		0.00		8.80		1.298e-02		-49.738		2.434e-03		11.092
4		0.00		9.20		1.451e-02		-46.646		2.551e-03		10.014
4		0.00		9.60		1.624e-02		-49.561		2.757e-03		9.844
4		0.00		10.00		1.800e-02		-48.385		3.337e-03		7.885
4		0.00		9.60		1.887e-02		-47.336		3.960e-03		8.791
4		0.00		9.20		1.944e-02		-48.078		4.501e-03		8.036
4		0.00		8.80		1.962e-02		-48.602		4.495e-03		8.725
4		0.00		8.40		2.051e-02		-50.366		4.254e-03		9.159
4		0.00		8.00		2.028e-02		-48.723		3.827e-03		8.357
4		0.00		7.60		1.987e-02		-48.718		3.929e-03		8.630
4		0.00		7.20		1.985e-02		-50.087		4.455e-03		8.156
4		0.00		6.80		1.935e-02		-49.537		4.873e-03		10.534
4		0.00		6.40		2.036e-02		-51.118		4.798e-03		9.443
4		0.00		6.00		1.976e-02		-49.352		4.297e-03		8.995
4		0.00		5.60		1.969e-02		-52.032		3.946e-03		9.920
4		0.00		5.20		1.932e-02		-49.791		3.651e-03		7.604
4		0.00		4.80		1.941e-02		-47.677		3.779e-03		9.567
4		0.00		4.40		1.898e-02		-50.299		3.927e-03		8.988
4		0.00		4.00		1.864e-02		-47.385		4.246e-03		10.006
4		0.00		3.60		1.895e-02		-48.934		4.290e-03		8.345
4		0.00		3.20		1.883e-02		-50.726		3.640e-03		11.513
4		0.00		2.80		1.925e-02		-50.620		3.051e-03		8.398
4		0.00		2.40		1.835e-02		-47.368		3.480e-03		8.645
4		0.00		2.00		1.844e-02		-45.969		3.484e-03		9.572
4		0.00		1.60		1.800e-02		-48.404		4.121e-03		9.570
4		0.00		1.20		1.797e-02		-49.613		4.096e-03		9.157
4		0.00		0.80		1.811e-02		-49.112		3.526e-03		7.691
4		0.00		0.40		1.837e-02		-48.179		2.947e-03		8.750
4		0.00		0.00		1.817e-02		-47.058		3.338e-03		8.009
4		0.00		-0.40		1.760e-02		-46.000		3.449e-03		10.197
4		0.00		-0.80		1.756e-02		-44.608		3.878e-03		8.961
4		0.00		-1.20		1.728e-02		-47.814		4.011e-03		10.921
4		0.00		-1.60		1.684e-02		-48.800		3.582e-03		8.500
4		0.00		-2.00		1.648e-02		-48.048		2.902e-03		10.006
4		0.00		-2.40		1.610e-02		-48.809		3.044e-03		10.026
4		0.00		-2.80		1.559e-02		-51.268		3.172e-03		8.647
4		0.00		-3.20		1.472e-02		-47.277		3.553e-03		10.686
4		0.00		-3.60		1.469e-02		-46.908		3.475e-03		11.361
4		0.00		-4.00		1.450e-02		-46.859		2.765e-03		9.786
4		0.00		-4.40		1.456e-02		-49.793		2.619e-03		9.359
4		0.00		-4.80		1.444e-02		-48.898		2.691e-03		10.428
4		0.00		-5.20		1.327e-02		-47.447		2.803e-03		11.176
4		0.00		-5.60		1.213e-02		-49.276		2.819e-03		10.536
4		0.00		-6.00		1.153e-02		-45.275		2.586e-03		9.633
4		0.00		-6.40		1.092e-02		-45.331		2.083e-03		10.909
4		0.00		-6.80		9.775e-03		-43.908		2.193e-03		10.698
4		0.00		-7.20		8.962e-03		-53.269		2.086e-03		12.961
4		0.00		-7.60		7.232e-03		-44.224		1.934e-03		15.751
4		0.00		-8.00		6.902e-03		-38.421		1.851e-03		14.986
4		0.00		-8.40		5.543e-03		-35.857		1.716e-03		18.933
4		0.00		-8.80		4.478e-03		-32.743		1.601e-03		20.023
4		0.00		-9.20		2.893e-03		-23.211		1.254e-03		39.338
4		0.00		-9.60		2.396e-03		-5.210		8.706e-04		47.546
4		0.00		-10.00		1.891e-03		1.339		8.642e-04		63.094
4		0.00		-9.60		2.523e-03		65.704		1.114e-03		54.114
4		0.00		-9.20		3.195e-03		86.974		1.247e-03		44.994
4		0.00		-8.80		3.615e-03		97.150		1.335e-03		30.920
4		0.00		-8.40		3.989e-03		107.052		1.489e-03		33.227
4		0.00		-8.00		4.190e-03		92.430		1.629e-03		46.845
4		0.00		-7.60		4.257e-03		104.813		1.615e-03		40.451
4		0.00		-7.20		4.493e-03		102.461		1.719e-03		33.794
4		0.00		-6.80		4.122e-03		109.190		1.460e-03		29.602
4		0.00		-6.40		4.407e-03		110.475		1.561e-03		20.077
4		0.00		-6.00		3.673e-03		106.682		1.393e-03		31.804
4		0.00		-5.60		3.968e-03		102.579		1.498e-03		28.319
4		0.00		-5.20		3.816e-03		106.632		1.443e-03		34.044
4		0.00		-4.80		3.695e-03		105.374		1.408e-03		46.117
4		0.00		-4.40		3.763e-03		107.052		1.416e-03		39.730
4		0.00		-4.00		3.481e-03		93.480		1.293e-03		41.273
4		0.00		-3.60		3.831e-03		99.196		1.380e-03		35.053
4		0.00		-3.20		3.485e-03		98.591		1.270e-03		41.201
4		0.00		-2.80		3.182e-03		97.206		1.233e-03		37.101
4		0.00		-2.40		3.582e-03		108.261		1.227e-03		36.212
4		0.00		-2.00		3.212e-03		79.830		1.442e-03		52.982
4		0.00		-1.60		3.207e-03		98.234		1.350e-03		30.420
4		0.00		-1.20		3.565e-03		99.607		1.473e-03		30.837
4		0.00		-0.80		3.311e-03		103.645		1.221e-03		37.690
4		0.00		-0.40		3.781e-03		106.742		1.340e-03		29.547
5		0.00		0.00		3.776e-03		102.418		1.353e-03		28.171
5		0.00		0.40		3.597e-03		103.774		1.309e-03		41.988
5		0.00		0.80		3.306e-03		80.921		1.351e-03		50.692
5		0.00		1.20		3.739e-03		95.869		1.252e-03		37.920
5		0.00		1.60		3.087e-03		94.890		1.290e-03		46.447
5		0.00		2.00		2.853e-03		96.785		1.137e-03		37.874
5		0.00		2.40		2.632e-03		72.281		1.033e-03		49.804
5		0.00		2.80		2.210e-03		30.704		9.587e-04		58.015
5		0.00		3.20		2.074e-03		37.201		8.317e-04		55.419
5		0.00		3.60		1.760e-03		-3.146		7.083e-04		59.368
5		0.00		4.00		2.129e-03		-48.951		7.554e-04		50.983
5		0.00		4.40		2.781e-03		-39.664		1.015e-03		38.614
5		0.00		4.80		3.359e-03		-44.105		1.193e-03		31.235
5		0.00		5.20		4.732e-03		-48.079		1.338e-03		22.491
5		0.00		5.60		5.007e-03		-44.707		1.498e-03		18.493
5		0.00		6.00		6.174e-03		-43.166		1.842e-03		18.171
5		0.00		6.40		7.313e-03		-45.865		1.706e-03		15.712
5		0.00		6.80		7.712e-03		-48.474		1.621e-03		14.906
5		0.00		7.20		8.388e-03		-44.023		2.161e-03		14.746
5		0.00		7.60		9.475e-03		-46.218		2.233e-03		13.888
5		0.00		8.00		9.997e-03		-45.634		2.252e-03		10.590
5		0.00		8.40		1.153e-02		-48.824		2.011e-03		11.956
5		0.00		8.80		1.254e-02		-49.852		2.827e-03		12.257
5		0.00		9.20		1.306e-02		-47.203		3.421e-03		10.916
5		0.00		9.60		1.479e-02		-50.681		3.370e-03		8.401
5		0.00		10.00		1.682e-02		-49.713		3.045e-03		9.864
5		0.00		9.60		1.821e-02		-48.536		3.393e-03		9.162
5		0.00		9.20		1.829e-02		-45.553		3.644e-03		10.786
5		0.00		8.80		1.910e-02		-50.009		3.787e-03		9.594
5		0.00		8.40		1.965e-02		-49.848		3.020e-03		7.585
5		0.00		8.00		1.992e-02		-47.118		3.198e-03		9.069
5		0.00		7.60		1.943e-02		-48.004		4.041e-03		10.611
5		0.00		7.20		1.916e-02		-47.536		4.061e-03		7.809
5		0.00		6.80		1.928e-02		-52.121		3.174e-03		8.331
5		0.00		6.40		1.904e-02		-48.720		3.241e-03		8.539
5		0.00		6.00		1.913e-02		-48.046		3.635e-03		10.456
5		0.00		5.60		1.859e-02		-48.973		4.018e-03		8.443
5		0.00		5.20		1.911e-02		-48.648		3.590e-03		9.033
5		0.00		4.80		1.919e-02		-49.573		2.728e-03		9.337
5		0.00		4.40		1.871e-02		-48.108		3.281e-03		8.498
5		0.00		4.00		1.819e-02		-47.387		4.092e-03		10.096
5		0.00		3.60		1.807e-02		-51.387		3.709e-03		8.856
5		0.00		3.20		1.891e-02		-47.437		3.038e-03		8.182
5		0.00		2.80		1.828e-02		-48.548		3.099e-03		8.929
5		0.00		2.40		1.796e-02		-48.367		3.826e-03		10.613
5		0.00		2.00		1.775e-02		-49.922		3.721e-03		9.612
5		0.00		1.60		1.791e-02		-47.999		3.047e-03		8.683
5		0.00		1.20		1.802e-02		-49.779		2.810e-03		10.163
5		0.00		0.80		1.745e-02		-46.881		3.776e-03		10.359
5		0.00		0.40		1.737e-02		-47.898		3.703e-03		11.494
5		0.00		0.00		1.782e-02		-49.252		2.899e-03		8.192
5		0.00		-0.40		1.773e-02		-47.066		2.909e-03		9.627
5		0.00		-0.80		1.730e-02		-47.382		3.429e-03		8.418
5		0.00		-1.20		1.695e-02		-47.653		3.415e-03		9.950
5		0.00		-1.60		1.655e-02		-46.904		2.989e-03		8.865
5		0.00		-2.00		1.616e-02		-46.916		2.659e-03		9.830
5		0.00		-2.40		1.593e-02		-46.262		2.967e-03		9.517
5		0.00		-2.80		1.551e-02		-46.778		3.254e-03		8.413
5		0.00		-3.20		1.520e-02		-46.820		2.646e-03		9.244
5		0.00		-3.60		1.494e-02		-45.068		2.554e-03		10.354
5		0.00		-4.00		1.398e-02		-46.973		2.992e-03		12.067
5		0.00		-4.40		1.285e-02		-46.420		3.152e-03		9.828
5		0.00		-4.80		1.320e-02		-46.584		2.840e-03		11.503
5		0.00		-5.20		1.276e-02		-46.687		2.438e-03		9.297
5		0.00		-5.60		1.195e-02		-46.394		2.526e-03		10.763
5		0.00		-6.00		1.045e-02		-48.438		2.740e-03		14.236
5		0.00		-6.40		1.070e-02		-44.913		2.363e-03		9.420
5		0.00		-6.80		9.429e-03		-45.118		1.884e-03		12.668
5		0.00		-7.20		8.077e-03		-47.903		2.072e-03		11.689
5		0.00		-7.60		7.094e-03		-38.008		1.848e-03		15.627
5		0.00		-8.00		6.129e-03		-45.204		1.632e-03		16.969
5		0.00		-8.40		5.205e-03		-49.732		1.582e-03		18.542
5		0.00		-8.80		3.965e-03		-33.057		1.312e-03		25.734
5		0.00		-9.20		2.700e-03		-41.061		1.301e-03		52.924
5		0.00		-9.60		1.977e-03		-35.867		8.749e-04		55.595
5		0.00		-10.00		2.712e-03		70.480		1.037e-03		45.496
5		0.00		-9.60		2.688e-03		83.379		1.055e-03		51.766
5		0.00		-9.20		3.344e-03		98.411		1.283e-03		32.470
5		0.00		-8.80		4.234e-03		108.600		1.492e-03		29.408
5		0.00		-8.40		4.071e-03		102.956		1.290e-03		29.089
5		0.00		-8.00		4.167e-03		107.493		1.602e-03		32.139
5		0.00		-7.60		3.777e-03		96.280		1.388e-03		39.215
5		0.00		-7.20		3.963e-03		100.212		1.279e-03		28.485
5		0.00		-6.80		3.904e-03		112.418		1.329e-03		29.072
5		0.00		-6.40		3.564e-03		100.912		1.429e-03		34.359
5		0.00		-6.00		3.395e-03		88.381		1.158e-03		35.614
5		0.00		-5.60		3.594e-03		101.273		1.224e-03		45.962
5		0.00		-5.20		3.228e-03		95.824		1.233e-03		43.497
5		0.00		-4.80		3.349e-03		88.832		1.266e-03		36.695
5		0.00		-4.40		3.363e-03		96.891		1.249e-03		44.171
5		0.00		-4.00		3.295e-03		97.655		1.207e-03		38.136
5		0.00		-3.60		3.390e-03		104.147		1.219e-03		39.447
5		0.00		-3.20		3.109e-03		94.486		1.247e-03		42.101
5		0.00		-2.80		3.249e-03		98.629		1.378e-03		47.435
5		0.00		-2.40		3.362e-03		103.722		1.023e-03		31.246
5		0.00		-2.00		3.417e-03		98.451		1.264e-03		42.533
5		0.00		-1.60		3.607e-03		96.490		1.272e-03		25.521
5		0.00		-1.20		3.594e-03		101.951		1.221e-03		36.744
5		0.00		-0.80		3.687e-03		100.148		1.344e-03		44.887
5		0.00		-0.40		3.638e-03		100.667		1.248e-03		28.008
6		0.00		0.00		3.627e-03		105.822		1.132e-03		40.256
6		0.00		0.40		3.242e-03		99.602		1.106e-03		35.910
6		0.00		0.80		3.335e-03		95.894		1.148e-03		29.501
6		0.00		1.20		3.189e-03		96.715		1.175e-03		34.600
6		0.00		1.60		3.005e-03		101.046		1.036e-03		31.343
6		0.00		2.00		2.773e-03		88.452		1.196e-03		33.967
6		0.00		2.40		2.556e-03		79.009		1.054e-03		51.255
6		0.00		2.80		2.108e-03		55.490		8.810e-04		56.769
6		0.00		3.20		1.997e-03		46.867		7.156e-04		48.295
6		0.00		3.60		1.737e-03		6.670		7.349e-04		63.810
6		0.00		4.00		2.061e-03		-20.952		8.368e-04		57.607
6		0.00		4.40		2.847e-03		-22.135		1.085e-03		37.712
6		0.00		4.80		3.522e-03		-40.949		1.245e-03		32.472
6		0.00		5.20		4.369e-03		-36.442		1.419e-03		25.142
6		0.00		5.60		5.207e-03		-41.314		1.337e-03		20.347
6		0.00		6.00		5.831e-03		-45.023		1.655e-03		16.723
6		0.00		6.40		6.715e-03		-38.682		1.995e-03		19.446
6		0.00		6.80		7.564e-03		-40.071		1.859e-03		16.920
6		0.00		7.20		8.706e-03		-44.449		1.643e-03		13.424
6		0.00		7.60		9.304e-03		-43.207		1.949e-03		15.395
6		0.00		8.00		1.040e-02		-45.807		2.269e-03		10.780
6		0.00		8.40		1.169e-02		-50.096		2.046e-03		11.534
6		0.00		8.80		1.292e-02		-47.798		2.312e-03		11.302
6		0.00		9.20		1.439e-02		-47.473		2.979e-03		10.259
6		0.00		9.60		1.587e-02		-51.265		2.880e-03		8.543
6		0.00		10.00		1.803e-02		-49.023		2.817e-03		8.678
6		0.00		9.60		1.889e-02		-49.178		3.244e-03		7.689
6		0.00		9.20		1.933e-02		-49.692		4.179e-03		8.505
6		0.00		8.80		1.944e-02		-48.643		3.284e-03		8.732
6		0.00		8.40		1.945e-02		-49.613		3.203e-03		8.385
6		0.00		8.00		1.906e-02		-47.563		3.965e-03		8.958
6		0.00		7.60		1.896e-02		-50.078		4.057e-03		7.726
6		0.00		7.20		1.966e-02		-50.930		3.173e-03		7.761
6		0.00		6.80		1.894e-02		-49.779		3.265e-03		9.211
6		0.00		6.40		1.862e-02		-47.367		4.117e-03		9.689
6		0.00		6.00		1.941e-02		-49.473		3.475e-03		8.999
6		0.00		5.60		1.924e-02		-47.524		3.216e-03		8.058
6		0.00		5.20		1.883e-02		-49.265		3.904e-03		9.561
6		0.00		4.80		1.838e-02		-49.097		3.771e-03		8.590
6		0.00		4.40		1.898e-02		-49.822		3.002e-03		7.893
6		0.00		4.00		1.886e-02		-48.358		3.185e-03		7.521
6		0.00		3.60		1.823e-02		-49.573		4.153e-03		11.712
6		0.00		3.20		1.872e-02		-46.966		3.205e-03		10.731
6		0.00		2.80		1.844e-02		-49.863		2.920e-03		8.053
6		0.00		2.40		1.856e-02		-50.550		3.682e-03		9.132
6		0.00		2.00		1.794e-02		-47.103		3.665e-03		9.550
6		0.00		1.60		1.795e-02		-49.096		2.958e-03		9.795
6		0.00		1.20		1.758e-02		-49.017		3.348e-03		8.971
6		0.00		0.80		1.776e-02		-45.808		3.576e-03		9.407
6		0.00		0.40		1.848e-02		-50.450		2.784e-03		8.283
6		0.00		0.00		1.803e-02		-48.133		2.941e-03		7.424
6		0.00		-0.40		1.771e-02		-49.760		3.733e-03		8.184
6		0.00		-0.80		1.759e-02		-47.864		3.195e-03		9.140
6		0.00		-1.20		1.754e-02		-45.441		3.115e-03		9.136
6		0.00		-1.60		1.677e-02		-50.040		3.892e-03		11.646
6		0.00		-2.00		1.652e-02		-50.474		3.571e-03		9.106
6		0.00		-2.40		1.629e-02		-46.358		2.602e-03		8.953
6		0.00		-2.80		1.516e-02		-49.507		3.058e-03		10.179
6		0.00		-3.20		1.528e-02		-47.951		3.685e-03		11.002
6		0.00		-3.60		1.499e-02		-46.893		2.725e-03		7.881
6		0.00		-4.00		1.475e-02		-46.560		2.903e-03		9.517
6		0.00		-4.40		1.419e-02		-50.231		3.351e-03		10.947
6		0.00		-4.80		1.383e-02		-46.267		2.925e-03		9.949
6		0.00		-5.20		1.340e-02		-46.728		2.610e-03		10.876
6		0.00		-5.60		1.242e-02		-50.726		2.758e-03		12.145
6		0.00		-6.00		1.161e-02		-49.632		2.660e-03		10.892
6		0.00		-6.40		1.093e-02		-44.507		1.781e-03		11.358
6		0.00		-6.80		1.012e-02		-47.649		2.044e-03		11.095
6		0.00		-7.20		8.939e-03		-47.713		1.982e-03		11.581
6		0.00		-7.60		7.983e-03		-45.911		1.717e-03		9.955
6		0.00		-8.00		6.806e-03		-38.486		1.458e-03		14.933
6		0.00		-8.40		5.749e-03		-39.292		1.672e-03		17.325
6		0.00		-8.80		4.451e-03		-38.667		1.495e-03		19.785
6		0.00		-9.20		3.465e-03		-36.888		1.303e-03		30.313
6		0.00		-9.60		2.451e-03		-29.870		1.081e-03		49.344
6		0.00		-10.00		1.986e-03		-11.585		9.294e-04		63.265
6		0.00		-9.60		2.258e-03		57.193		9.131e-04		59.469
6		0.00		-9.20		2.645e-03		53.728		1.134e-03		46.416
6		0.00		-8.80		3.179e-03		90.926		1.433e-03		46.994
6		0.00		-8.40		3.321e-03		95.338		1.142e-03		39.607
6		0.00		-8.00		3.130e-03		90.601		1.128e-03		47.636
6		0.00		-7.60		3.341e-03		87.575		1.293e-03		40.867
6		0.00		-7.20		3.137e-03		94.140		1.171e-03		48.917
6		0.00		-6.80		3.259e-03		87.606		1.400e-03		51.868
6		0.00		-6.40		3.373e-03		101.417		1.148e-03		36.792
6		0.00		-6.00		3.065e-03		93.006		1.223e-03		44.468
6		0.00		-5.60		2.990e-03		87.739		1.173e-03		50.841
6		0.00		-5.20		2.910e-03		79.101		1.162e-03		44.861
6		0.00		-4.80		2.757e-03		83.643		1.198e-03		46.455
6		0.00		-4.40		2.764e-03		73.346		1.020e-03		60.759
6		0.00		-4.00		2.998e-03		105.763		1.180e-03		38.035
6		0.00		-3.60		3.019e-03		94.674		1.249e-03		37.927
6		0.00		-3.20		2.746e-03		82.298		1.032e-03		48.156
6		0.00		-2.80		2.919e-03		91.268		1.068e-03		48.640
6		0.00		-2.40		2.916e-03		85.929		1.037e-03		51.519
6		0.00		-2.00		2.846e-03		83.855		1.183e-03		53.063
6		0.00		-1.60		2.872e-03		94.590		1.134e-03		49.803
6		0.00		-1.20		2.581e-03		90.284		1.046e-03		39.379
6		0.00		-0.80		2.982e-03		91.737		1.148e-03		55.697
6		0.00		-0.40		3.109e-03		91.614		1.139e-03		38.536
7		0.00		0.00		2.810e-03		97.561		1.019e-03		37.870
7		0.00		0.40		3.124e-03		94.290		1.262e-03		43.140
7		0.00		0.80		3.036e-03		95.635		1.038e-03		40.434
7		0.00		1.20		2.900e-03		92.790		1.127e-03		41.833
7		0.00		1.60		2.764e-03		81.649		1.161e-03		45.888
7		0.00		2.00		2.484e-03		78.865		1.134e-03		48.760
7		0.00		2.40		2.178e-03		65.364		8.373e-04		56.678
7		0.00		2.80		1.977e-03		40.136		8.295e-04		58.134
7		0.00		3.20		1.868e-03		26.465		7.483e-04		58.321
7		0.00		3.60		2.073e-03		-12.226		8.136e-04		64.819
7		0.00		4.00		2.398e-03		-43.803		9.663e-04		44.803
7		0.00		4.40		2.890e-03		-16.235		1.244e-03		41.012
7		0.00		4.80		3.487e-03		-59.919		1.262e-03		28.790
7		0.00		5.20		4.824e-03		-44.334		1.373e-03		19.761
7		0.00		5.60		5.326e-03		-47.803		1.483e-03		20.999
7		0.00		6.00		5.923e-03		-56.748		1.522e-03		15.898
7		0.00		6.40		6.334e-03		-40.034		1.540e-03		16.387
7		0.00		6.80		7.783e-03		-45.237		2.013e-03		16.510
7		0.00		7.20		8.720e-03		-52.020		1.887e-03		13.097
7		0.00		7.60		8.944e-03		-44.038		1.803e-03		13.060
7		0.00		8.00		1.042e-02		-50.130		2.406e-03		11.354
7		0.00		8.40		1.125e-02		-51.457		2.407e-03		11.397
7		0.00		8.80		1.252e-02		-48.220		2.267e-03		9.141
7		0.00		9.20		1.347e-02		-47.493		2.384e-03		11.247
7		0.00		9.60		1.409e-02		-47.945		3.088e-03		10.718
7		0.00		10.00		1.682e-02		-46.918		2.989e-03		8.482
7		0.00		9.60		1.797e-02		-48.900		3.428e-03		8.319
7		0.00		9.20		1.811e-02		-47.600		4.036e-03		8.290
7		0.00		8.80		1.826e-02		-49.353		3.043e-03		7.952
7		0.00		8.40		1.864e-02		-48.720		3.155e-03		9.710
7		0.00		8.00		1.855e-02		-50.451		4.321e-03		12.400
7		0.00		7.60		1.843e-02		-49.310		3.532e-03		9.224
7		0.00		7.20		1.868e-02		-47.717		2.960e-03		9.195
7		0.00		6.80		1.849e-02		-46.643		3.801e-03		8.852
7		0.00		6.40		1.803e-02		-49.935		4.276e-03		9.839
7		0.00		6.00		1.841e-02		-49.266		3.149e-03		7.324
7		0.00		5.60		1.826e-02		-48.860		3.819e-03		8.649
7		0.00		5.20		1.822e-02		-47.894		3.962e-03		8.768
7		0.00		4.80		1.829e-02		-51.175		2.654e-03		7.704
7		0.00		4.40		1.784e-02		-47.837		3.066e-03		8.402
7		0.00		4.00		1.763e-02		-46.480		3.624e-03		9.069
7		0.00		3.60		1.778e-02		-50.115		2.783e-03		9.499
7		0.00		3.20		1.805e-02		-44.978		2.827e-03		8.868
7		0.00		2.80		1.716e-02		-47.130		3.684e-03		10.530
7		0.00		2.40		1.745e-02		-47.913		3.299e-03		8.528
7		0.00		2.00		1.740e-02		-50.441		2.729e-03		9.140
7		0.00		1.60		1.702e-02		-47.644		3.587e-03		8.110
7		0.00		1.20		1.651e-02		-48.379		3.264e-03		8.464
7		0.00		0.80		1.692e-02		-46.445		3.062e-03		8.647
7		0.00		0.40		1.677e-02		-49.178		3.661e-03		8.838
7		0.00		0.00		1.647e-02		-48.693		4.201e-03		9.227
7		0.00		-0.40		1.660e-02		-47.705		3.122e-03		9.109
7		0.00		-0.80		1.624e-02		-48.863		3.137e-03		9.312
7		0.00		-1.20		1.618e-02		-46.753		3.947e-03		9.490
7		0.00		-1.60		1.593e-02		-48.963		3.021e-03		9.972
7		0.00		-2.00		1.571e-02		-42.631		2.771e-03		9.510
7		0.00		-2.40		1.516e-02		-48.005		3.747e-03		11.085
7		0.00		-2.80		1.504e-02		-45.959		3.209e-03		10.039
7		0.00		-3.20		1.492e-02		-46.613		2.830e-03		8.910
7		0.00		-3.60		1.396e-02		-45.537		3.391e-03		11.783
7		0.00		-4.00		1.438e-02		-46.765		2.781e-03		9.522
7		0.00		-4.40		1.379e-02		-47.192		2.395e-03		9.453
7		0.00		-4.80		1.294e-02		-45.402		2.693e-03		12.135
7		0.00		-5.20		1.227e-02		-44.545		2.571e-03		11.153
7		0.00		-5.60		1.187e-02		-45.628		1.954e-03		12.013
7		0.00		-6.00		1.133e-02		-44.992		2.281e-03		12.917
7		0.00		-6.40		1.010e-02		-43.553		2.319e-03		12.570
7		0.00		-6.80		9.339e-03		-44.243		1.754e-03		12.097
7		0.00		-7.20		8.653e-03		-48.708		1.813e-03		13.607
7		0.00		-7.60		7.351e-03		-43.715		1.943e-03		16.296
7		0.00		-8.00		6.170e-03		-35.853		1.590e-03		20.134
7		0.00		-8.40		5.077e-03		-46.077		1.447e-03		21.590
7		0.00		-8.80		3.894e-03		-44.728		1.415e-03		26.876
7		0.00		-9.20		3.169e-03		-20.736		1.064e-03		33.987
7		0.00		-9.60		1.946e-03		-13.756		9.253e-04		64.001
7		0.00		-10.00		1.869e-03		18.147		7.520e-04		66.074
7		0.00		-9.60		2.008e-03		42.769		9.614e-04		55.782
7		0.00		-9.20		2.528e-03		77.900		1.006e-03		52.967
7		0.00		-8.80		2.295e-03		68.236		8.622e-04		50.577
7		0.00		-8.40		2.545e-03		73.588		1.105e-03		53.794
7		0.00		-8.00		2.740e-03		86.130		1.162e-03		53.359
7		0.00		-7.60		3.315e-03		99.220		1.296e-03		41.009
7		0.00		-7.20		2.810e-03		78.276		1.272e-03		53.879
7		0.00		-6.80		2.775e-03		81.384		1.139e-03		41.968
7		0.00		-6.40		2.946e-03		74.059		1.067e-03		50.157
7		0.00		-6.00		3.027e-03		95.965		1.118e-03		40.225
7		0.00		-5.60		2.840e-03		90.794		1.169e-03		39.635
7		0.00		-5.20		2.806e-03		79.673		1.157e-03		54.617
7		0.00		-4.80		2.925e-03		78.612		1.098e-03		45.562
7		0.00		-4.40		2.893e-03		91.932		1.206e-03		42.352
7		0.00		-4.00		2.769e-03		80.843		1.169e-03		44.507
7		0.00		-3.60		2.839e-03		86.252		1.275e-03		46.771
7		0.00		-3.20		2.630e-03		87.928		9.607e-04		44.505
7		0.00		-2.80		2.584e-03		72.423		1.073e-03		50.425
7		0.00		-2.40		2.548e-03		74.729		1.130e-03		50.547
7		0.00		-2.00		2.619e-03		81.234		1.009e-03		45.023
7		0.00		-1.60		2.565e-03		85.384		1.198e-03		54.228
7		0.00		-1.20		2.421e-03		69.069		1.089e-03		54.255
7		0.00		-0.80		2.493e-03		77.696		1.052e-03		44.516
7		0.00		-0.40		2.569e-03		82.602		1.120e-03		44.837
8		0.00		0.00		2.476e-03		81.548		8.709e-04		55.121
8		0.00		0.40		2.458e-03		80.521		1.001e-03		51.810
8		0.00		0.80		2.797e-03		92.230		1.082e-03		41.136
8		0.00		1.20		2.571e-03		85.192		9.305e-04		49.985
8		0.00		1.60		2.496e-03		73.420		1.159e-03		53.555
8		0.00		2.00		2.551e-03		77.571		1.032e-03		47.776
8		0.00		2.40		2.250e-03		50.517		1.069e-03		60.329
8		0.00		2.80		1.955e-03		31.285		8.795e-04		74.864
8		0.00		3.20		1.968e-03		12.404		7.510e-04		58.173
8		0.00		3.60		1.990e-03		3.546		9.265e-04		55.414
8		0.00		4.00		2.397e-03		-39.526		1.118e-03		48.793
8		0.00		4.40		2.943e-03		-37.416		1.299e-03		37.790
8		0.00		4.80		3.812e-03		-33.347		1.131e-03		27.768
8		0.00		5.20		4.500e-03		-44.857		1.273e-03		20.837
8		0.00		5.60		5.192e-03		-47.596		1.500e-03		21.825
8		0.00		6.00		5.887e-03		-42.026		1.495e-03		15.442
8		0.00		6.40		7.041e-03		-46.889		1.843e-03		15.995
8		0.00		6.80		7.933e-03		-42.235		1.742e-03		14.123
8		0.00		7.20		9.001e-03		-48.450		1.514e-03		12.841
8		0.00		7.60		9.112e-03		-44.415		1.646e-03		12.595
8		0.00		8.00		9.872e-03		-45.876		2.291e-03		14.045
8		0.00		8.40		1.111e-02		-44.578		2.444e-03		12.230
8		0.00		8.80		1.206e-02		-47.394		2.150e-03		10.676
8		0.00		9.20		1.322e-02		-47.783		1.946e-03		11.751
8		0.00		9.60		1.455e-02		-48.153		3.128e-03		10.089
8		0.00		10.00		1.573e-02		-47.061		3.474e-03		12.204
8		0.00		9.60		1.758e-02		-49.251		2.952e-03		8.201
8		0.00		9.20		1.789e-02		-50.584		2.998e-03		9.210
8		0.00		8.80		1.833e-02		-50.966		3.657e-03		9.061
8		0.00		8.40		1.826e-02		-49.804		4.204e-03		9.046
8		0.00		8.00		1.855e-02		-47.563		3.266e-03		9.401
8		0.00		7.60		1.872e-02		-49.658		2.700e-03		8.998
8		0.00		7.20		1.865e-02		-46.600		3.146e-03		7.820
8		0.00		6.80		1.769e-02		-49.665		3.811e-03		10.747
8		0.00		6.40		1.815e-02		-49.116		3.476e-03		8.505
8		0.00		6.00		1.835e-02		-48.938		2.597e-03		8.294
8		0.00		5.60		1.806e-02		-48.140		2.807e-03		8.025
8		0.00		5.20		1.751e-02		-46.572		3.553e-03		8.668
8		0.00		4.80		1.766e-02		-49.371		3.708e-03		10.600
8		0.00		4.40		1.757e-02		-50.177		3.244e-03		7.947
8		0.00		4.00		1.771e-02		-51.354		2.839e-03		5.984
8		0.00		3.60		1.721e-02		-48.061		3.120e-03		7.926
8		0.00		3.20		1.670e-02		-46.154		4.051e-03		11.363
8		0.00		2.80		1.681e-02		-47.847		3.920e-03		8.309
8		0.00		2.40		1.693e-02		-48.353		3.232e-03		8.078
8		0.00		2.00		1.720e-02		-50.180		3.155e-03		7.749
8		0.00		1.60		1.635e-02		-49.086		3.298e-03		9.349
8		0.00		1.20		1.617e-02		-47.563		3.820e-03		10.633
8		0.00		0.80		1.624e-02		-47.932		3.938e-03		9.151
8		0.00		0.40		1.628e-02		-47.897		2.875e-03		9.074
8		0.00		0.00		1.618e-02		-47.353		3.134e-03		9.521
8		0.00		-0.40		1.559e-02		-46.904		3.354e-03		10.875
8		0.00		-0.80		1.564e-02		-47.833		3.528e-03		10.857
8		0.00		-1.20		1.580e-02		-48.646		2.870e-03		8.525
8		0.00		-1.60		1.625e-02		-48.741		2.604e-03		7.821
8		0.00		-2.00		1.615e-02		-45.588		2.501e-03		8.955
8		0.00		-2.40		1.524e-02		-45.848		2.867e-03		9.197
8		0.00		-2.80		1.471e-02		-44.173		3.327e-03		10.252
8		0.00		-3.20		1.473e-02		-46.926		2.462e-03		10.979
8		0.00		-3.60		1.455e-02		-44.999		2.382e-03		8.696
8		0.00		-4.00		1.360e-02		-46.253		2.415e-03		11.324
8		0.00		-4.40		1.339e-02		-45.582		2.853e-03		12.509
8		0.00		-4.80		1.268e-02		-46.861		2.590e-03		10.294
8		0.00		-5.20		1.243e-02		-48.081		1.951e-03		10.550
8		0.00		-5.60		1.166e-02		-49.779		1.887e-03		10.586
8		0.00		-6.00		1.111e-02		-43.730		2.285e-03		12.450
8		0.00		-6.40		1.004e-02		-42.838		2.457e-03		11.912
8		0.00		-6.80		9.364e-03		-44.190		2.120e-03		13.907
8		0.00		-7.20		8.691e-03		-37.169		1.802e-03		13.578
8		0.00		-7.60		7.680e-03		-41.263		1.640e-03		15.646
8		0.00		-8.00		6.469e-03		-39.409		1.737e-03		13.984
8		0.00		-8.40		4.870e-03		-48.053		1.648e-03		19.671
8		0.00		-8.80		4.093e-03		-40.757		1.420e-03		25.449
8		0.00		-9.20		3.080e-03		-45.719		1.172e-03		30.709
8		0.00		-9.60		2.365e-03		-6.238		1.052e-03		45.094
8		0.00		-10.00		2.109e-03		11.145		8.425e-04		61.692
8		0.00		-9.60		2.120e-03		35.981		7.297e-04		62.379
8		0.00		-9.20		2.479e-03		66.271		1.143e-03		57.525
8		0.00		-8.80		2.087e-03		47.355		9.884e-04		69.026
8		0.00		-8.40		2.801e-03		87.184		1.089e-03		45.186
8		0.00		-8.00		2.568e-03		82.960		1.026e-03		51.830
8		0.00		-7.60		2.788e-03		86.708		1.217e-03		33.549
8		0.00		-7.20		2.725e-03		79.183		1.192e-03		53.928
8		0.00		-6.80		2.693e-03		81.245		1.064e-03		49.537
8		0.00		-6.40		2.420e-03		62.460		1.005e-03		62.503
8		0.00		-6.00		2.499e-03		64.227		1.029e-03		57.948
8		0.00		-5.60		2.451e-03		84.167		9.777e-04		49.991
8		0.00		-5.20		2.573e-03		76.072		1.042e-03		60.542
8		0.00		-4.80		2.583e-03		95.358		1.067e-03		47.126
8		0.00		-4.40		2.079e-03		53.559		8.457e-04		62.737
8		0.00		-4.00		2.412e-03		70.156		1.070e-03		59.795
8		0.00		-3.60		2.406e-03		78.392		9.445e-04		44.986
8		0.00		-3.20		2.287e-03		71.801		1.012e-03		55.637
8		0.00		-2.80		2.403e-03		67.417		9.406e-04		54.405
8		0.00		-2.40		2.578e-03		72.682		1.029e-03		45.802
8		0.00		-2.00		2.523e-03		88.384		1.019e-03		48.726
8		0.00		-1.60		2.685e-03		76.791		9.574e-04		43.001
8		0.00		-1.20		2.539e-03		78.726		1.058e-03		47.170
8		0.00		-0.80		2.511e-03		84.413		1.041e-03		45.275
8		0.00		-0.40		2.749e-03		85.437		1.062e-03		52.243
