# Date of analysis: 2023-11-20 16;16
# 
# Loop index	Read Volt (V)	Write Volt (V)	Amplitude (a.u)	Phase (deg)	Sigma Amp (a.u)	Sigma Pha (deg)	
1		0.00		0.00		1.987e-02		-52.754		4.878e-03		13.967
1		0.00		0.40		1.950e-02		-50.622		5.045e-03		12.568
1		0.00		0.80		1.992e-02		-48.202		5.355e-03		11.832
1		0.00		1.20		1.970e-02		-50.149		5.306e-03		13.313
1		0.00		1.60		1.983e-02		-54.442		4.882e-03		13.494
1		0.00		2.00		1.973e-02		-53.352		4.842e-03		14.099
1		0.00		2.40		1.930e-02		-52.935		5.541e-03		16.889
1		0.00		2.80		1.907e-02		-52.349		5.369e-03		17.791
1		0.00		3.20		1.921e-02		-49.790		5.899e-03		17.478
1		0.00		3.60		1.964e-02		-49.231		5.983e-03		14.238
1		0.00		4.00		1.988e-02		-53.261		5.642e-03		12.344
1		0.00		4.40		2.077e-02		-54.535		5.412e-03		14.120
1		0.00		4.80		2.056e-02		-54.080		5.139e-03		14.734
1		0.00		5.20		2.161e-02		-55.207		5.660e-03		15.353
1		0.00		5.60		2.155e-02		-55.765		5.930e-03		16.357
1		0.00		6.00		2.181e-02		-52.968		5.683e-03		16.130
1		0.00		6.40		2.261e-02		-49.614		5.909e-03		16.127
1		0.00		6.80		2.306e-02		-52.167		6.624e-03		14.428
1		0.00		7.20		2.443e-02		-52.443		6.553e-03		12.347
1		0.00		7.60		2.544e-02		-53.643		6.128e-03		11.983
1		0.00		8.00		2.721e-02		-52.243		5.791e-03		13.053
1		0.00		8.40		2.771e-02		-54.729		6.647e-03		13.408
1		0.00		8.80		2.789e-02		-52.388		6.808e-03		15.151
1		0.00		9.20		3.020e-02		-52.228		8.341e-03		12.847
1		0.00		9.60		3.191e-02		-50.151		9.169e-03		13.937
1		0.00		10.00		3.303e-02		-51.513		1.039e-02		13.727
1		0.00		9.60		3.485e-02		-53.507		1.083e-02		10.344
1		0.00		9.20		3.546e-02		-52.992		9.784e-03		9.879
1		0.00		8.80		3.652e-02		-53.254		8.994e-03		12.564
1		0.00		8.40		3.630e-02		-54.579		8.845e-03		13.063
1		0.00		8.00		3.604e-02		-55.179		9.173e-03		14.301
1		0.00		7.60		3.527e-02		-54.286		9.520e-03		15.382
1		0.00		7.20		3.479e-02		-52.906		1.002e-02		15.431
1		0.00		6.80		3.373e-02		-51.700		9.820e-03		13.964
1		0.00		6.40		3.403e-02		-52.238		1.027e-02		14.165
1		0.00		6.00		3.471e-02		-53.308		8.723e-03		10.272
1		0.00		5.60		3.506e-02		-52.945		8.487e-03		11.244
1		0.00		5.20		3.434e-02		-54.831		7.804e-03		11.536
1		0.00		4.80		3.284e-02		-55.639		8.068e-03		14.684
1		0.00		4.40		3.252e-02		-53.900		8.121e-03		14.857
1		0.00		4.00		3.165e-02		-53.678		8.644e-03		16.745
1		0.00		3.60		3.128e-02		-49.591		9.145e-03		19.277
1		0.00		3.20		3.165e-02		-52.371		8.918e-03		13.679
1		0.00		2.80		3.211e-02		-51.840		8.729e-03		10.896
1		0.00		2.40		3.225e-02		-53.638		7.864e-03		11.100
1		0.00		2.00		3.224e-02		-53.778		7.777e-03		12.706
1		0.00		1.60		3.120e-02		-55.340		8.132e-03		14.201
1		0.00		1.20		3.045e-02		-55.467		8.997e-03		16.411
1		0.00		0.80		2.986e-02		-53.758		9.224e-03		15.202
1		0.00		0.40		3.002e-02		-51.413		9.951e-03		11.956
1		0.00		0.00		2.973e-02		-51.223		9.882e-03		11.895
1		0.00		-0.40		3.040e-02		-52.587		9.153e-03		11.262
1		0.00		-0.80		3.033e-02		-53.522		8.070e-03		12.880
1		0.00		-1.20		2.999e-02		-55.295		7.941e-03		14.868
1		0.00		-1.60		2.931e-02		-57.778		7.903e-03		14.813
1		0.00		-2.00		2.948e-02		-55.294		7.589e-03		15.081
1		0.00		-2.40		2.813e-02		-54.327		7.320e-03		16.204
1		0.00		-2.80		2.681e-02		-50.367		7.163e-03		12.765
1		0.00		-3.20		2.594e-02		-50.237		6.932e-03		13.479
1		0.00		-3.60		2.438e-02		-51.937		6.545e-03		11.714
1		0.00		-4.00		2.287e-02		-50.946		5.733e-03		12.619
1		0.00		-4.40		2.017e-02		-54.128		4.448e-03		12.667
1		0.00		-4.80		1.746e-02		-52.257		3.886e-03		14.820
1		0.00		-5.20		1.411e-02		-49.733		2.755e-03		16.314
1		0.00		-5.60		1.164e-02		-46.157		2.701e-03		12.670
1		0.00		-6.00		9.255e-03		-44.708		2.447e-03		15.101
1		0.00		-6.40		6.234e-03		-38.448		2.018e-03		21.086
1		0.00		-6.80		3.545e-03		-20.093		1.453e-03		31.445
1		0.00		-7.20		2.731e-03		33.855		1.279e-03		60.428
1		0.00		-7.60		3.345e-03		76.346		1.505e-03		57.288
1		0.00		-8.00		4.904e-03		99.336		2.024e-03		41.800
1		0.00		-8.40		7.034e-03		108.653		2.724e-03		36.329
1		0.00		-8.80		9.142e-03		114.976		3.052e-03		29.076
1		0.00		-9.20		1.021e-02		119.614		3.271e-03		17.792
1		0.00		-9.60		1.082e-02		121.734		3.584e-03		20.437
1		0.00		-10.00		1.185e-02		113.061		3.996e-03		27.402
1		0.00		-9.60		1.224e-02		117.143		3.988e-03		31.078
1		0.00		-9.20		1.298e-02		123.340		4.347e-03		15.241
1		0.00		-8.80		1.347e-02		121.942		4.286e-03		12.969
1		0.00		-8.40		1.323e-02		123.835		3.684e-03		10.944
1		0.00		-8.00		1.383e-02		122.807		3.702e-03		15.840
1		0.00		-7.60		1.330e-02		120.803		3.450e-03		12.436
1		0.00		-7.20		1.233e-02		122.030		3.469e-03		14.663
1		0.00		-6.80		1.186e-02		120.609		3.521e-03		19.910
1		0.00		-6.40		1.173e-02		119.617		3.201e-03		23.370
1		0.00		-6.00		1.101e-02		117.558		3.627e-03		24.414
1		0.00		-5.60		1.096e-02		122.054		3.497e-03		16.622
1		0.00		-5.20		1.084e-02		121.490		3.297e-03		12.179
1		0.00		-4.80		1.042e-02		120.928		3.008e-03		15.093
1		0.00		-4.40		9.785e-03		120.060		2.880e-03		15.794
1		0.00		-4.00		9.526e-03		121.175		2.769e-03		15.820
1		0.00		-3.60		9.009e-03		116.993		2.860e-03		17.974
1		0.00		-3.20		8.798e-03		116.259		2.974e-03		27.492
1		0.00		-2.80		8.283e-03		116.865		2.869e-03		33.991
1		0.00		-2.40		7.470e-03		116.109		2.744e-03		35.444
1		0.00		-2.00		8.019e-03		119.366		2.551e-03		18.704
1		0.00		-1.60		7.520e-03		118.359		2.562e-03		27.016
1		0.00		-1.20		7.667e-03		121.442		2.382e-03		17.118
1		0.00		-0.80		6.768e-03		116.651		2.408e-03		22.702
1		0.00		-0.40		6.877e-03		119.152		2.135e-03		17.416
2		0.00		0.00		6.277e-03		118.896		2.130e-03		23.092
2		0.00		0.40		5.976e-03		113.251		2.013e-03		31.732
2		0.00		0.80		5.443e-03		113.655		2.135e-03		34.730
2		0.00		1.20		5.418e-03		115.996		1.997e-03		30.695
2		0.00		1.60		4.723e-03		117.151		1.795e-03		37.078
2		0.00		2.00		3.944e-03		115.474		1.501e-03		34.685
2		0.00		2.40		3.322e-03		94.971		1.305e-03		55.120
2		0.00		2.80		2.933e-03		79.369		1.275e-03		67.530
2		0.00		3.20		2.122e-03		44.788		7.879e-04		79.553
2		0.00		3.60		1.960e-03		27.601		9.708e-04		75.371
2		0.00		4.00		1.929e-03		-13.879		8.378e-04		71.545
2		0.00		4.40		1.990e-03		-32.283		8.756e-04		58.514
2		0.00		4.80		2.555e-03		-40.037		1.196e-03		40.866
2		0.00		5.20		3.705e-03		-63.035		1.416e-03		30.020
2		0.00		5.60		4.647e-03		-46.332		1.223e-03		26.465
2		0.00		6.00		5.849e-03		-49.565		1.683e-03		22.394
2		0.00		6.40		6.555e-03		-47.211		1.865e-03		21.972
2		0.00		6.80		7.918e-03		-53.221		2.313e-03		19.923
2		0.00		7.20		9.452e-03		-54.677		2.743e-03		17.709
2		0.00		7.60		1.124e-02		-53.363		3.058e-03		14.318
2		0.00		8.00		1.379e-02		-55.507		3.291e-03		17.022
2		0.00		8.40		1.619e-02		-56.141		3.518e-03		14.883
2		0.00		8.80		1.818e-02		-54.260		4.697e-03		14.726
2		0.00		9.20		2.068e-02		-53.601		5.264e-03		15.772
2		0.00		9.60		2.291e-02		-54.453		6.294e-03		17.055
2		0.00		10.00		2.528e-02		-52.999		7.446e-03		17.039
2		0.00		9.60		2.703e-02		-52.021		7.764e-03		13.066
2		0.00		9.20		2.894e-02		-51.539		7.990e-03		10.539
2		0.00		8.80		2.937e-02		-53.439		7.346e-03		11.005
2		0.00		8.40		2.918e-02		-55.449		7.291e-03		12.682
2		0.00		8.00		2.840e-02		-55.218		7.704e-03		14.547
2		0.00		7.60		2.848e-02		-54.702		8.280e-03		15.701
2		0.00		7.20		2.728e-02		-54.402		8.500e-03		15.545
2		0.00		6.80		2.744e-02		-52.114		8.978e-03		14.458
2		0.00		6.40		2.701e-02		-52.542		8.640e-03		11.870
2		0.00		6.00		2.729e-02		-53.766		8.413e-03		11.224
2		0.00		5.60		2.782e-02		-55.502		7.765e-03		11.859
2		0.00		5.20		2.746e-02		-55.402		7.398e-03		13.654
2		0.00		4.80		2.653e-02		-56.198		7.471e-03		15.507
2		0.00		4.40		2.615e-02		-55.366		6.782e-03		16.444
2		0.00		4.00		2.638e-02		-54.351		7.145e-03		17.554
2		0.00		3.60		2.600e-02		-50.707		7.129e-03		13.510
2		0.00		3.20		2.622e-02		-50.981		7.479e-03		12.628
2		0.00		2.80		2.635e-02		-53.126		6.925e-03		11.314
2		0.00		2.40		2.635e-02		-52.607		6.135e-03		12.431
2		0.00		2.00		2.629e-02		-52.891		5.914e-03		13.769
2		0.00		1.60		2.478e-02		-53.465		6.490e-03		16.296
2		0.00		1.20		2.509e-02		-52.493		6.843e-03		15.462
2		0.00		0.80		2.459e-02		-51.948		7.093e-03		15.134
2		0.00		0.40		2.453e-02		-50.414		7.350e-03		19.961
2		0.00		0.00		2.458e-02		-52.887		7.601e-03		14.074
2		0.00		-0.40		2.458e-02		-54.078		7.360e-03		11.958
2		0.00		-0.80		2.493e-02		-54.847		6.443e-03		12.180
2		0.00		-1.20		2.485e-02		-54.083		6.159e-03		14.429
2		0.00		-1.60		2.474e-02		-54.033		6.028e-03		14.103
2		0.00		-2.00		2.392e-02		-55.336		6.327e-03		15.157
2		0.00		-2.40		2.274e-02		-52.804		6.267e-03		13.775
2		0.00		-2.80		2.178e-02		-52.358		6.514e-03		16.154
2		0.00		-3.20		2.100e-02		-53.161		6.420e-03		13.894
2		0.00		-3.60		2.002e-02		-49.850		6.156e-03		14.194
2		0.00		-4.00		1.897e-02		-52.181		5.244e-03		12.599
2		0.00		-4.40		1.764e-02		-54.006		4.338e-03		12.913
2		0.00		-4.80		1.549e-02		-56.101		3.859e-03		15.110
2		0.00		-5.20		1.262e-02		-55.817		3.210e-03		16.251
2		0.00		-5.60		1.011e-02		-50.810		2.614e-03		17.392
2		0.00		-6.00		7.426e-03		-47.170		2.193e-03		21.128
2		0.00		-6.40		4.789e-03		-33.692		1.546e-03		28.691
2		0.00		-6.80		2.686e-03		-25.036		1.190e-03		45.843
2		0.00		-7.20		2.466e-03		63.205		1.142e-03		67.987
2		0.00		-7.60		5.057e-03		108.069		1.933e-03		41.923
2		0.00		-8.00		6.983e-03		117.613		2.535e-03		31.832
2		0.00		-8.40		8.656e-03		118.073		2.982e-03		19.497
2		0.00		-8.80		9.876e-03		118.654		3.586e-03		21.661
2		0.00		-9.20		1.055e-02		115.836		4.011e-03		27.594
2		0.00		-9.60		1.168e-02		114.764		4.361e-03		35.530
2		0.00		-10.00		1.277e-02		114.928		4.923e-03		37.428
2		0.00		-9.60		1.321e-02		119.682		4.777e-03		21.881
2		0.00		-9.20		1.334e-02		118.741		4.749e-03		22.355
2		0.00		-8.80		1.347e-02		118.833		4.419e-03		16.589
2		0.00		-8.40		1.321e-02		119.404		4.556e-03		18.822
2		0.00		-8.00		1.291e-02		120.360		4.053e-03		15.935
2		0.00		-7.60		1.307e-02		121.264		4.035e-03		17.035
2		0.00		-7.20		1.220e-02		120.523		3.945e-03		22.803
2		0.00		-6.80		1.194e-02		118.328		3.914e-03		28.283
2		0.00		-6.40		1.183e-02		118.057		4.236e-03		23.777
2		0.00		-6.00		1.162e-02		123.123		3.873e-03		14.582
2		0.00		-5.60		1.157e-02		121.721		3.575e-03		17.359
2		0.00		-5.20		1.117e-02		122.213		3.364e-03		16.299
2		0.00		-4.80		1.059e-02		123.411		3.261e-03		13.839
2		0.00		-4.40		1.027e-02		121.184		3.289e-03		16.534
2		0.00		-4.00		9.862e-03		122.441		2.971e-03		17.500
2		0.00		-3.60		9.808e-03		119.429		3.400e-03		27.700
2		0.00		-3.20		9.291e-03		117.601		3.181e-03		32.521
2		0.00		-2.80		9.038e-03		117.797		2.976e-03		23.324
2		0.00		-2.40		8.870e-03		126.267		2.728e-03		15.524
2		0.00		-2.00		9.061e-03		124.963		2.842e-03		14.311
2		0.00		-1.60		8.595e-03		122.894		2.703e-03		20.190
2		0.00		-1.20		8.471e-03		122.153		2.513e-03		15.984
2		0.00		-0.80		8.235e-03		121.068		2.273e-03		14.251
2		0.00		-0.40		7.905e-03		117.504		2.644e-03		22.511
3		0.00		0.00		7.527e-03		115.799		2.583e-03		28.199
3		0.00		0.40		7.492e-03		122.347		2.522e-03		28.164
3		0.00		0.80		6.985e-03		119.845		2.275e-03		33.079
3		0.00		1.20		6.721e-03		120.210		2.445e-03		33.208
3		0.00		1.60		6.362e-03		123.573		1.902e-03		20.866
3		0.00		2.00		5.469e-03		123.929		1.980e-03		19.459
3		0.00		2.40		4.675e-03		119.179		1.637e-03		28.139
3		0.00		2.80		4.115e-03		122.711		1.526e-03		22.109
3		0.00		3.20		3.337e-03		98.107		1.361e-03		65.184
3		0.00		3.60		2.729e-03		95.907		9.872e-04		51.091
3		0.00		4.00		2.358e-03		52.239		1.101e-03		76.433
3		0.00		4.40		1.839e-03		12.288		7.549e-04		77.277
3		0.00		4.80		1.880e-03		-15.818		7.944e-04		78.058
3		0.00		5.20		2.680e-03		-46.549		1.071e-03		46.767
3		0.00		5.60		3.020e-03		-61.364		1.210e-03		41.422
3		0.00		6.00		3.907e-03		-51.617		1.283e-03		30.040
3		0.00		6.40		5.636e-03		-52.306		1.848e-03		21.371
3		0.00		6.80		6.505e-03		-57.129		1.703e-03		22.652
3		0.00		7.20		8.451e-03		-56.044		2.420e-03		17.143
3		0.00		7.60		9.557e-03		-57.238		2.692e-03		21.146
3		0.00		8.00		1.098e-02		-55.686		3.196e-03		19.190
3		0.00		8.40		1.336e-02		-53.657		3.862e-03		20.113
3		0.00		8.80		1.608e-02		-54.475		4.728e-03		17.667
3		0.00		9.20		1.848e-02		-54.770		5.766e-03		16.870
3		0.00		9.60		2.135e-02		-54.670		6.559e-03		13.604
3		0.00		10.00		2.386e-02		-53.932		7.267e-03		12.192
3		0.00		9.60		2.519e-02		-52.645		7.187e-03		11.404
3		0.00		9.20		2.643e-02		-54.143		6.901e-03		12.412
3		0.00		8.80		2.711e-02		-53.013		6.747e-03		12.112
3		0.00		8.40		2.731e-02		-54.282		6.669e-03		12.795
3		0.00		8.00		2.690e-02		-54.721		6.837e-03		13.926
3		0.00		7.60		2.689e-02		-54.472		6.643e-03		13.736
3		0.00		7.20		2.657e-02		-53.546		7.358e-03		13.588
3		0.00		6.80		2.616e-02		-54.858		7.787e-03		14.915
3		0.00		6.40		2.602e-02		-52.498		8.198e-03		16.501
3		0.00		6.00		2.574e-02		-51.015		8.139e-03		11.995
3		0.00		5.60		2.569e-02		-52.340		7.968e-03		11.800
3		0.00		5.20		2.601e-02		-53.541		7.930e-03		11.639
3		0.00		4.80		2.622e-02		-53.895		7.380e-03		11.979
3		0.00		4.40		2.616e-02		-53.479		6.688e-03		10.656
3		0.00		4.00		2.562e-02		-53.473		6.429e-03		12.257
3		0.00		3.60		2.464e-02		-53.488		6.403e-03		13.966
3		0.00		3.20		2.416e-02		-54.152		6.150e-03		14.308
3		0.00		2.80		2.402e-02		-52.920		6.347e-03		16.538
3		0.00		2.40		2.368e-02		-53.078		6.373e-03		14.295
3		0.00		2.00		2.341e-02		-49.700		6.464e-03		15.918
3		0.00		1.60		2.339e-02		-50.728		6.746e-03		13.633
3		0.00		1.20		2.374e-02		-51.704		6.872e-03		11.798
3		0.00		0.80		2.418e-02		-53.398		6.685e-03		10.662
3		0.00		0.40		2.448e-02		-53.842		6.011e-03		10.776
3		0.00		0.00		2.458e-02		-53.274		5.985e-03		11.665
3		0.00		-0.40		2.368e-02		-55.019		6.040e-03		13.962
3		0.00		-0.80		2.386e-02		-53.937		6.525e-03		15.299
3		0.00		-1.20		2.256e-02		-54.099		6.714e-03		16.301
3		0.00		-1.60		2.218e-02		-55.420		7.021e-03		19.025
3		0.00		-2.00		2.153e-02		-55.376		6.957e-03		20.861
3		0.00		-2.40		2.119e-02		-51.093		6.674e-03		20.572
3		0.00		-2.80		2.109e-02		-51.775		6.931e-03		13.587
3		0.00		-3.20		2.071e-02		-54.753		6.387e-03		11.840
3		0.00		-3.60		1.998e-02		-55.346		5.572e-03		10.825
3		0.00		-4.00		1.845e-02		-55.263		4.977e-03		14.096
3		0.00		-4.40		1.689e-02		-57.637		4.287e-03		15.069
3		0.00		-4.80		1.464e-02		-52.398		3.682e-03		14.916
3		0.00		-5.20		1.301e-02		-53.648		3.165e-03		15.965
3		0.00		-5.60		1.078e-02		-49.732		2.917e-03		15.805
3		0.00		-6.00		7.610e-03		-51.065		2.341e-03		19.739
3		0.00		-6.40		4.775e-03		-54.219		1.589e-03		21.747
3		0.00		-6.80		2.250e-03		-17.692		9.208e-04		52.781
3		0.00		-7.20		3.380e-03		84.844		1.301e-03		53.078
3		0.00		-7.60		5.391e-03		113.565		2.237e-03		41.474
3		0.00		-8.00		7.181e-03		113.540		2.394e-03		27.601
3		0.00		-8.40		9.196e-03		117.997		2.960e-03		23.063
3		0.00		-8.80		1.016e-02		121.944		2.929e-03		16.559
3		0.00		-9.20		1.107e-02		122.340		3.399e-03		16.207
3		0.00		-9.60		1.280e-02		120.170		4.145e-03		16.319
3		0.00		-10.00		1.401e-02		119.697		4.664e-03		23.328
3		0.00		-9.60		1.443e-02		120.484		4.688e-03		24.344
3		0.00		-9.20		1.481e-02		123.430		4.748e-03		14.533
3		0.00		-8.80		1.497e-02		123.625		4.727e-03		11.445
3		0.00		-8.40		1.499e-02		121.184		4.170e-03		11.847
3		0.00		-8.00		1.439e-02		122.985		3.801e-03		11.577
3		0.00		-7.60		1.425e-02		121.499		3.875e-03		13.487
3		0.00		-7.20		1.354e-02		122.119		3.707e-03		13.881
3		0.00		-6.80		1.322e-02		120.086		3.816e-03		17.237
3		0.00		-6.40		1.227e-02		123.029		3.576e-03		22.521
3		0.00		-6.00		1.233e-02		121.330		3.722e-03		24.916
3		0.00		-5.60		1.209e-02		120.559		3.638e-03		26.062
3		0.00		-5.20		1.208e-02		121.933		3.661e-03		13.700
3		0.00		-4.80		1.217e-02		122.666		3.300e-03		15.826
3		0.00		-4.40		1.111e-02		119.078		3.052e-03		14.602
3		0.00		-4.00		1.099e-02		123.640		2.707e-03		11.339
3		0.00		-3.60		1.055e-02		123.721		2.996e-03		16.071
3		0.00		-3.20		1.033e-02		121.127		3.051e-03		21.128
3		0.00		-2.80		9.460e-03		121.265		3.096e-03		27.232
3		0.00		-2.40		9.235e-03		124.310		2.923e-03		24.771
3		0.00		-2.00		9.100e-03		126.040		3.009e-03		13.919
3		0.00		-1.60		8.947e-03		120.347		2.956e-03		15.689
3		0.00		-1.20		8.396e-03		118.724		2.603e-03		17.422
3		0.00		-0.80		8.227e-03		122.386		2.256e-03		14.921
3		0.00		-0.40		8.182e-03		123.485		2.444e-03		18.161
4		0.00		0.00		7.871e-03		120.847		2.588e-03		24.061
4		0.00		0.40		7.629e-03		119.870		2.733e-03		27.009
4		0.00		0.80		7.064e-03		115.296		2.605e-03		35.700
4		0.00		1.20		6.918e-03		123.778		2.523e-03		23.026
4		0.00		1.60		6.285e-03		121.056		2.256e-03		23.124
4		0.00		2.00		5.673e-03		116.861		1.986e-03		20.686
4		0.00		2.40		5.036e-03		118.708		1.617e-03		21.046
4		0.00		2.80		4.415e-03		118.391		1.617e-03		31.610
4		0.00		3.20		3.686e-03		111.766		1.318e-03		42.946
4		0.00		3.60		2.947e-03		94.915		1.290e-03		61.524
4		0.00		4.00		2.424e-03		61.331		1.055e-03		78.329
4		0.00		4.40		1.932e-03		17.671		7.216e-04		90.466
4		0.00		4.80		1.782e-03		-0.758		6.611e-04		78.686
4		0.00		5.20		2.056e-03		-47.604		7.718e-04		65.905
4		0.00		5.60		2.561e-03		-61.978		9.784e-04		46.900
4		0.00		6.00		3.055e-03		-56.622		1.236e-03		31.448
4		0.00		6.40		4.438e-03		-44.579		1.512e-03		29.287
4		0.00		6.80		5.457e-03		-53.387		1.813e-03		26.003
4		0.00		7.20		7.405e-03		-50.842		2.219e-03		16.964
4		0.00		7.60		8.847e-03		-56.529		2.442e-03		18.172
4		0.00		8.00		1.089e-02		-57.590		2.781e-03		15.294
4		0.00		8.40		1.362e-02		-55.477		3.845e-03		14.943
4		0.00		8.80		1.532e-02		-55.376		4.387e-03		17.543
4		0.00		9.20		1.746e-02		-55.913		5.382e-03		17.203
4		0.00		9.60		1.943e-02		-49.888		6.151e-03		14.597
4		0.00		10.00		2.175e-02		-53.100		6.201e-03		11.449
4		0.00		9.60		2.368e-02		-53.857		6.126e-03		10.403
4		0.00		9.20		2.462e-02		-53.761		6.210e-03		13.069
4		0.00		8.80		2.428e-02		-55.413		6.041e-03		14.067
4		0.00		8.40		2.431e-02		-54.225		6.694e-03		16.179
4		0.00		8.00		2.367e-02		-51.192		6.737e-03		18.587
4		0.00		7.60		2.406e-02		-52.498		6.966e-03		15.943
4		0.00		7.20		2.439e-02		-53.640		6.950e-03		11.035
4		0.00		6.80		2.503e-02		-54.551		6.345e-03		10.524
4		0.00		6.40		2.440e-02		-54.241		5.955e-03		13.189
4		0.00		6.00		2.318e-02		-55.568		6.363e-03		16.272
4		0.00		5.60		2.283e-02		-53.121		6.915e-03		16.981
4		0.00		5.20		2.239e-02		-55.526		7.180e-03		17.957
4		0.00		4.80		2.240e-02		-49.727		7.424e-03		21.298
4		0.00		4.40		2.294e-02		-54.424		6.823e-03		13.112
4		0.00		4.00		2.260e-02		-56.190		6.044e-03		13.022
4		0.00		3.60		2.228e-02		-55.031		5.997e-03		14.938
4		0.00		3.20		2.131e-02		-56.574		6.117e-03		16.335
4		0.00		2.80		2.092e-02		-56.302		6.520e-03		19.781
4		0.00		2.40		2.056e-02		-51.165		6.730e-03		15.456
4		0.00		2.00		2.101e-02		-53.518		6.579e-03		14.551
4		0.00		1.60		2.084e-02		-54.865		6.034e-03		11.535
4		0.00		1.20		2.180e-02		-52.714		5.118e-03		13.117
4		0.00		0.80		2.180e-02		-55.154		5.367e-03		13.464
4		0.00		0.40		2.155e-02		-55.608		5.831e-03		14.557
4		0.00		0.00		2.115e-02		-52.534		5.952e-03		17.726
4		0.00		-0.40		2.085e-02		-50.739		5.977e-03		20.778
4		0.00		-0.80		2.100e-02		-53.728		6.039e-03		12.385
4		0.00		-1.20		2.132e-02		-53.425		5.577e-03		11.731
4		0.00		-1.60		2.118e-02		-51.911		5.201e-03		11.822
4		0.00		-2.00		2.084e-02		-54.265		5.448e-03		15.348
4		0.00		-2.40		2.026e-02		-51.290		5.252e-03		14.548
4		0.00		-2.80		1.925e-02		-50.700		5.854e-03		16.436
4		0.00		-3.20		1.848e-02		-51.507		5.723e-03		16.693
4		0.00		-3.60		1.806e-02		-51.163		5.140e-03		12.586
4		0.00		-4.00		1.705e-02		-55.299		4.123e-03		12.902
4		0.00		-4.40		1.575e-02		-54.547		3.962e-03		14.693
4		0.00		-4.80		1.411e-02		-54.722		4.149e-03		15.261
4		0.00		-5.20		1.212e-02		-49.013		3.659e-03		18.714
4		0.00		-5.60		1.012e-02		-55.128		3.247e-03		19.568
4		0.00		-6.00		7.516e-03		-48.166		2.299e-03		16.687
4		0.00		-6.40		5.238e-03		-46.709		1.413e-03		23.093
4		0.00		-6.80		2.572e-03		-17.654		9.950e-04		48.584
4		0.00		-7.20		2.347e-03		73.988		1.074e-03		62.758
4		0.00		-7.60		5.031e-03		108.575		1.841e-03		39.013
4		0.00		-8.00		6.414e-03		113.413		2.416e-03		29.632
4		0.00		-8.40		8.508e-03		116.125		3.061e-03		22.423
4		0.00		-8.80		1.027e-02		118.673		3.047e-03		22.104
4		0.00		-9.20		1.210e-02		124.569		3.116e-03		12.224
4		0.00		-9.60		1.272e-02		125.924		3.315e-03		14.753
4		0.00		-10.00		1.421e-02		121.780		4.152e-03		19.672
4		0.00		-9.60		1.420e-02		121.052		4.435e-03		24.332
4		0.00		-9.20		1.512e-02		120.623		4.817e-03		12.617
4		0.00		-8.80		1.473e-02		125.050		4.291e-03		10.569
4		0.00		-8.40		1.484e-02		124.371		4.057e-03		14.081
4		0.00		-8.00		1.424e-02		122.140		4.328e-03		15.801
4		0.00		-7.60		1.401e-02		121.400		4.567e-03		23.653
4		0.00		-7.20		1.364e-02		117.237		4.404e-03		25.666
4		0.00		-6.80		1.386e-02		123.782		4.577e-03		20.416
4		0.00		-6.40		1.319e-02		124.018		4.328e-03		14.334
4		0.00		-6.00		1.291e-02		118.286		3.657e-03		15.668
4		0.00		-5.60		1.271e-02		121.776		3.740e-03		13.351
4		0.00		-5.20		1.167e-02		124.915		3.466e-03		16.817
4		0.00		-4.80		1.138e-02		119.191		3.517e-03		21.833
4		0.00		-4.40		1.110e-02		120.660		3.700e-03		27.116
4		0.00		-4.00		1.084e-02		122.063		3.378e-03		16.262
4		0.00		-3.60		1.046e-02		123.003		2.940e-03		13.548
4		0.00		-3.20		1.046e-02		124.065		2.878e-03		13.269
4		0.00		-2.80		1.053e-02		119.522		3.087e-03		14.806
4		0.00		-2.40		9.837e-03		119.676		2.865e-03		19.480
4		0.00		-2.00		9.296e-03		122.166		3.026e-03		25.997
4		0.00		-1.60		9.361e-03		121.050		3.101e-03		28.266
4		0.00		-1.20		9.085e-03		127.227		2.993e-03		16.502
4		0.00		-0.80		9.151e-03		123.111		2.885e-03		15.711
4		0.00		-0.40		9.073e-03		126.440		2.480e-03		11.798
5		0.00		0.00		8.675e-03		124.450		2.289e-03		16.734
5		0.00		0.40		8.295e-03		126.256		2.597e-03		20.834
5		0.00		0.80		7.793e-03		120.584		2.387e-03		32.541
5		0.00		1.20		7.615e-03		120.503		2.486e-03		31.975
5		0.00		1.60		7.153e-03		124.884		2.340e-03		19.107
5		0.00		2.00		6.395e-03		125.516		1.867e-03		20.528
5		0.00		2.40		5.927e-03		122.740		2.122e-03		18.031
5		0.00		2.80		4.893e-03		122.143		1.695e-03		21.595
5		0.00		3.20		4.099e-03		107.962		1.617e-03		46.742
5		0.00		3.60		3.512e-03		102.068		1.435e-03		51.416
5		0.00		4.00		2.706e-03		85.253		1.189e-03		71.185
5		0.00		4.40		2.503e-03		65.423		1.084e-03		92.552
5		0.00		4.80		2.010e-03		13.221		8.893e-04		88.108
5		0.00		5.20		1.703e-03		-28.328		6.189e-04		82.071
5		0.00		5.60		1.836e-03		-58.741		6.790e-04		62.127
5		0.00		6.00		2.739e-03		-54.223		1.196e-03		49.374
5		0.00		6.40		3.520e-03		-44.435		1.273e-03		34.625
5		0.00		6.80		5.272e-03		-56.173		1.667e-03		21.052
5		0.00		7.20		6.838e-03		-55.958		1.873e-03		18.945
5		0.00		7.60		8.043e-03		-51.126		2.022e-03		20.326
5		0.00		8.00		1.002e-02		-53.280		2.560e-03		18.580
5		0.00		8.40		1.165e-02		-55.245		3.452e-03		18.407
5		0.00		8.80		1.416e-02		-50.168		4.702e-03		20.712
5		0.00		9.20		1.663e-02		-51.873		5.357e-03		15.045
5		0.00		9.60		1.897e-02		-53.477		5.588e-03		13.203
5		0.00		10.00		2.135e-02		-54.702		6.078e-03		13.915
5		0.00		9.60		2.153e-02		-54.985		6.118e-03		15.367
5		0.00		9.20		2.231e-02		-56.583		6.540e-03		16.217
5		0.00		8.80		2.197e-02		-54.440		7.152e-03		21.039
5		0.00		8.40		2.239e-02		-50.892		7.627e-03		15.921
5		0.00		8.00		2.331e-02		-53.514		7.309e-03		11.870
5		0.00		7.60		2.388e-02		-55.073		6.251e-03		13.076
5		0.00		7.20		2.333e-02		-53.473		6.109e-03		14.317
5		0.00		6.80		2.350e-02		-51.598		5.855e-03		13.876
5		0.00		6.40		2.225e-02		-50.417		6.518e-03		19.818
5		0.00		6.00		2.236e-02		-52.149		6.404e-03		14.917
5		0.00		5.60		2.330e-02		-53.154		6.074e-03		10.962
5		0.00		5.20		2.303e-02		-53.764		5.329e-03		12.519
5		0.00		4.80		2.211e-02		-53.228		5.359e-03		15.496
5		0.00		4.40		2.258e-02		-52.457		5.817e-03		14.080
5		0.00		4.00		2.165e-02		-49.039		6.106e-03		13.203
5		0.00		3.60		2.221e-02		-49.817		6.780e-03		11.985
5		0.00		3.20		2.141e-02		-52.777		5.896e-03		10.437
5		0.00		2.80		2.181e-02		-54.889		5.248e-03		13.777
5		0.00		2.40		2.202e-02		-52.257		5.380e-03		13.352
5		0.00		2.00		2.131e-02		-52.288		5.631e-03		16.050
5		0.00		1.60		2.154e-02		-53.163		6.071e-03		15.764
5		0.00		1.20		2.169e-02		-49.847		6.169e-03		12.740
5		0.00		0.80		2.133e-02		-53.803		6.135e-03		11.418
5		0.00		0.40		2.220e-02		-54.398		5.156e-03		11.033
5		0.00		0.00		2.170e-02		-57.043		4.978e-03		13.512
5		0.00		-0.40		2.122e-02		-54.681		5.378e-03		15.793
5		0.00		-0.80		2.100e-02		-54.468		5.719e-03		19.231
5		0.00		-1.20		2.088e-02		-49.570		5.833e-03		17.086
5		0.00		-1.60		2.112e-02		-52.143		5.400e-03		11.879
5		0.00		-2.00		2.116e-02		-53.458		4.976e-03		11.508
5		0.00		-2.40		2.010e-02		-53.530		4.874e-03		14.041
5		0.00		-2.80		1.959e-02		-52.733		4.840e-03		14.521
5		0.00		-3.20		1.848e-02		-51.190		5.016e-03		17.012
5		0.00		-3.60		1.826e-02		-48.502		5.059e-03		13.742
5		0.00		-4.00		1.764e-02		-51.466		4.975e-03		9.861
5		0.00		-4.40		1.684e-02		-52.566		3.882e-03		11.738
5		0.00		-4.80		1.486e-02		-52.556		3.419e-03		14.431
5		0.00		-5.20		1.321e-02		-53.744		3.558e-03		15.540
5		0.00		-5.60		1.093e-02		-55.344		3.388e-03		16.303
5		0.00		-6.00		7.977e-03		-46.240		2.502e-03		20.774
5		0.00		-6.40		5.130e-03		-38.227		1.673e-03		27.652
5		0.00		-6.80		1.874e-03		-31.838		7.791e-04		66.875
5		0.00		-7.20		2.769e-03		65.652		1.348e-03		62.535
5		0.00		-7.60		5.095e-03		109.379		1.993e-03		25.488
5		0.00		-8.00		6.798e-03		116.062		2.369e-03		33.538
5		0.00		-8.40		8.646e-03		116.030		3.293e-03		29.947
5		0.00		-8.80		1.007e-02		113.178		3.777e-03		30.433
5		0.00		-9.20		1.227e-02		121.798		3.985e-03		13.999
5		0.00		-9.60		1.367e-02		121.055		3.889e-03		13.718
5		0.00		-10.00		1.399e-02		124.575		3.864e-03		13.259
5		0.00		-9.60		1.436e-02		122.060		4.147e-03		14.508
5		0.00		-9.20		1.434e-02		120.699		4.170e-03		22.520
5		0.00		-8.80		1.435e-02		120.986		4.672e-03		28.199
5		0.00		-8.40		1.412e-02		123.845		4.350e-03		11.515
5		0.00		-8.00		1.415e-02		125.135		4.068e-03		12.424
5		0.00		-7.60		1.407e-02		125.869		3.980e-03		12.085
5		0.00		-7.20		1.364e-02		122.560		3.875e-03		13.727
5		0.00		-6.80		1.328e-02		122.404		3.998e-03		21.249
5		0.00		-6.40		1.277e-02		117.259		4.294e-03		30.632
5		0.00		-6.00		1.262e-02		126.140		4.301e-03		13.212
5		0.00		-5.60		1.226e-02		125.453		3.844e-03		17.849
5		0.00		-5.20		1.234e-02		122.219		3.477e-03		12.313
5		0.00		-4.80		1.175e-02		123.800		3.186e-03		14.223
5		0.00		-4.40		1.099e-02		122.550		3.361e-03		16.960
5		0.00		-4.00		1.067e-02		121.190		3.274e-03		22.598
5		0.00		-3.60		1.088e-02		119.991		3.570e-03		22.188
5		0.00		-3.20		1.069e-02		120.904		3.546e-03		12.614
5		0.00		-2.80		1.044e-02		122.145		3.126e-03		13.002
5		0.00		-2.40		9.711e-03		124.930		2.814e-03		13.389
5		0.00		-2.00		9.587e-03		124.310		2.825e-03		17.534
5		0.00		-1.60		9.189e-03		122.810		3.031e-03		30.237
5		0.00		-1.20		9.341e-03		119.975		3.047e-03		27.786
5		0.00		-0.80		9.113e-03		121.433		2.901e-03		18.462
5		0.00		-0.40		8.923e-03		123.734		2.843e-03		16.285
6		0.00		0.00		8.433e-03		123.040		2.563e-03		19.725
6		0.00		0.40		8.060e-03		128.003		2.457e-03		13.738
6		0.00		0.80		7.993e-03		122.679		2.500e-03		19.902
6		0.00		1.20		7.906e-03		117.851		2.602e-03		27.206
6		0.00		1.60		7.024e-03		122.057		2.531e-03		30.063
6		0.00		2.00		7.021e-03		127.407		2.132e-03		15.407
6		0.00		2.40		6.063e-03		119.134		2.074e-03		15.638
6		0.00		2.80		4.983e-03		115.450		1.890e-03		28.234
6		0.00		3.20		4.637e-03		120.912		1.607e-03		29.909
6		0.00		3.60		4.027e-03		110.011		1.456e-03		39.952
6		0.00		4.00		3.180e-03		91.188		1.312e-03		61.739
6		0.00		4.40		2.547e-03		55.265		1.158e-03		92.269
6		0.00		4.80		1.871e-03		19.232		8.497e-04		88.330
6		0.00		5.20		1.740e-03		-21.441		7.533e-04		83.600
6		0.00		5.60		1.838e-03		-22.914		8.347e-04		67.817
6		0.00		6.00		2.708e-03		-57.630		1.185e-03		45.442
6		0.00		6.40		3.575e-03		-56.742		1.337e-03		27.988
6		0.00		6.80		4.676e-03		-51.558		1.531e-03		25.552
6		0.00		7.20		5.968e-03		-51.361		1.695e-03		23.133
6		0.00		7.60		7.690e-03		-57.798		2.085e-03		19.515
6		0.00		8.00		9.647e-03		-53.644		2.395e-03		16.311
6		0.00		8.40		1.145e-02		-53.086		2.822e-03		18.150
6		0.00		8.80		1.295e-02		-54.100		3.635e-03		15.057
6		0.00		9.20		1.508e-02		-50.485		4.528e-03		15.974
6		0.00		9.60		1.708e-02		-50.469		5.471e-03		15.087
6		0.00		10.00		2.025e-02		-50.850		5.925e-03		10.234
6		0.00		9.60		2.231e-02		-53.031		5.977e-03		11.643
6		0.00		9.20		2.239e-02		-54.418		5.827e-03		12.094
6		0.00		8.80		2.280e-02		-54.969		5.751e-03		13.219
6		0.00		8.40		2.294e-02		-52.848		6.116e-03		12.867
6		0.00		8.00		2.223e-02		-53.189		6.445e-03		17.790
6		0.00		7.60		2.265e-02		-52.535		6.958e-03		16.866
6		0.00		7.20		2.269e-02		-52.756		7.195e-03		11.728
6		0.00		6.80		2.289e-02		-50.708		6.605e-03		11.049
6		0.00		6.40		2.288e-02		-53.478		6.086e-03		10.492
6		0.00		6.00		2.215e-02		-54.167		5.719e-03		14.545
6		0.00		5.60		2.205e-02		-53.707		5.658e-03		14.575
6		0.00		5.20		2.164e-02		-52.742		5.695e-03		16.053
6		0.00		4.80		2.099e-02		-52.980		5.711e-03		20.022
6		0.00		4.40		2.106e-02		-49.687		6.144e-03		19.784
6		0.00		4.00		2.138e-02		-51.146		5.938e-03		13.342
6		0.00		3.60		2.173e-02		-52.812		5.458e-03		11.214
6		0.00		3.20		2.134e-02		-54.346		5.048e-03		11.637
6		0.00		2.80		2.173e-02		-53.984		4.565e-03		12.187
6		0.00		2.40		2.095e-02		-54.086		4.897e-03		12.623
6		0.00		2.00		2.142e-02		-53.453		5.413e-03		14.252
6		0.00		1.60		2.043e-02		-51.559		5.718e-03		14.067
6		0.00		1.20		2.020e-02		-47.462		6.170e-03		15.817
6		0.00		0.80		2.006e-02		-50.189		6.390e-03		10.737
6		0.00		0.40		1.997e-02		-53.713		6.418e-03		11.519
6		0.00		0.00		2.023e-02		-55.028		5.744e-03		11.641
6		0.00		-0.40		2.037e-02		-53.516		5.426e-03		12.636
6		0.00		-0.80		1.995e-02		-55.363		5.439e-03		14.641
6		0.00		-1.20		1.916e-02		-52.169		5.447e-03		16.853
6		0.00		-1.60		1.950e-02		-53.482		5.567e-03		15.061
6		0.00		-2.00		1.841e-02		-55.562		5.796e-03		18.484
6		0.00		-2.40		1.767e-02		-49.804		5.894e-03		20.960
6		0.00		-2.80		1.774e-02		-48.433		6.008e-03		14.234
6		0.00		-3.20		1.764e-02		-53.405		5.234e-03		12.921
6		0.00		-3.60		1.705e-02		-55.290		4.504e-03		12.941
6		0.00		-4.00		1.624e-02		-50.629		3.779e-03		12.875
6		0.00		-4.40		1.489e-02		-54.768		3.625e-03		14.221
6		0.00		-4.80		1.389e-02		-51.405		3.654e-03		15.620
6		0.00		-5.20		1.233e-02		-52.123		3.415e-03		17.511
6		0.00		-5.60		9.677e-03		-53.463		3.006e-03		21.182
6		0.00		-6.00		8.110e-03		-46.138		2.427e-03		17.464
6		0.00		-6.40		5.854e-03		-43.243		1.947e-03		26.960
6		0.00		-6.80		3.505e-03		-46.143		1.491e-03		32.741
6		0.00		-7.20		1.916e-03		-9.989		8.689e-04		65.578
6		0.00		-7.60		3.393e-03		94.487		1.421e-03		57.872
6		0.00		-8.00		5.929e-03		116.099		2.136e-03		29.617
6		0.00		-8.40		8.262e-03		121.250		2.611e-03		23.413
6		0.00		-8.80		1.016e-02		121.150		3.230e-03		16.400
6		0.00		-9.20		1.167e-02		123.653		3.451e-03		15.303
6		0.00		-9.60		1.306e-02		121.375		3.803e-03		14.291
6		0.00		-10.00		1.391e-02		121.679		4.266e-03		17.628
6		0.00		-9.60		1.332e-02		119.524		4.198e-03		24.977
6		0.00		-9.20		1.364e-02		117.533		4.537e-03		31.005
6		0.00		-8.80		1.387e-02		119.812		4.686e-03		28.842
6		0.00		-8.40		1.454e-02		124.257		4.731e-03		15.955
6		0.00		-8.00		1.427e-02		123.516		4.207e-03		12.165
6		0.00		-7.60		1.399e-02		125.031		3.885e-03		13.306
6		0.00		-7.20		1.373e-02		122.671		3.868e-03		13.565
6		0.00		-6.80		1.338e-02		124.954		3.472e-03		12.167
6		0.00		-6.40		1.280e-02		123.491		3.479e-03		12.657
6		0.00		-6.00		1.239e-02		127.582		3.368e-03		14.467
6		0.00		-5.60		1.241e-02		121.859		3.601e-03		18.524
6		0.00		-5.20		1.164e-02		125.113		3.533e-03		18.624
6		0.00		-4.80		1.125e-02		116.224		3.476e-03		24.752
6		0.00		-4.40		1.106e-02		121.301		3.584e-03		27.106
6		0.00		-4.00		1.072e-02		122.286		3.734e-03		23.418
6		0.00		-3.60		1.102e-02		118.403		4.068e-03		20.658
6		0.00		-3.20		1.078e-02		121.516		3.727e-03		15.246
6		0.00		-2.80		1.055e-02		121.458		3.432e-03		14.955
6		0.00		-2.40		1.004e-02		122.001		3.196e-03		11.205
6		0.00		-2.00		9.996e-03		122.570		3.157e-03		16.661
6		0.00		-1.60		9.503e-03		123.575		2.812e-03		15.701
6		0.00		-1.20		8.963e-03		121.268		2.606e-03		12.495
6		0.00		-0.80		9.043e-03		124.416		2.532e-03		15.996
6		0.00		-0.40		9.009e-03		123.001		2.813e-03		15.571
7		0.00		0.00		8.975e-03		122.521		2.634e-03		18.824
7		0.00		0.40		8.754e-03		123.730		2.508e-03		18.136
7		0.00		0.80		8.330e-03		121.437		2.504e-03		29.471
7		0.00		1.20		8.000e-03		115.921		2.555e-03		32.172
7		0.00		1.60		7.380e-03		120.700		2.385e-03		25.470
7		0.00		2.00		6.956e-03		116.682		2.343e-03		38.513
7		0.00		2.40		6.368e-03		122.633		2.239e-03		25.886
7		0.00		2.80		5.800e-03		122.666		1.995e-03		25.472
7		0.00		3.20		4.930e-03		123.525		1.729e-03		38.201
7		0.00		3.60		4.096e-03		117.837		1.593e-03		30.280
7		0.00		4.00		3.561e-03		106.238		1.479e-03		62.494
7		0.00		4.40		2.773e-03		73.825		1.180e-03		88.126
7		0.00		4.80		2.249e-03		48.616		9.574e-04		85.474
7		0.00		5.20		1.744e-03		2.795		7.268e-04		90.562
7		0.00		5.60		1.810e-03		-33.673		6.523e-04		79.362
7		0.00		6.00		2.125e-03		-53.636		8.818e-04		50.348
7		0.00		6.40		3.056e-03		-51.807		1.252e-03		31.697
7		0.00		6.80		4.024e-03		-63.429		1.225e-03		25.880
7		0.00		7.20		5.207e-03		-47.242		1.445e-03		22.300
7		0.00		7.60		6.838e-03		-53.806		1.810e-03		22.243
7		0.00		8.00		8.690e-03		-53.642		2.437e-03		18.625
7		0.00		8.40		1.045e-02		-52.185		2.781e-03		18.222
7		0.00		8.80		1.231e-02		-55.638		3.264e-03		15.384
7		0.00		9.20		1.395e-02		-53.603		3.950e-03		15.856
7		0.00		9.60		1.663e-02		-55.042		4.447e-03		17.313
7		0.00		10.00		1.844e-02		-52.939		5.084e-03		19.276
7		0.00		9.60		1.986e-02		-56.288		5.428e-03		19.820
7		0.00		9.20		2.092e-02		-52.283		6.195e-03		14.829
7		0.00		8.80		2.046e-02		-50.819		6.220e-03		25.907
7		0.00		8.40		2.090e-02		-53.347		6.681e-03		19.103
7		0.00		8.00		2.164e-02		-55.415		6.877e-03		18.747
7		0.00		7.60		2.126e-02		-50.387		6.949e-03		24.026
7		0.00		7.20		2.143e-02		-53.627		7.044e-03		20.174
7		0.00		6.80		2.086e-02		-51.824		6.940e-03		18.158
7		0.00		6.40		2.124e-02		-52.727		6.878e-03		15.826
7		0.00		6.00		2.108e-02		-50.490		6.797e-03		13.416
7		0.00		5.60		2.071e-02		-54.917		6.774e-03		12.573
7		0.00		5.20		2.075e-02		-53.751		6.539e-03		12.391
7		0.00		4.80		2.096e-02		-52.462		6.129e-03		10.268
7		0.00		4.40		2.026e-02		-53.252		6.009e-03		12.597
7		0.00		4.00		2.029e-02		-54.381		5.818e-03		11.687
7		0.00		3.60		1.995e-02		-52.315		5.572e-03		10.220
7		0.00		3.20		2.019e-02		-52.335		5.519e-03		10.735
7		0.00		2.80		2.025e-02		-52.872		5.323e-03		10.250
7		0.00		2.40		2.028e-02		-52.494		5.101e-03		11.247
7		0.00		2.00		2.033e-02		-52.139		5.420e-03		10.927
7		0.00		1.60		2.028e-02		-52.879		4.909e-03		11.177
7		0.00		1.20		2.038e-02		-51.475		5.031e-03		11.083
7		0.00		0.80		2.024e-02		-53.567		5.078e-03		11.247
7		0.00		0.40		2.027e-02		-54.333		4.933e-03		10.814
7		0.00		0.00		2.031e-02		-51.536		4.311e-03		10.878
7		0.00		-0.40		1.992e-02		-53.242		4.728e-03		12.889
7		0.00		-0.80		2.040e-02		-52.814		4.320e-03		12.375
7		0.00		-1.20		2.011e-02		-53.982		4.313e-03		11.729
7		0.00		-1.60		1.975e-02		-52.543		4.506e-03		11.119
7		0.00		-2.00		1.940e-02		-56.798		4.709e-03		12.323
7		0.00		-2.40		1.900e-02		-53.439		4.503e-03		13.714
7		0.00		-2.80		1.810e-02		-54.269		4.467e-03		14.511
7		0.00		-3.20		1.760e-02		-52.336		3.988e-03		14.489
7		0.00		-3.60		1.715e-02		-51.050		3.785e-03		16.282
7		0.00		-4.00		1.678e-02		-51.965		3.608e-03		13.475
7		0.00		-4.40		1.570e-02		-52.559		3.442e-03		13.189
7		0.00		-4.80		1.422e-02		-49.951		3.171e-03		14.585
7		0.00		-5.20		1.228e-02		-49.467		2.943e-03		13.700
7		0.00		-5.60		1.090e-02		-49.363		2.570e-03		14.653
7		0.00		-6.00		8.772e-03		-48.584		2.198e-03		14.657
7		0.00		-6.40		5.735e-03		-53.162		1.588e-03		20.417
7		0.00		-6.80		3.357e-03		-44.285		1.352e-03		37.119
7		0.00		-7.20		2.035e-03		37.057		9.418e-04		84.074
7		0.00		-7.60		4.007e-03		102.432		1.525e-03		44.548
7		0.00		-8.00		6.603e-03		113.121		2.306e-03		37.147
7		0.00		-8.40		8.379e-03		115.419		2.887e-03		24.639
7		0.00		-8.80		9.629e-03		117.369		3.250e-03		27.507
7		0.00		-9.20		1.130e-02		119.084		3.497e-03		24.127
7		0.00		-9.60		1.319e-02		117.388		4.204e-03		22.682
7		0.00		-10.00		1.369e-02		120.300		4.442e-03		24.609
7		0.00		-9.60		1.445e-02		120.643		4.722e-03		28.270
7		0.00		-9.20		1.441e-02		117.718		4.797e-03		24.129
7		0.00		-8.80		1.471e-02		122.482		4.461e-03		17.394
7		0.00		-8.40		1.410e-02		120.330		4.401e-03		21.195
7		0.00		-8.00		1.452e-02		124.526		4.456e-03		13.911
7		0.00		-7.60		1.447e-02		125.277		4.381e-03		13.766
7		0.00		-7.20		1.375e-02		126.741		4.288e-03		13.207
7		0.00		-6.80		1.403e-02		124.726		4.096e-03		11.740
7		0.00		-6.40		1.339e-02		124.852		3.910e-03		9.957
7		0.00		-6.00		1.319e-02		127.559		3.782e-03		11.379
7		0.00		-5.60		1.295e-02		124.815		3.733e-03		12.016
7		0.00		-5.20		1.231e-02		122.922		3.623e-03		10.897
7		0.00		-4.80		1.249e-02		125.138		3.362e-03		11.456
7		0.00		-4.40		1.214e-02		124.421		3.200e-03		12.706
7		0.00		-4.00		1.199e-02		123.658		2.995e-03		11.946
7		0.00		-3.60		1.169e-02		122.920		3.035e-03		15.965
7		0.00		-3.20		1.132e-02		123.524		3.161e-03		13.515
7		0.00		-2.80		1.095e-02		122.614		2.844e-03		13.801
7		0.00		-2.40		1.060e-02		127.243		2.956e-03		13.271
7		0.00		-2.00		1.043e-02		126.706		2.704e-03		14.175
7		0.00		-1.60		1.015e-02		123.841		2.815e-03		14.494
7		0.00		-1.20		9.979e-03		124.875		2.635e-03		13.218
7		0.00		-0.80		9.889e-03		124.795		2.679e-03		16.762
7		0.00		-0.40		9.326e-03		122.132		2.724e-03		24.648
8		0.00		0.00		8.999e-03		127.454		2.984e-03		21.602
8		0.00		0.40		9.039e-03		123.222		2.809e-03		27.233
8		0.00		0.80		8.701e-03		122.311		2.555e-03		21.958
8		0.00		1.20		8.390e-03		122.388		2.593e-03		23.621
8		0.00		1.60		8.003e-03		121.753		2.625e-03		17.207
8		0.00		2.00		7.477e-03		126.800		2.283e-03		16.055
8		0.00		2.40		6.524e-03		121.620		2.199e-03		23.074
8		0.00		2.80		5.850e-03		118.209		1.867e-03		33.266
8		0.00		3.20		5.095e-03		127.075		1.852e-03		20.969
8		0.00		3.60		4.414e-03		123.244		1.755e-03		28.803
8		0.00		4.00		4.130e-03		120.608		1.533e-03		43.019
8		0.00		4.40		2.825e-03		101.585		9.841e-04		52.291
8		0.00		4.80		2.426e-03		52.818		1.041e-03		83.659
8		0.00		5.20		2.055e-03		20.587		9.760e-04		88.777
8		0.00		5.60		1.759e-03		1.832		7.663e-04		81.185
8		0.00		6.00		2.123e-03		-46.458		8.782e-04		57.521
8		0.00		6.40		2.850e-03		-67.358		1.072e-03		41.480
8		0.00		6.80		3.680e-03		-56.719		1.278e-03		29.105
8		0.00		7.20		4.826e-03		-49.948		1.534e-03		19.776
8		0.00		7.60		6.601e-03		-61.913		1.957e-03		18.491
8		0.00		8.00		8.071e-03		-60.648		2.233e-03		20.538
8		0.00		8.40		1.056e-02		-57.855		2.677e-03		13.605
8		0.00		8.80		1.259e-02		-52.654		3.198e-03		15.650
8		0.00		9.20		1.435e-02		-56.433		3.357e-03		14.263
8		0.00		9.60		1.760e-02		-51.158		3.910e-03		13.206
8		0.00		10.00		1.939e-02		-52.423		4.590e-03		14.206
8		0.00		9.60		2.048e-02		-50.586		5.089e-03		12.890
8		0.00		9.20		2.098e-02		-51.522		5.480e-03		13.508
8		0.00		8.80		2.117e-02		-55.135		5.869e-03		17.758
8		0.00		8.40		2.162e-02		-52.917		6.274e-03		17.105
8		0.00		8.00		2.170e-02		-51.442		6.737e-03		15.345
8		0.00		7.60		2.185e-02		-51.997		6.586e-03		11.058
8		0.00		7.20		2.225e-02		-51.891		6.159e-03		10.353
8		0.00		6.80		2.213e-02		-53.523		5.603e-03		9.687
8		0.00		6.40		2.206e-02		-53.749		5.071e-03		11.010
8		0.00		6.00		2.198e-02		-53.111		4.910e-03		11.793
8		0.00		5.60		2.160e-02		-53.383		5.204e-03		12.977
8		0.00		5.20		2.102e-02		-51.286		4.969e-03		15.229
8		0.00		4.80		2.040e-02		-51.760		5.225e-03		15.460
8		0.00		4.40		2.050e-02		-52.934		5.720e-03		17.195
8		0.00		4.00		2.012e-02		-49.475		5.667e-03		11.346
8		0.00		3.60		2.039e-02		-50.864		5.504e-03		10.205
8		0.00		3.20		2.047e-02		-53.283		5.235e-03		10.035
8		0.00		2.80		2.096e-02		-52.541		4.683e-03		10.006
8		0.00		2.40		2.072e-02		-53.050		4.555e-03		12.516
8		0.00		2.00		2.061e-02		-53.398		4.433e-03		12.806
8		0.00		1.60		2.022e-02		-51.643		4.774e-03		13.700
8		0.00		1.20		1.971e-02		-53.016		5.326e-03		15.166
8		0.00		0.80		1.965e-02		-49.292		5.840e-03		20.882
8		0.00		0.40		1.967e-02		-50.317		6.117e-03		14.545
8		0.00		0.00		1.957e-02		-51.409		5.907e-03		10.988
8		0.00		-0.40		2.012e-02		-53.628		5.249e-03		10.782
8		0.00		-0.80		1.964e-02		-52.954		4.721e-03		10.902
8		0.00		-1.20		2.005e-02		-54.733		4.573e-03		11.984
8		0.00		-1.60		1.935e-02		-53.391		4.945e-03		12.545
8		0.00		-2.00		1.810e-02		-52.144		4.677e-03		15.563
8		0.00		-2.40		1.825e-02		-55.083		5.080e-03		15.923
8		0.00		-2.80		1.802e-02		-50.890		4.747e-03		18.804
8		0.00		-3.20		1.731e-02		-48.725		4.652e-03		16.075
8		0.00		-3.60		1.727e-02		-52.778		4.785e-03		13.026
8		0.00		-4.00		1.665e-02		-51.301		3.997e-03		13.068
8		0.00		-4.40		1.545e-02		-51.123		3.251e-03		12.764
8		0.00		-4.80		1.377e-02		-49.952		2.971e-03		11.655
8		0.00		-5.20		1.200e-02		-50.666		2.690e-03		15.115
8		0.00		-5.60		1.028e-02		-51.903		2.558e-03		15.410
8		0.00		-6.00		8.461e-03		-48.828		2.276e-03		15.553
8		0.00		-6.40		6.783e-03		-51.048		2.149e-03		22.153
8		0.00		-6.80		4.681e-03		-44.338		1.365e-03		25.603
8		0.00		-7.20		1.987e-03		-17.302		1.026e-03		53.806
8		0.00		-7.60		2.720e-03		86.102		1.083e-03		56.639
8		0.00		-8.00		5.980e-03		115.114		1.991e-03		24.485
8		0.00		-8.40		8.215e-03		122.469		2.265e-03		16.603
8		0.00		-8.80		1.002e-02		121.769		2.609e-03		14.020
8		0.00		-9.20		1.116e-02		120.336		3.385e-03		20.291
8		0.00		-9.60		1.242e-02		123.492		3.858e-03		23.453
8		0.00		-10.00		1.389e-02		121.679		4.337e-03		19.210
8		0.00		-9.60		1.460e-02		124.121		4.807e-03		13.228
8		0.00		-9.20		1.525e-02		124.654		4.155e-03		9.881
8		0.00		-8.80		1.501e-02		121.630		3.796e-03		11.211
8		0.00		-8.40		1.540e-02		123.955		3.571e-03		13.322
8		0.00		-8.00		1.481e-02		124.824		3.443e-03		14.464
8		0.00		-7.60		1.474e-02		124.236		3.957e-03		19.634
8		0.00		-7.20		1.407e-02		123.489		4.089e-03		24.587
8		0.00		-6.80		1.400e-02		122.545		4.221e-03		20.122
8		0.00		-6.40		1.408e-02		125.710		3.984e-03		11.579
8		0.00		-6.00		1.346e-02		124.075		3.394e-03		11.675
8		0.00		-5.60		1.320e-02		126.355		3.030e-03		13.162
8		0.00		-5.20		1.309e-02		123.935		3.220e-03		11.818
8		0.00		-4.80		1.230e-02		124.321		3.663e-03		17.654
8		0.00		-4.40		1.161e-02		120.199		3.535e-03		25.114
8		0.00		-4.00		1.176e-02		120.835		3.876e-03		18.624
8		0.00		-3.60		1.155e-02		124.764		3.536e-03		11.823
8		0.00		-3.20		1.117e-02		123.021		3.262e-03		12.447
8		0.00		-2.80		1.108e-02		122.259		2.955e-03		15.571
8		0.00		-2.40		1.047e-02		124.726		2.943e-03		14.151
8		0.00		-2.00		1.054e-02		123.203		2.944e-03		17.717
8		0.00		-1.60		9.911e-03		121.327		3.147e-03		22.563
8		0.00		-1.20		9.597e-03		119.377		3.052e-03		26.825
8		0.00		-0.80		9.871e-03		124.953		3.011e-03		16.071
8		0.00		-0.40		9.514e-03		122.460		2.633e-03		13.766
