# Date of analysis: 2024-03-08 10;58
# Segment other properties: height: -39.436156705798346, diff height: 231.39702496945307, deflection: 36.12751199096794, deflection error: 6.604099173525303, adhesion: 14.814377869120168, phase offset: 0
# 
# Loop index	Read Volt (V)	Write Volt (V)	Amplitude (a.u)	Phase (deg)	Sigma Amp (a.u)	Sigma Pha (deg)	
1		0.00		0.00		6.220e-03		-4.850		5.435e-03		42.539
1		0.00		0.40		6.135e-03		-1.111		5.178e-03		43.683
1		0.00		0.80		6.035e-03		-9.787		4.908e-03		46.177
1		0.00		1.20		6.026e-03		-14.270		4.719e-03		46.067
1		0.00		1.60		6.914e-03		-70.550		3.844e-03		51.735
1		0.00		2.00		7.102e-03		-79.661		3.947e-03		52.747
1		0.00		2.40		7.093e-03		-89.361		4.195e-03		44.572
1		0.00		2.80		7.969e-03		-85.651		4.439e-03		46.309
1		0.00		3.20		8.631e-03		-68.393		4.816e-03		50.788
1		0.00		3.60		9.410e-03		-65.463		5.466e-03		45.873
1		0.00		4.00		9.464e-03		-66.023		5.431e-03		53.233
1		0.00		4.40		1.060e-02		-48.592		6.921e-03		53.658
1		0.00		4.80		1.104e-02		-42.828		7.755e-03		61.031
1		0.00		5.20		1.191e-02		-44.388		8.700e-03		55.373
1		0.00		5.60		1.207e-02		-41.611		8.998e-03		53.076
1		0.00		6.00		1.300e-02		-29.147		9.874e-03		51.430
1		0.00		6.40		1.325e-02		-31.704		9.685e-03		51.237
1		0.00		6.80		1.376e-02		-31.335		1.065e-02		53.603
1		0.00		7.20		1.360e-02		-34.000		1.078e-02		55.074
1		0.00		7.60		1.386e-02		-43.288		1.071e-02		50.388
1		0.00		8.00		1.410e-02		-42.428		1.091e-02		44.698
1		0.00		8.40		1.310e-02		-47.736		1.019e-02		51.976
1		0.00		8.80		1.436e-02		-45.596		1.108e-02		46.617
1		0.00		9.20		1.348e-02		-51.582		9.820e-03		52.095
1		0.00		9.60		1.345e-02		-45.805		9.998e-03		61.070
1		0.00		10.00		1.374e-02		-49.351		9.784e-03		56.675
1		0.00		9.60		1.353e-02		-49.624		9.972e-03		60.718
1		0.00		9.20		1.395e-02		-47.423		1.086e-02		50.004
1		0.00		8.80		1.358e-02		-47.208		9.706e-03		60.565
1		0.00		8.40		1.239e-02		-46.403		9.940e-03		56.438
1		0.00		8.00		1.248e-02		-47.935		9.690e-03		54.709
1		0.00		7.60		1.242e-02		-49.423		9.962e-03		53.304
1		0.00		7.20		1.214e-02		-53.040		9.185e-03		54.425
1		0.00		6.80		1.149e-02		-46.003		9.082e-03		58.622
1		0.00		6.40		1.183e-02		-48.684		9.161e-03		56.895
1		0.00		6.00		1.180e-02		-43.380		9.460e-03		61.569
1		0.00		5.60		1.054e-02		-48.263		9.285e-03		56.627
1		0.00		5.20		1.071e-02		-49.659		9.122e-03		53.337
1		0.00		4.80		1.088e-02		-43.774		9.247e-03		54.957
1		0.00		4.40		1.051e-02		-48.557		9.079e-03		54.168
1		0.00		4.00		1.022e-02		-46.258		8.623e-03		48.717
1		0.00		3.60		1.039e-02		-48.173		9.287e-03		55.201
1		0.00		3.20		1.055e-02		-43.287		8.482e-03		52.270
1		0.00		2.80		1.017e-02		-39.179		8.494e-03		52.745
1		0.00		2.40		1.057e-02		-48.393		8.339e-03		52.731
1		0.00		2.00		1.006e-02		-54.404		7.901e-03		43.344
1		0.00		1.60		1.043e-02		-46.421		8.007e-03		53.078
1		0.00		1.20		9.944e-03		-36.802		8.144e-03		53.519
1		0.00		0.80		9.473e-03		-48.043		7.510e-03		55.695
1		0.00		0.40		9.311e-03		-46.062		7.384e-03		51.756
1		0.00		0.00		9.254e-03		-35.187		7.387e-03		51.231
1		0.00		-0.40		8.811e-03		-45.350		7.111e-03		52.537
1		0.00		-0.80		7.941e-03		-40.929		6.570e-03		55.940
1		0.00		-1.20		7.830e-03		-40.989		6.737e-03		55.897
1		0.00		-1.60		7.225e-03		-44.524		6.369e-03		55.574
1		0.00		-2.00		6.831e-03		-57.930		5.891e-03		54.019
1		0.00		-2.40		6.233e-03		-57.168		5.496e-03		52.239
1		0.00		-2.80		5.594e-03		-60.911		5.084e-03		51.720
1		0.00		-3.20		5.466e-03		-58.544		4.742e-03		53.976
1		0.00		-3.60		4.930e-03		-60.428		4.631e-03		61.638
1		0.00		-4.00		4.850e-03		-37.723		4.551e-03		62.490
1		0.00		-4.40		4.226e-03		-50.970		3.705e-03		61.523
1		0.00		-4.80		3.933e-03		-48.907		3.510e-03		60.772
1		0.00		-5.20		3.847e-03		-23.709		3.557e-03		66.780
1		0.00		-5.60		3.435e-03		-44.731		2.606e-03		68.660
1		0.00		-6.00		3.116e-03		-43.720		2.249e-03		67.361
1		0.00		-6.40		2.837e-03		-16.946		1.623e-03		72.950
1		0.00		-6.80		2.922e-03		-16.173		1.955e-03		79.139
1		0.00		-7.20		2.632e-03		-14.186		1.394e-03		78.553
1		0.00		-7.60		2.833e-03		-4.733		1.421e-03		78.927
1		0.00		-8.00		2.031e-03		-2.279		1.090e-03		71.986
1		0.00		-8.40		2.715e-03		10.457		1.791e-03		74.856
1		0.00		-8.80		2.560e-03		15.276		1.395e-03		83.365
1		0.00		-9.20		2.485e-03		35.317		1.305e-03		79.896
1		0.00		-9.60		2.823e-03		21.840		1.587e-03		71.326
1		0.00		-10.00		2.740e-03		14.515		1.481e-03		70.519
1		0.00		-9.60		2.758e-03		17.620		1.416e-03		79.513
1		0.00		-9.20		2.919e-03		25.479		1.601e-03		69.474
1		0.00		-8.80		2.917e-03		30.697		1.888e-03		69.467
1		0.00		-8.40		3.035e-03		30.413		1.775e-03		72.192
1		0.00		-8.00		2.875e-03		24.078		1.783e-03		77.487
1		0.00		-7.60		2.815e-03		26.103		1.516e-03		81.105
1		0.00		-7.20		3.102e-03		25.654		1.714e-03		85.005
1		0.00		-6.80		3.291e-03		22.052		2.106e-03		82.815
1		0.00		-6.40		3.043e-03		22.763		1.832e-03		84.381
1		0.00		-6.00		2.925e-03		15.576		1.652e-03		87.449
1		0.00		-5.60		3.373e-03		45.043		1.974e-03		67.550
1		0.00		-5.20		2.972e-03		37.531		1.631e-03		74.737
1		0.00		-4.80		3.136e-03		47.690		3.115e-03		62.331
1		0.00		-4.40		3.386e-03		41.578		1.628e-03		86.931
1		0.00		-4.00		2.732e-03		43.478		1.289e-03		81.464
1		0.00		-3.60		2.711e-03		26.989		1.253e-03		71.608
1		0.00		-3.20		2.807e-03		45.360		3.245e-03		62.159
1		0.00		-2.80		2.650e-03		34.658		2.777e-03		81.209
1		0.00		-2.40		2.592e-03		5.850		2.719e-03		77.763
1		0.00		-2.00		2.722e-03		16.912		3.358e-03		81.050
1		0.00		-1.60		2.481e-03		-0.468		2.176e-03		80.455
1		0.00		-1.20		2.666e-03		7.799		2.358e-03		89.634
1		0.00		-0.80		2.159e-03		-6.783		1.739e-03		88.877
1		0.00		-0.40		2.499e-03		-11.413		1.950e-03		92.352
2		0.00		0.00		2.376e-03		-11.832		2.145e-03		87.729
2		0.00		0.40		2.232e-03		-16.821		1.555e-03		89.076
2		0.00		0.80		2.309e-03		-26.505		1.418e-03		82.449
2		0.00		1.20		2.371e-03		-36.842		1.583e-03		77.093
2		0.00		1.60		2.178e-03		-38.100		1.484e-03		76.683
2		0.00		2.00		2.440e-03		-38.240		1.644e-03		70.570
2		0.00		2.40		3.726e-03		-23.819		2.549e-03		52.932
2		0.00		2.80		4.563e-03		-29.133		3.301e-03		48.161
2		0.00		3.20		5.549e-03		-29.158		4.192e-03		50.790
2		0.00		3.60		6.022e-03		-34.983		4.433e-03		49.885
2		0.00		4.00		6.822e-03		-37.682		5.550e-03		58.628
2		0.00		4.40		7.718e-03		-35.999		6.273e-03		56.563
2		0.00		4.80		8.245e-03		-46.974		6.912e-03		57.969
2		0.00		5.20		8.960e-03		-50.043		7.808e-03		50.486
2		0.00		5.60		9.185e-03		-56.062		7.962e-03		51.436
2		0.00		6.00		9.924e-03		-42.671		8.498e-03		53.693
2		0.00		6.40		1.073e-02		-47.064		8.702e-03		51.137
2		0.00		6.80		1.140e-02		-48.371		8.683e-03		47.189
2		0.00		7.20		1.152e-02		-44.579		9.042e-03		50.691
2		0.00		7.60		1.145e-02		-47.059		8.902e-03		50.068
2		0.00		8.00		1.265e-02		-36.678		9.442e-03		49.644
2		0.00		8.40		1.239e-02		-32.703		9.530e-03		49.433
2		0.00		8.80		1.291e-02		-38.776		9.722e-03		44.545
2		0.00		9.20		1.270e-02		-30.322		9.175e-03		52.646
2		0.00		9.60		1.335e-02		-27.808		9.516e-03		45.469
2		0.00		10.00		1.273e-02		-27.440		9.002e-03		49.415
2		0.00		9.60		1.255e-02		-31.166		8.915e-03		50.856
2		0.00		9.20		1.180e-02		-34.147		8.155e-03		54.980
2		0.00		8.80		1.113e-02		-48.450		7.434e-03		55.747
2		0.00		8.40		9.795e-03		-60.430		6.350e-03		54.073
2		0.00		8.00		1.018e-02		-60.743		5.976e-03		54.220
2		0.00		7.60		9.579e-03		-42.317		7.022e-03		59.554
2		0.00		7.20		9.976e-03		-50.766		7.034e-03		50.877
2		0.00		6.80		9.529e-03		-55.472		6.119e-03		51.909
2		0.00		6.40		9.765e-03		-61.710		6.312e-03		51.490
2		0.00		6.00		1.029e-02		-53.917		7.076e-03		53.577
2		0.00		5.60		8.430e-03		-80.569		5.080e-03		53.190
2		0.00		5.20		9.771e-03		-55.817		6.909e-03		56.346
2		0.00		4.80		9.373e-03		-10.217		8.246e-03		56.805
2		0.00		4.40		9.868e-03		-35.122		6.902e-03		53.434
2		0.00		4.00		9.673e-03		-46.166		6.803e-03		58.130
2		0.00		3.60		1.042e-02		-14.148		9.387e-03		47.251
2		0.00		3.20		1.056e-02		-15.361		1.033e-02		56.631
2		0.00		2.80		9.928e-03		-10.655		9.332e-03		55.106
2		0.00		2.40		9.729e-03		-16.081		9.737e-03		49.599
2		0.00		2.00		9.505e-03		-17.435		9.627e-03		44.614
2		0.00		1.60		9.058e-03		-17.154		9.100e-03		43.908
2		0.00		1.20		8.950e-03		-9.571		8.505e-03		44.073
2		0.00		0.80		8.699e-03		-25.389		7.916e-03		39.666
2		0.00		0.40		8.520e-03		-24.871		7.132e-03		36.417
2		0.00		0.00		7.969e-03		-27.068		6.793e-03		50.180
2		0.00		-0.40		7.900e-03		-27.406		6.624e-03		48.616
2		0.00		-0.80		7.379e-03		-26.905		5.757e-03		49.476
2		0.00		-1.20		7.538e-03		-37.741		5.464e-03		48.550
2		0.00		-1.60		7.057e-03		-46.453		5.190e-03		52.882
2		0.00		-2.00		6.621e-03		-57.227		4.849e-03		50.379
2		0.00		-2.40		6.174e-03		-51.778		4.458e-03		59.305
2		0.00		-2.80		5.827e-03		-71.679		4.255e-03		51.010
2		0.00		-3.20		5.886e-03		-60.275		4.277e-03		51.255
2		0.00		-3.60		5.220e-03		-58.898		3.668e-03		58.589
2		0.00		-4.00		4.674e-03		-52.036		3.483e-03		54.748
2		0.00		-4.40		4.543e-03		-59.737		3.480e-03		50.081
2		0.00		-4.80		3.906e-03		-35.844		2.765e-03		61.409
2		0.00		-5.20		3.659e-03		-33.609		2.475e-03		68.361
2		0.00		-5.60		3.739e-03		-40.090		2.367e-03		63.586
2		0.00		-6.00		3.072e-03		-25.901		1.852e-03		70.672
2		0.00		-6.40		3.050e-03		-18.643		2.963e-03		86.209
2		0.00		-6.80		2.813e-03		4.700		3.113e-03		75.480
2		0.00		-7.20		2.986e-03		10.249		1.604e-03		89.428
2		0.00		-7.60		3.294e-03		16.500		1.625e-03		91.557
2		0.00		-8.00		2.711e-03		-48.212		1.340e-03		77.273
2		0.00		-8.40		2.322e-03		-17.178		1.095e-03		88.600
2		0.00		-8.80		2.790e-03		-21.415		1.591e-03		87.270
2		0.00		-9.20		2.448e-03		-22.533		1.620e-03		79.617
2		0.00		-9.60		2.548e-03		-7.948		1.441e-03		86.748
2		0.00		-10.00		2.740e-03		-10.743		1.593e-03		82.425
2		0.00		-9.60		2.935e-03		5.475		1.968e-03		91.288
2		0.00		-9.20		2.874e-03		8.160		1.698e-03		90.312
2		0.00		-8.80		3.420e-03		34.588		2.143e-03		82.073
2		0.00		-8.40		3.476e-03		33.390		1.869e-03		78.444
2		0.00		-8.00		3.123e-03		46.215		1.534e-03		82.474
2		0.00		-7.60		3.131e-03		24.808		1.703e-03		87.123
2		0.00		-7.20		2.821e-03		34.833		1.748e-03		80.066
2		0.00		-6.80		2.934e-03		16.086		1.896e-03		71.851
2		0.00		-6.40		2.790e-03		40.147		1.556e-03		80.049
2		0.00		-6.00		3.187e-03		28.573		2.279e-03		74.175
2		0.00		-5.60		2.640e-03		31.044		2.119e-03		73.370
2		0.00		-5.20		2.614e-03		12.974		1.764e-03		75.573
2		0.00		-4.80		2.819e-03		16.786		1.892e-03		86.771
2		0.00		-4.40		2.874e-03		18.654		1.768e-03		86.074
2		0.00		-4.00		3.227e-03		49.667		3.386e-03		70.351
2		0.00		-3.60		2.822e-03		3.225		1.438e-03		88.373
2		0.00		-3.20		2.829e-03		-5.897		1.432e-03		95.437
2		0.00		-2.80		2.204e-03		-33.882		1.012e-03		70.073
2		0.00		-2.40		2.253e-03		-16.818		1.172e-03		79.511
2		0.00		-2.00		2.230e-03		-18.122		1.081e-03		70.059
2		0.00		-1.60		2.395e-03		-34.927		1.175e-03		76.793
2		0.00		-1.20		2.369e-03		-40.182		1.190e-03		71.420
2		0.00		-0.80		2.639e-03		-45.975		1.313e-03		74.359
2		0.00		-0.40		2.435e-03		-44.299		1.164e-03		75.053
3		0.00		0.00		2.761e-03		-44.437		1.597e-03		70.815
3		0.00		0.40		2.678e-03		-25.667		1.749e-03		77.039
3		0.00		0.80		2.864e-03		-29.641		2.173e-03		73.633
3		0.00		1.20		2.957e-03		-46.720		2.216e-03		62.749
3		0.00		1.60		3.080e-03		-28.155		2.262e-03		68.847
3		0.00		2.00		3.393e-03		-29.920		2.445e-03		59.008
3		0.00		2.40		3.658e-03		-33.470		2.480e-03		59.028
3		0.00		2.80		4.218e-03		-52.822		2.668e-03		62.365
3		0.00		3.20		4.695e-03		-48.737		3.240e-03		61.678
3		0.00		3.60		5.411e-03		-62.521		3.624e-03		57.425
3		0.00		4.00		6.395e-03		-67.202		4.429e-03		57.774
3		0.00		4.40		7.886e-03		-46.920		5.541e-03		51.854
3		0.00		4.80		7.640e-03		-11.151		7.221e-03		53.033
3		0.00		5.20		8.498e-03		-6.191		7.792e-03		48.215
3		0.00		5.60		9.111e-03		-9.664		7.760e-03		46.393
3		0.00		6.00		9.758e-03		-21.140		7.685e-03		43.413
3		0.00		6.40		1.077e-02		-19.879		7.974e-03		50.420
3		0.00		6.80		1.186e-02		-28.678		9.320e-03		47.852
3		0.00		7.20		1.232e-02		-34.737		9.645e-03		49.818
3		0.00		7.60		1.205e-02		-48.087		9.346e-03		50.486
3		0.00		8.00		1.379e-02		-49.925		1.056e-02		52.436
3		0.00		8.40		1.347e-02		-48.549		1.051e-02		55.110
3		0.00		8.80		1.374e-02		-47.080		9.845e-03		48.034
3		0.00		9.20		1.390e-02		-29.884		9.819e-03		49.717
3		0.00		9.60		1.284e-02		-30.843		8.865e-03		47.901
3		0.00		10.00		1.278e-02		-25.426		8.702e-03		48.818
3		0.00		9.60		1.185e-02		-28.853		8.611e-03		52.352
3		0.00		9.20		1.163e-02		-46.983		7.623e-03		53.915
3		0.00		8.80		1.043e-02		-68.201		7.095e-03		54.929
3		0.00		8.40		1.177e-02		-8.857		1.113e-02		52.797
3		0.00		8.00		1.140e-02		-16.062		1.080e-02		44.430
3		0.00		7.60		1.133e-02		-24.882		9.530e-03		42.529
3		0.00		7.20		1.141e-02		-25.270		9.192e-03		44.386
3		0.00		6.80		1.124e-02		-22.823		7.972e-03		43.805
3		0.00		6.40		1.197e-02		-30.741		8.135e-03		47.896
3		0.00		6.00		1.170e-02		-38.406		8.026e-03		53.391
3		0.00		5.60		1.211e-02		-51.451		8.201e-03		47.501
3		0.00		5.20		1.241e-02		-43.276		8.836e-03		51.241
3		0.00		4.80		1.239e-02		-44.182		9.117e-03		49.182
3		0.00		4.40		1.228e-02		-44.068		9.067e-03		60.431
3		0.00		4.00		1.262e-02		-34.849		9.126e-03		50.505
3		0.00		3.60		1.191e-02		-29.008		8.570e-03		55.078
3		0.00		3.20		1.114e-02		-27.288		8.185e-03		51.483
3		0.00		2.80		9.473e-03		-41.818		5.828e-03		59.758
3		0.00		2.40		9.708e-03		-51.739		6.473e-03		49.172
3		0.00		2.00		9.005e-03		-92.429		5.429e-03		42.254
3		0.00		1.60		9.239e-03		-82.036		5.452e-03		41.582
3		0.00		1.20		8.803e-03		-73.490		5.669e-03		46.070
3		0.00		0.80		9.658e-03		-15.190		8.060e-03		38.746
3		0.00		0.40		9.262e-03		-21.180		7.626e-03		50.140
3		0.00		0.00		9.969e-03		-28.787		7.898e-03		41.712
3		0.00		-0.40		1.034e-02		-25.200		8.094e-03		42.588
3		0.00		-0.80		1.007e-02		-36.668		8.278e-03		49.076
3		0.00		-1.20		9.438e-03		-41.653		8.287e-03		53.623
3		0.00		-1.60		9.071e-03		-42.483		8.081e-03		56.691
3		0.00		-2.00		8.661e-03		-50.953		7.205e-03		48.326
3		0.00		-2.40		8.032e-03		-49.501		6.468e-03		49.626
3		0.00		-2.80		6.872e-03		-23.801		5.341e-03		64.011
3		0.00		-3.20		6.279e-03		-42.358		4.951e-03		49.800
3		0.00		-3.60		5.226e-03		-39.466		4.124e-03		59.318
3		0.00		-4.00		3.788e-03		-47.803		2.583e-03		83.863
3		0.00		-4.40		5.023e-03		-51.732		4.636e-03		45.440
3		0.00		-4.80		4.739e-03		-34.334		4.108e-03		47.769
3		0.00		-5.20		4.255e-03		-32.572		3.335e-03		53.027
3		0.00		-5.60		4.060e-03		-53.225		2.991e-03		54.727
3		0.00		-6.00		3.779e-03		-69.960		2.918e-03		50.439
3		0.00		-6.40		3.578e-03		-67.254		2.734e-03		69.952
3		0.00		-6.80		3.249e-03		-43.315		1.842e-03		79.225
3		0.00		-7.20		2.820e-03		-40.457		1.643e-03		71.921
3		0.00		-7.60		2.981e-03		-18.767		1.706e-03		75.764
3		0.00		-8.00		2.647e-03		-30.824		1.628e-03		69.800
3		0.00		-8.40		2.346e-03		-22.187		1.608e-03		73.613
3		0.00		-8.80		2.958e-03		43.297		1.809e-03		84.505
3		0.00		-9.20		3.511e-03		33.606		2.074e-03		91.588
3		0.00		-9.60		3.503e-03		32.633		2.646e-03		81.329
3		0.00		-10.00		2.967e-03		-16.821		1.904e-03		96.125
3		0.00		-9.60		2.636e-03		-24.023		1.483e-03		85.642
3		0.00		-9.20		2.439e-03		-21.317		1.319e-03		88.454
3		0.00		-8.80		2.511e-03		-12.253		1.139e-03		89.585
3		0.00		-8.40		2.134e-03		-40.305		8.659e-04		87.566
3		0.00		-8.00		2.378e-03		-9.730		1.116e-03		96.261
3		0.00		-7.60		2.495e-03		4.115		1.333e-03		95.771
3		0.00		-7.20		3.055e-03		24.320		1.856e-03		89.752
3		0.00		-6.80		2.662e-03		22.819		1.431e-03		78.312
3		0.00		-6.40		2.643e-03		19.729		1.880e-03		71.024
3		0.00		-6.00		2.671e-03		4.371		1.856e-03		82.396
3		0.00		-5.60		2.999e-03		31.062		1.786e-03		84.964
3		0.00		-5.20		3.362e-03		47.544		3.729e-03		72.960
3		0.00		-4.80		2.883e-03		43.706		3.094e-03		79.576
3		0.00		-4.40		2.886e-03		16.083		3.332e-03		72.934
3		0.00		-4.00		2.250e-03		-30.739		1.107e-03		73.590
3		0.00		-3.60		2.319e-03		-28.912		1.053e-03		73.746
3		0.00		-3.20		2.112e-03		-45.268		9.129e-04		68.974
3		0.00		-2.80		2.603e-03		-20.364		1.393e-03		93.307
3		0.00		-2.40		2.526e-03		-32.046		1.306e-03		86.473
3		0.00		-2.00		2.611e-03		-39.581		1.444e-03		75.420
3		0.00		-1.60		2.493e-03		-20.974		1.594e-03		74.253
3		0.00		-1.20		2.539e-03		-7.218		1.474e-03		69.511
3		0.00		-0.80		2.473e-03		-30.628		1.235e-03		68.840
3		0.00		-0.40		2.537e-03		-25.053		1.388e-03		73.453
4		0.00		0.00		2.617e-03		-26.581		1.982e-03		76.405
4		0.00		0.40		2.816e-03		-53.382		2.342e-03		65.969
4		0.00		0.80		3.017e-03		-42.614		2.481e-03		61.098
4		0.00		1.20		3.489e-03		-19.276		2.714e-03		58.210
4		0.00		1.60		3.607e-03		-25.839		2.564e-03		51.551
4		0.00		2.00		3.819e-03		-29.782		2.897e-03		50.705
4		0.00		2.40		4.637e-03		-23.457		3.357e-03		45.847
4		0.00		2.80		5.204e-03		-34.656		4.119e-03		52.349
4		0.00		3.20		5.997e-03		-35.109		5.142e-03		56.820
4		0.00		3.60		6.763e-03		-56.240		5.768e-03		56.262
4		0.00		4.00		7.732e-03		-46.934		6.228e-03		49.435
4		0.00		4.40		8.608e-03		-47.825		6.599e-03		53.374
4		0.00		4.80		8.608e-03		-29.286		6.413e-03		56.017
4		0.00		5.20		7.977e-03		-45.868		4.740e-03		56.665
4		0.00		5.60		9.123e-03		-59.569		5.761e-03		50.209
4		0.00		6.00		9.637e-03		-68.947		6.565e-03		46.513
4		0.00		6.40		1.036e-02		-54.412		7.368e-03		57.295
4		0.00		6.80		1.085e-02		-54.623		8.046e-03		52.316
4		0.00		7.20		1.071e-02		-12.275		1.045e-02		44.490
4		0.00		7.60		1.069e-02		-6.962		1.003e-02		46.689
4		0.00		8.00		1.100e-02		-17.536		9.694e-03		44.873
4		0.00		8.40		1.165e-02		-16.285		9.443e-03		42.764
4		0.00		8.80		1.171e-02		-23.710		8.956e-03		45.199
4		0.00		9.20		1.206e-02		-25.316		8.649e-03		46.032
4		0.00		9.60		1.298e-02		-38.978		8.789e-03		48.260
4		0.00		10.00		1.335e-02		-34.836		9.386e-03		51.014
4		0.00		9.60		1.331e-02		-41.149		9.851e-03		53.907
4		0.00		9.20		1.300e-02		-54.757		9.143e-03		57.017
4		0.00		8.80		1.251e-02		-52.234		8.871e-03		62.031
4		0.00		8.40		1.381e-02		-45.693		1.069e-02		50.300
4		0.00		8.00		1.330e-02		-52.283		1.018e-02		50.126
4		0.00		7.60		1.400e-02		-47.943		1.047e-02		43.209
4		0.00		7.20		1.263e-02		-40.427		9.413e-03		53.092
4		0.00		6.80		1.191e-02		-33.132		9.070e-03		54.579
4		0.00		6.40		1.131e-02		-24.813		8.654e-03		59.207
4		0.00		6.00		9.767e-03		-49.865		6.223e-03		57.631
4		0.00		5.60		1.002e-02		-53.268		6.586e-03		48.069
4		0.00		5.20		9.385e-03		-74.677		6.207e-03		48.926
4		0.00		4.80		9.795e-03		-64.412		6.989e-03		53.469
4		0.00		4.40		1.002e-02		-59.635		7.059e-03		53.749
4		0.00		4.00		1.040e-02		-12.860		9.634e-03		44.469
4		0.00		3.60		9.876e-03		-14.930		9.464e-03		38.191
4		0.00		3.20		9.730e-03		-19.262		9.107e-03		38.130
4		0.00		2.80		1.021e-02		-17.490		8.301e-03		37.880
4		0.00		2.40		1.002e-02		-28.088		7.951e-03		47.177
4		0.00		2.00		1.049e-02		-29.434		7.885e-03		42.633
4		0.00		1.60		1.016e-02		-35.815		7.953e-03		45.615
4		0.00		1.20		1.083e-02		-26.690		8.111e-03		51.286
4		0.00		0.80		1.043e-02		-45.449		8.617e-03		47.056
4		0.00		0.40		1.045e-02		-42.943		8.530e-03		51.554
4		0.00		0.00		1.028e-02		-49.078		8.140e-03		57.809
4		0.00		-0.40		9.881e-03		-44.547		7.985e-03		56.182
4		0.00		-0.80		9.714e-03		-47.575		7.845e-03		56.408
4		0.00		-1.20		9.500e-03		-42.308		7.316e-03		51.869
4		0.00		-1.60		8.732e-03		-56.764		7.098e-03		38.277
4		0.00		-2.00		7.759e-03		-36.187		6.350e-03		56.150
4		0.00		-2.40		6.996e-03		-42.415		5.665e-03		48.594
4		0.00		-2.80		6.217e-03		-16.977		4.988e-03		56.917
4		0.00		-3.20		5.747e-03		-22.837		4.363e-03		64.531
4		0.00		-3.60		5.180e-03		-41.795		4.214e-03		53.835
4		0.00		-4.00		4.701e-03		-57.360		3.489e-03		62.351
4		0.00		-4.40		4.346e-03		-51.465		3.162e-03		70.347
4		0.00		-4.80		3.700e-03		-53.411		2.234e-03		81.461
4		0.00		-5.20		3.996e-03		-58.645		2.699e-03		68.192
4		0.00		-5.60		3.775e-03		-47.791		2.297e-03		82.699
4		0.00		-6.00		3.389e-03		-44.522		2.473e-03		55.529
4		0.00		-6.40		2.914e-03		-57.466		2.048e-03		53.674
4		0.00		-6.80		2.801e-03		-49.834		1.734e-03		62.467
4		0.00		-7.20		2.829e-03		-36.534		1.494e-03		81.419
4		0.00		-7.60		2.385e-03		-51.225		1.057e-03		66.405
4		0.00		-8.00		2.440e-03		-48.059		1.084e-03		73.582
4		0.00		-8.40		2.579e-03		-21.588		1.274e-03		79.224
4		0.00		-8.80		2.987e-03		-4.086		1.619e-03		98.767
4		0.00		-9.20		2.984e-03		-8.358		1.725e-03		90.993
4		0.00		-9.60		2.133e-03		-34.293		1.141e-03		77.033
4		0.00		-10.00		2.932e-03		0.263		1.598e-03		95.073
4		0.00		-9.60		2.151e-03		-33.905		1.039e-03		92.453
4		0.00		-9.20		3.054e-03		21.004		1.485e-03		86.231
4		0.00		-8.80		2.580e-03		-31.053		1.225e-03		93.545
4		0.00		-8.40		2.604e-03		-19.885		1.346e-03		99.885
4		0.00		-8.00		2.495e-03		-34.437		1.134e-03		89.162
4		0.00		-7.60		2.362e-03		-24.037		9.971e-04		98.106
4		0.00		-7.20		2.531e-03		-7.145		1.249e-03		93.429
4		0.00		-6.80		2.539e-03		-17.231		1.320e-03		89.948
4		0.00		-6.40		2.152e-03		-11.885		9.914e-04		80.052
4		0.00		-6.00		2.848e-03		3.438		1.422e-03		92.878
4		0.00		-5.60		2.071e-03		-8.945		9.720e-04		88.402
4		0.00		-5.20		2.397e-03		-8.092		1.158e-03		96.503
4		0.00		-4.80		2.223e-03		-44.665		1.128e-03		77.702
4		0.00		-4.40		2.314e-03		-39.946		1.112e-03		80.788
4		0.00		-4.00		2.313e-03		-24.453		1.123e-03		85.211
4		0.00		-3.60		2.758e-03		-1.186		1.489e-03		91.709
4		0.00		-3.20		2.256e-03		-32.280		1.200e-03		71.371
4		0.00		-2.80		2.669e-03		-58.070		1.247e-03		75.117
4		0.00		-2.40		2.305e-03		-31.606		1.198e-03		73.559
4		0.00		-2.00		2.535e-03		-55.627		1.304e-03		72.960
4		0.00		-1.60		2.679e-03		-45.319		1.693e-03		70.158
4		0.00		-1.20		2.577e-03		-41.880		1.567e-03		73.690
4		0.00		-0.80		2.751e-03		-42.288		1.868e-03		73.667
4		0.00		-0.40		2.931e-03		-53.077		2.019e-03		70.895
5		0.00		0.00		2.786e-03		-47.202		2.232e-03		64.348
5		0.00		0.40		2.936e-03		-41.189		2.225e-03		71.812
5		0.00		0.80		2.715e-03		-38.260		1.854e-03		74.227
5		0.00		1.20		3.403e-03		-51.564		2.716e-03		65.269
5		0.00		1.60		3.957e-03		-39.964		3.367e-03		63.217
5		0.00		2.00		4.304e-03		-39.342		3.714e-03		47.623
5		0.00		2.40		4.769e-03		-52.293		4.029e-03		45.708
5		0.00		2.80		4.751e-03		-38.771		4.025e-03		53.169
5		0.00		3.20		5.497e-03		-39.253		4.179e-03		52.386
5		0.00		3.60		6.172e-03		-29.908		4.609e-03		49.010
5		0.00		4.00		6.703e-03		-39.764		4.986e-03		41.673
5		0.00		4.40		7.262e-03		-27.022		5.255e-03		47.119
5		0.00		4.80		7.496e-03		-30.102		5.419e-03		42.764
5		0.00		5.20		8.076e-03		-22.922		5.535e-03		51.304
5		0.00		5.60		8.699e-03		-22.994		6.209e-03		45.903
5		0.00		6.00		9.514e-03		-27.202		6.584e-03		38.162
5		0.00		6.40		1.054e-02		-23.175		7.316e-03		48.353
5		0.00		6.80		1.097e-02		-30.792		7.579e-03		49.812
5		0.00		7.20		1.125e-02		-28.955		8.053e-03		43.975
5		0.00		7.60		1.229e-02		-27.289		8.620e-03		47.844
5		0.00		8.00		1.305e-02		-30.212		9.464e-03		41.892
5		0.00		8.40		1.403e-02		-33.451		1.043e-02		45.123
5		0.00		8.80		1.465e-02		-31.687		1.053e-02		48.464
5		0.00		9.20		1.473e-02		-34.867		1.094e-02		43.356
5		0.00		9.60		1.481e-02		-35.133		1.126e-02		44.879
5		0.00		10.00		1.475e-02		-36.967		1.112e-02		43.015
5		0.00		9.60		1.439e-02		-36.877		1.107e-02		46.849
5		0.00		9.20		1.320e-02		-42.593		1.006e-02		44.299
5		0.00		8.80		1.264e-02		-43.939		9.516e-03		56.771
5		0.00		8.40		1.217e-02		-44.492		9.383e-03		52.512
5		0.00		8.00		1.189e-02		-38.441		9.113e-03		48.154
5		0.00		7.60		1.154e-02		-40.133		9.048e-03		49.480
5		0.00		7.20		1.119e-02		-37.700		8.901e-03		52.648
5		0.00		6.80		1.142e-02		-44.455		8.420e-03		53.983
5		0.00		6.40		1.178e-02		-31.945		8.508e-03		50.764
5		0.00		6.00		1.174e-02		-42.162		8.377e-03		50.142
5		0.00		5.60		1.145e-02		-40.243		7.977e-03		50.774
5		0.00		5.20		1.114e-02		-34.203		7.877e-03		47.091
5		0.00		4.80		1.152e-02		-41.740		8.184e-03		49.479
5		0.00		4.40		1.108e-02		-42.841		7.768e-03		54.119
5		0.00		4.00		1.139e-02		-40.420		7.646e-03		46.168
5		0.00		3.60		1.186e-02		-37.659		8.692e-03		49.545
5		0.00		3.20		1.165e-02		-38.918		8.572e-03		58.238
5		0.00		2.80		1.142e-02		-38.032		8.680e-03		53.436
5		0.00		2.40		1.108e-02		-50.304		7.865e-03		52.827
5		0.00		2.00		1.132e-02		-39.070		8.448e-03		55.578
5		0.00		1.60		1.091e-02		-37.863		8.344e-03		44.167
5		0.00		1.20		1.114e-02		-39.035		8.487e-03		44.097
5		0.00		0.80		1.107e-02		-24.121		8.562e-03		46.780
5		0.00		0.40		1.029e-02		-35.152		8.189e-03		47.135
5		0.00		0.00		1.035e-02		-34.925		8.476e-03		47.296
5		0.00		-0.40		9.807e-03		-34.755		8.276e-03		44.977
5		0.00		-0.80		9.264e-03		-39.577		7.562e-03		44.011
5		0.00		-1.20		8.481e-03		-41.154		7.024e-03		46.959
5		0.00		-1.60		8.152e-03		-46.180		6.615e-03		46.727
5		0.00		-2.00		7.909e-03		-47.618		6.199e-03		42.719
5		0.00		-2.40		6.887e-03		-42.300		5.389e-03		41.691
5		0.00		-2.80		7.033e-03		-51.006		5.233e-03		42.489
5		0.00		-3.20		6.315e-03		-52.945		4.638e-03		42.129
5		0.00		-3.60		6.417e-03		-55.506		4.426e-03		45.970
5		0.00		-4.00		5.910e-03		-52.861		4.056e-03		39.388
5		0.00		-4.40		5.401e-03		-52.322		3.747e-03		44.423
5		0.00		-4.80		4.898e-03		-48.294		3.305e-03		45.625
5		0.00		-5.20		4.658e-03		-40.693		3.317e-03		57.085
5		0.00		-5.60		4.295e-03		-42.136		2.895e-03		57.176
5		0.00		-6.00		4.004e-03		-53.829		2.557e-03		46.707
5		0.00		-6.40		3.560e-03		-52.824		2.261e-03		44.689
5		0.00		-6.80		3.186e-03		-51.030		1.824e-03		53.177
5		0.00		-7.20		2.671e-03		-39.481		1.503e-03		67.601
5		0.00		-7.60		2.530e-03		-58.731		1.346e-03		67.848
5		0.00		-8.00		2.186e-03		-53.063		1.082e-03		58.984
5		0.00		-8.40		2.583e-03		-46.892		1.393e-03		72.412
5		0.00		-8.80		2.323e-03		-41.574		1.200e-03		70.209
5		0.00		-9.20		2.698e-03		-31.342		1.567e-03		86.820
5		0.00		-9.60		2.864e-03		-10.129		1.882e-03		96.972
5		0.00		-10.00		3.311e-03		18.711		2.017e-03		91.380
5		0.00		-9.60		3.043e-03		22.477		1.876e-03		93.327
5		0.00		-9.20		3.289e-03		13.350		2.252e-03		89.768
5		0.00		-8.80		3.007e-03		20.766		1.898e-03		85.831
5		0.00		-8.40		2.677e-03		0.310		1.518e-03		90.274
5		0.00		-8.00		3.340e-03		7.541		2.266e-03		96.903
5		0.00		-7.60		3.277e-03		20.768		2.105e-03		93.521
5		0.00		-7.20		3.165e-03		17.942		2.160e-03		95.510
5		0.00		-6.80		2.784e-03		12.733		1.822e-03		85.295
5		0.00		-6.40		3.084e-03		17.642		1.828e-03		84.405
5		0.00		-6.00		3.069e-03		23.289		1.838e-03		85.187
5		0.00		-5.60		3.207e-03		13.244		2.094e-03		86.860
5		0.00		-5.20		2.744e-03		-12.128		1.450e-03		97.482
5		0.00		-4.80		2.865e-03		-9.777		1.631e-03		95.725
5		0.00		-4.40		2.907e-03		17.294		3.164e-03		78.494
5		0.00		-4.00		2.397e-03		-7.785		1.391e-03		83.215
5		0.00		-3.60		2.228e-03		-18.731		1.246e-03		83.547
5		0.00		-3.20		2.506e-03		-16.152		1.431e-03		83.552
5		0.00		-2.80		2.368e-03		-29.677		1.449e-03		72.005
5		0.00		-2.40		2.508e-03		-10.085		1.447e-03		73.948
5		0.00		-2.00		2.365e-03		-23.225		1.186e-03		72.314
5		0.00		-1.60		2.392e-03		-35.593		1.089e-03		68.748
5		0.00		-1.20		2.421e-03		-26.537		1.168e-03		63.110
5		0.00		-0.80		2.615e-03		-43.357		1.396e-03		64.489
5		0.00		-0.40		2.827e-03		-45.388		1.549e-03		61.702
6		0.00		0.00		2.861e-03		-59.779		1.548e-03		57.170
6		0.00		0.40		2.842e-03		-44.461		1.719e-03		70.361
6		0.00		0.80		3.164e-03		-49.544		1.749e-03		64.223
6		0.00		1.20		3.129e-03		-50.534		1.998e-03		58.116
6		0.00		1.60		3.818e-03		-40.302		2.809e-03		52.127
6		0.00		2.00		4.487e-03		-29.416		3.461e-03		46.218
6		0.00		2.40		4.959e-03		-31.362		3.704e-03		47.390
6		0.00		2.80		5.140e-03		-34.642		4.174e-03		44.610
6		0.00		3.20		5.334e-03		-41.523		4.367e-03		47.100
6		0.00		3.60		5.875e-03		-32.897		4.930e-03		51.022
6		0.00		4.00		6.586e-03		-31.821		5.430e-03		57.143
6		0.00		4.40		7.289e-03		-39.630		6.310e-03		49.765
6		0.00		4.80		7.658e-03		-40.309		6.392e-03		47.203
6		0.00		5.20		8.422e-03		-46.650		7.100e-03		50.234
6		0.00		5.60		8.713e-03		-54.431		7.321e-03		46.587
6		0.00		6.00		9.724e-03		-43.106		7.659e-03		47.864
6		0.00		6.40		1.036e-02		-43.718		7.964e-03		47.788
6		0.00		6.80		1.128e-02		-38.749		8.065e-03		55.261
6		0.00		7.20		1.234e-02		-40.955		9.056e-03		52.404
6		0.00		7.60		1.292e-02		-47.852		9.125e-03		46.100
6		0.00		8.00		1.322e-02		-47.500		8.790e-03		48.617
6		0.00		8.40		1.345e-02		-48.527		9.290e-03		46.972
6		0.00		8.80		1.410e-02		-46.345		9.993e-03		45.704
6		0.00		9.20		1.368e-02		-43.834		9.708e-03		49.853
6		0.00		9.60		1.379e-02		-53.319		9.638e-03		49.277
6		0.00		10.00		1.352e-02		-46.402		9.515e-03		46.962
6		0.00		9.60		1.335e-02		-46.164		9.900e-03		55.687
6		0.00		9.20		1.319e-02		-46.276		1.001e-02		52.677
6		0.00		8.80		1.277e-02		-52.026		9.579e-03		46.498
6		0.00		8.40		1.298e-02		-38.072		9.305e-03		51.903
6		0.00		8.00		1.252e-02		-46.996		9.913e-03		49.391
6		0.00		7.60		1.239e-02		-49.774		9.508e-03		48.423
6		0.00		7.20		1.214e-02		-47.810		9.071e-03		46.464
6		0.00		6.80		1.158e-02		-39.653		8.987e-03		48.553
6		0.00		6.40		1.187e-02		-33.681		8.892e-03		49.669
6		0.00		6.00		1.194e-02		-33.648		9.462e-03		43.459
6		0.00		5.60		1.133e-02		-30.887		8.819e-03		47.395
6		0.00		5.20		1.144e-02		-34.950		8.898e-03		45.062
6		0.00		4.80		1.123e-02		-33.610		8.522e-03		48.571
6		0.00		4.40		1.169e-02		-34.348		8.497e-03		43.958
6		0.00		4.00		1.117e-02		-33.412		8.171e-03		47.781
6		0.00		3.60		1.182e-02		-26.177		8.450e-03		49.171
6		0.00		3.20		1.166e-02		-36.356		8.415e-03		45.262
6		0.00		2.80		1.149e-02		-34.852		8.159e-03		44.787
6		0.00		2.40		1.190e-02		-31.976		8.275e-03		45.037
6		0.00		2.00		1.156e-02		-32.974		8.048e-03		47.243
6		0.00		1.60		1.168e-02		-35.822		8.190e-03		45.171
6		0.00		1.20		1.151e-02		-37.455		8.247e-03		39.936
6		0.00		0.80		1.100e-02		-32.539		8.101e-03		43.152
6		0.00		0.40		1.085e-02		-30.554		7.868e-03		47.781
6		0.00		0.00		1.031e-02		-40.620		7.914e-03		39.529
6		0.00		-0.40		1.018e-02		-39.648		7.496e-03		44.416
6		0.00		-0.80		1.001e-02		-40.081		7.925e-03		53.137
6		0.00		-1.20		9.432e-03		-50.754		7.500e-03		39.333
6		0.00		-1.60		9.228e-03		-48.780		7.338e-03		40.007
6		0.00		-2.00		8.599e-03		-48.241		7.075e-03		43.844
6		0.00		-2.40		8.197e-03		-42.849		6.749e-03		48.811
6		0.00		-2.80		7.313e-03		-51.747		6.136e-03		44.786
6		0.00		-3.20		7.289e-03		-52.977		5.891e-03		50.379
6		0.00		-3.60		6.399e-03		-66.114		5.357e-03		44.720
6		0.00		-4.00		6.093e-03		-52.319		4.922e-03		50.421
6		0.00		-4.40		5.437e-03		-63.773		4.378e-03		48.237
6		0.00		-4.80		4.585e-03		-67.611		3.114e-03		55.198
6		0.00		-5.20		4.047e-03		-71.882		2.858e-03		59.132
6		0.00		-5.60		4.169e-03		-58.142		3.271e-03		59.331
6		0.00		-6.00		3.698e-03		-60.371		2.699e-03		52.921
6		0.00		-6.40		3.526e-03		-52.597		2.498e-03		64.137
6		0.00		-6.80		2.877e-03		-50.907		1.717e-03		65.925
6		0.00		-7.20		2.995e-03		-60.772		1.825e-03		61.187
6		0.00		-7.60		2.801e-03		-52.943		1.506e-03		57.002
6		0.00		-8.00		2.914e-03		-27.349		1.892e-03		85.206
6		0.00		-8.40		2.417e-03		-12.135		1.252e-03		76.830
6		0.00		-8.80		2.411e-03		-13.413		1.270e-03		87.897
6		0.00		-9.20		2.100e-03		-24.153		9.771e-04		80.884
6		0.00		-9.60		2.160e-03		-10.078		1.254e-03		82.565
6		0.00		-10.00		2.625e-03		1.470		1.537e-03		83.357
6		0.00		-9.60		2.530e-03		9.973		1.402e-03		86.387
6		0.00		-9.20		2.456e-03		-4.119		1.292e-03		83.340
6		0.00		-8.80		2.866e-03		-7.476		1.750e-03		92.563
6		0.00		-8.40		3.227e-03		22.767		2.286e-03		86.620
6		0.00		-8.00		2.850e-03		19.025		1.786e-03		79.089
6		0.00		-7.60		3.020e-03		16.681		1.781e-03		96.766
6		0.00		-7.20		2.613e-03		8.506		1.617e-03		90.367
6		0.00		-6.80		2.480e-03		16.449		1.601e-03		88.864
6		0.00		-6.40		2.466e-03		16.186		1.350e-03		79.120
6		0.00		-6.00		2.308e-03		-16.253		1.443e-03		80.905
6		0.00		-5.60		2.330e-03		-4.518		1.482e-03		76.139
6		0.00		-5.20		2.478e-03		-0.190		1.547e-03		78.721
6		0.00		-4.80		2.202e-03		-13.596		1.335e-03		76.896
6		0.00		-4.40		2.154e-03		-18.924		1.335e-03		82.625
6		0.00		-4.00		2.204e-03		-26.426		1.749e-03		73.460
6		0.00		-3.60		2.193e-03		-16.227		1.280e-03		78.482
6		0.00		-3.20		2.293e-03		-29.313		1.381e-03		69.599
6		0.00		-2.80		2.403e-03		-37.693		1.455e-03		68.043
6		0.00		-2.40		2.251e-03		-27.114		1.328e-03		74.254
6		0.00		-2.00		2.522e-03		-29.173		1.516e-03		77.076
6		0.00		-1.60		2.444e-03		-31.312		1.202e-03		71.130
6		0.00		-1.20		2.457e-03		-18.246		1.389e-03		75.150
6		0.00		-0.80		2.534e-03		-36.697		1.487e-03		80.996
6		0.00		-0.40		2.561e-03		-40.521		1.369e-03		81.446
7		0.00		0.00		2.774e-03		-49.714		1.670e-03		70.358
7		0.00		0.40		2.755e-03		-39.933		1.551e-03		76.806
7		0.00		0.80		2.572e-03		-38.386		1.635e-03		71.224
7		0.00		1.20		2.421e-03		-45.073		1.463e-03		90.721
7		0.00		1.60		2.690e-03		-59.207		1.702e-03		86.498
7		0.00		2.00		3.278e-03		-76.957		2.354e-03		58.833
7		0.00		2.40		3.581e-03		-75.166		2.645e-03		59.515
7		0.00		2.80		4.107e-03		-75.859		3.030e-03		55.529
7		0.00		3.20		4.359e-03		-71.669		3.123e-03		57.054
7		0.00		3.60		4.356e-03		-75.852		2.984e-03		50.797
7		0.00		4.00		6.144e-03		-21.477		5.154e-03		49.227
7		0.00		4.40		6.726e-03		-17.716		5.478e-03		42.154
7		0.00		4.80		7.223e-03		-18.314		5.944e-03		48.070
7		0.00		5.20		8.212e-03		-22.363		6.509e-03		45.539
7		0.00		5.60		9.125e-03		-17.121		7.028e-03		49.485
7		0.00		6.00		9.918e-03		-23.680		7.742e-03		42.319
7		0.00		6.40		1.029e-02		-37.352		8.325e-03		44.120
7		0.00		6.80		1.124e-02		-37.707		8.435e-03		43.698
7		0.00		7.20		1.186e-02		-35.527		8.526e-03		43.460
7		0.00		7.60		1.231e-02		-34.652		8.858e-03		43.920
7		0.00		8.00		1.297e-02		-38.477		9.147e-03		43.091
7		0.00		8.40		1.265e-02		-32.761		8.863e-03		51.245
7		0.00		8.80		1.252e-02		-33.043		9.263e-03		42.153
7		0.00		9.20		1.160e-02		-27.609		8.151e-03		52.398
7		0.00		9.60		1.103e-02		-31.442		7.547e-03		48.360
7		0.00		10.00		1.087e-02		-37.580		7.520e-03		58.392
7		0.00		9.60		8.355e-03		-95.047		5.290e-03		44.851
7		0.00		9.20		9.076e-03		-89.295		5.850e-03		50.021
7		0.00		8.80		9.065e-03		-64.323		6.402e-03		60.446
7		0.00		8.40		1.161e-02		-24.603		1.036e-02		46.993
7		0.00		8.00		1.145e-02		-20.856		9.703e-03		41.987
7		0.00		7.60		1.149e-02		-27.190		8.506e-03		39.721
7		0.00		7.20		1.177e-02		-28.572		8.232e-03		47.668
7		0.00		6.80		1.197e-02		-37.977		8.281e-03		40.211
7		0.00		6.40		1.230e-02		-33.982		8.533e-03		43.366
7		0.00		6.00		1.187e-02		-39.698		8.454e-03		48.264
7		0.00		5.60		1.150e-02		-33.414		8.203e-03		48.541
7		0.00		5.20		1.099e-02		-45.040		7.610e-03		41.336
7		0.00		4.80		1.075e-02		-40.375		8.021e-03		51.842
7		0.00		4.40		1.023e-02		-26.846		7.624e-03		50.061
7		0.00		4.00		9.383e-03		-26.338		6.831e-03		53.374
7		0.00		3.60		8.482e-03		-38.736		5.598e-03		55.506
7		0.00		3.20		7.304e-03		-74.283		4.496e-03		53.888
7		0.00		2.80		6.971e-03		-92.690		4.529e-03		46.317
7		0.00		2.40		8.475e-03		-50.240		6.130e-03		58.214
7		0.00		2.00		9.746e-03		-18.107		8.289e-03		48.769
7		0.00		1.60		9.806e-03		-18.595		7.884e-03		46.040
7		0.00		1.20		1.016e-02		-19.331		7.734e-03		44.351
7		0.00		0.80		1.037e-02		-29.072		8.141e-03		42.897
7		0.00		0.40		1.042e-02		-36.887		8.164e-03		42.376
7		0.00		0.00		1.032e-02		-40.539		7.896e-03		41.098
7		0.00		-0.40		9.584e-03		-33.535		6.962e-03		44.513
7		0.00		-0.80		9.403e-03		-35.178		6.902e-03		43.085
7		0.00		-1.20		8.460e-03		-23.718		6.455e-03		43.897
7		0.00		-1.60		8.181e-03		-23.478		7.168e-03		52.275
7		0.00		-2.00		7.855e-03		-15.924		7.432e-03		45.301
7		0.00		-2.40		7.364e-03		-25.581		6.624e-03		49.260
7		0.00		-2.80		6.823e-03		-34.809		5.543e-03		48.400
7		0.00		-3.20		6.394e-03		-48.789		5.066e-03		43.194
7		0.00		-3.60		6.290e-03		-57.913		5.081e-03		39.685
7		0.00		-4.00		5.524e-03		-68.193		4.434e-03		47.648
7		0.00		-4.40		5.249e-03		-70.462		4.309e-03		41.416
7		0.00		-4.80		4.475e-03		-57.014		3.295e-03		46.289
7		0.00		-5.20		3.562e-03		-50.160		2.157e-03		56.090
7		0.00		-5.60		3.530e-03		-50.226		2.166e-03		57.229
7		0.00		-6.00		3.583e-03		-28.775		3.492e-03		91.499
7		0.00		-6.40		3.385e-03		-51.236		2.325e-03		55.377
7		0.00		-6.80		2.841e-03		-61.105		1.688e-03		64.151
7		0.00		-7.20		2.626e-03		-64.600		1.492e-03		66.213
7		0.00		-7.60		2.522e-03		-45.036		1.134e-03		78.537
7		0.00		-8.00		2.541e-03		-42.529		1.293e-03		75.339
7		0.00		-8.40		2.429e-03		-37.183		1.334e-03		80.675
7		0.00		-8.80		2.407e-03		-8.665		1.578e-03		80.015
7		0.00		-9.20		2.595e-03		2.505		1.676e-03		89.458
7		0.00		-9.60		2.864e-03		13.908		2.036e-03		90.514
7		0.00		-10.00		3.360e-03		36.995		2.523e-03		89.277
7		0.00		-9.60		3.096e-03		5.266		2.452e-03		91.390
7		0.00		-9.20		2.661e-03		-20.693		1.563e-03		92.353
7		0.00		-8.80		2.510e-03		-19.824		1.171e-03		86.954
7		0.00		-8.40		2.217e-03		-20.919		9.253e-04		86.027
7		0.00		-8.00		2.398e-03		-13.639		1.186e-03		95.649
7		0.00		-7.60		2.013e-03		-26.847		1.126e-03		84.152
7		0.00		-7.20		2.114e-03		-25.702		1.058e-03		78.462
7		0.00		-6.80		2.422e-03		3.134		1.477e-03		86.656
7		0.00		-6.40		2.741e-03		11.699		1.646e-03		86.450
7		0.00		-6.00		3.464e-03		28.266		2.840e-03		83.890
7		0.00		-5.60		2.380e-03		-28.041		1.465e-03		80.287
7		0.00		-5.20		2.700e-03		-16.176		1.468e-03		88.234
7		0.00		-4.80		2.447e-03		-51.353		1.370e-03		76.333
7		0.00		-4.40		2.779e-03		-25.680		1.746e-03		89.650
7		0.00		-4.00		2.078e-03		-48.395		1.063e-03		63.520
7		0.00		-3.60		2.104e-03		-57.162		1.113e-03		65.836
7		0.00		-3.20		2.228e-03		-36.278		1.164e-03		73.748
7		0.00		-2.80		2.384e-03		-33.542		1.319e-03		80.095
7		0.00		-2.40		2.301e-03		-21.405		1.483e-03		82.097
7		0.00		-2.00		2.691e-03		-21.452		1.585e-03		91.266
7		0.00		-1.60		2.711e-03		-22.795		1.514e-03		90.579
7		0.00		-1.20		2.702e-03		-41.486		1.675e-03		61.781
7		0.00		-0.80		2.716e-03		-37.957		1.832e-03		59.865
7		0.00		-0.40		2.751e-03		-45.120		1.769e-03		59.668
8		0.00		0.00		3.129e-03		-54.298		2.157e-03		49.116
8		0.00		0.40		3.277e-03		-59.591		2.105e-03		61.238
8		0.00		0.80		2.917e-03		-46.648		1.720e-03		63.553
8		0.00		1.20		2.328e-03		-58.857		1.312e-03		62.402
8		0.00		1.60		2.763e-03		-52.894		1.581e-03		63.599
8		0.00		2.00		2.892e-03		-68.439		1.797e-03		66.888
8		0.00		2.40		3.408e-03		-84.098		2.261e-03		50.133
8		0.00		2.80		3.821e-03		-78.393		2.696e-03		50.508
8		0.00		3.20		3.134e-03		-64.364		2.159e-03		57.169
8		0.00		3.60		6.091e-03		-30.932		4.470e-03		41.464
8		0.00		4.00		6.359e-03		-31.325		4.675e-03		50.212
8		0.00		4.40		7.032e-03		-32.340		4.979e-03		40.812
8		0.00		4.80		6.227e-03		-23.875		4.761e-03		52.987
8		0.00		5.20		6.858e-03		-23.103		5.730e-03		50.989
8		0.00		5.60		7.793e-03		-9.683		6.989e-03		48.341
8		0.00		6.00		8.561e-03		-15.382		7.431e-03		52.172
8		0.00		6.40		9.627e-03		-18.648		7.701e-03		40.192
8		0.00		6.80		1.066e-02		-23.363		7.905e-03		37.443
8		0.00		7.20		1.096e-02		-22.141		7.704e-03		55.255
8		0.00		7.60		1.183e-02		-39.252		8.345e-03		51.332
8		0.00		8.00		1.167e-02		-43.406		7.855e-03		39.540
8		0.00		8.40		1.189e-02		-34.967		8.148e-03		47.079
8		0.00		8.80		9.333e-03		-91.241		4.674e-03		50.083
8		0.00		9.20		1.114e-02		-84.650		6.858e-03		44.457
8		0.00		9.60		1.188e-02		-67.363		8.249e-03		45.976
8		0.00		10.00		1.492e-02		-23.002		1.106e-02		46.183
8		0.00		9.60		1.514e-02		-29.725		1.061e-02		40.687
8		0.00		9.20		1.458e-02		-33.515		9.686e-03		47.365
8		0.00		8.80		1.321e-02		-36.732		8.998e-03		44.261
8		0.00		8.40		1.311e-02		-31.056		9.568e-03		49.025
8		0.00		8.00		1.148e-02		-29.311		8.714e-03		48.489
8		0.00		7.60		9.890e-03		-36.967		7.225e-03		46.409
8		0.00		7.20		8.203e-03		-67.903		5.035e-03		54.950
8		0.00		6.80		1.095e-02		-16.217		9.740e-03		49.017
8		0.00		6.40		1.110e-02		-18.469		9.495e-03		42.163
8		0.00		6.00		1.093e-02		-28.779		8.205e-03		43.433
8		0.00		5.60		1.102e-02		-23.950		7.819e-03		41.947
8		0.00		5.20		1.146e-02		-24.106		8.294e-03		49.706
8		0.00		4.80		1.166e-02		-35.391		8.740e-03		45.593
8		0.00		4.40		1.141e-02		-34.562		8.452e-03		45.948
8		0.00		4.00		1.131e-02		-32.797		8.110e-03		44.079
8		0.00		3.60		9.861e-03		-43.280		6.688e-03		50.533
8		0.00		3.20		7.560e-03		-76.695		4.376e-03		56.713
8		0.00		2.80		7.500e-03		-100.418		4.550e-03		38.818
8		0.00		2.40		8.412e-03		-67.105		5.843e-03		53.624
8		0.00		2.00		1.065e-02		-29.055		8.826e-03		41.059
8		0.00		1.60		1.043e-02		-19.517		8.046e-03		50.818
8		0.00		1.20		1.110e-02		-25.735		8.270e-03		44.074
8		0.00		0.80		1.092e-02		-27.249		8.261e-03		42.439
8		0.00		0.40		1.082e-02		-29.439		8.739e-03		40.442
8		0.00		0.00		1.052e-02		-34.715		8.414e-03		47.439
8		0.00		-0.40		9.829e-03		-30.307		8.045e-03		38.260
8		0.00		-0.80		9.005e-03		-34.444		6.849e-03		43.611
8		0.00		-1.20		8.263e-03		-29.968		6.249e-03		48.016
8		0.00		-1.60		7.659e-03		-24.994		6.461e-03		47.031
8		0.00		-2.00		7.585e-03		-17.321		7.005e-03		43.159
8		0.00		-2.40		7.587e-03		-27.550		6.913e-03		35.665
8		0.00		-2.80		6.911e-03		-15.321		5.935e-03		55.938
8		0.00		-3.20		7.039e-03		-40.608		5.620e-03		48.108
8		0.00		-3.60		6.371e-03		-40.385		4.957e-03		44.892
8		0.00		-4.00		5.845e-03		-49.322		4.746e-03		46.032
8		0.00		-4.40		5.554e-03		-55.733		4.547e-03		42.735
8		0.00		-4.80		5.250e-03		-53.610		4.093e-03		50.624
8		0.00		-5.20		4.692e-03		-56.610		3.334e-03		49.046
8		0.00		-5.60		3.689e-03		-58.517		2.053e-03		64.792
8		0.00		-6.00		3.379e-03		-41.868		2.116e-03		60.299
8		0.00		-6.40		2.945e-03		-45.341		1.715e-03		71.654
8		0.00		-6.80		3.372e-03		6.353		3.272e-03		93.475
8		0.00		-7.20		2.750e-03		-57.054		1.592e-03		71.186
8		0.00		-7.60		2.342e-03		-37.667		1.329e-03		63.130
8		0.00		-8.00		2.335e-03		-42.309		1.291e-03		64.728
8		0.00		-8.40		2.947e-03		-42.499		1.618e-03		85.860
8		0.00		-8.80		3.286e-03		-19.892		1.941e-03		99.310
8		0.00		-9.20		3.322e-03		-9.680		2.093e-03		101.231
8		0.00		-9.60		3.090e-03		5.793		2.024e-03		99.486
8		0.00		-10.00		3.363e-03		30.085		2.470e-03		84.748
8		0.00		-9.60		2.917e-03		9.337		1.897e-03		85.106
8		0.00		-9.20		3.023e-03		24.594		2.118e-03		80.402
8		0.00		-8.80		2.849e-03		30.487		1.649e-03		82.682
8		0.00		-8.40		2.401e-03		-1.051		1.432e-03		85.441
8		0.00		-8.00		2.511e-03		-6.142		1.293e-03		78.478
8		0.00		-7.60		2.784e-03		-10.473		1.467e-03		87.949
8		0.00		-7.20		2.213e-03		-28.903		9.935e-04		82.255
8		0.00		-6.80		2.283e-03		-12.297		1.032e-03		89.550
8		0.00		-6.40		2.252e-03		-31.638		1.013e-03		81.612
8		0.00		-6.00		1.982e-03		-30.545		7.745e-04		81.400
8		0.00		-5.60		2.102e-03		-22.874		1.019e-03		80.352
8		0.00		-5.20		2.799e-03		-0.320		2.052e-03		78.957
8		0.00		-4.80		2.495e-03		-2.970		1.883e-03		87.815
8		0.00		-4.40		2.413e-03		2.159		1.518e-03		81.848
8		0.00		-4.00		2.996e-03		15.531		1.904e-03		89.607
8		0.00		-3.60		3.512e-03		33.093		4.008e-03		78.290
8		0.00		-3.20		2.916e-03		20.036		2.903e-03		83.857
8		0.00		-2.80		2.679e-03		-52.785		1.340e-03		65.052
8		0.00		-2.40		2.635e-03		-63.397		1.254e-03		67.012
8		0.00		-2.00		2.583e-03		-48.087		1.289e-03		73.410
8		0.00		-1.60		2.836e-03		-45.052		1.389e-03		85.675
8		0.00		-1.20		2.562e-03		-57.763		1.377e-03		65.925
8		0.00		-0.80		2.638e-03		-59.626		1.253e-03		62.232
8		0.00		-0.40		2.630e-03		-41.852		1.490e-03		73.017
