# Date of analysis: 2023-11-20 16;16
# 
# Loop index	Read Volt (V)	Write Volt (V)	Amplitude (a.u)	Phase (deg)	Sigma Amp (a.u)	Sigma Pha (deg)	
1		0.00		0.00		5.482e-02		-53.763		7.750e-03		8.470
1		0.00		0.40		5.383e-02		-53.017		8.248e-03		9.935
1		0.00		0.80		5.224e-02		-53.723		8.782e-03		10.274
1		0.00		1.20		5.115e-02		-53.528		9.773e-03		12.083
1		0.00		1.60		5.070e-02		-52.538		9.673e-03		11.911
1		0.00		2.00		5.042e-02		-54.488		1.042e-02		13.964
1		0.00		2.40		5.029e-02		-52.997		1.012e-02		13.946
1		0.00		2.80		4.930e-02		-51.050		1.084e-02		8.405
1		0.00		3.20		4.989e-02		-53.028		1.099e-02		13.422
1		0.00		3.60		4.847e-02		-51.581		1.147e-02		10.714
1		0.00		4.00		4.844e-02		-52.179		1.145e-02		12.812
1		0.00		4.40		4.892e-02		-52.644		1.043e-02		9.864
1		0.00		4.80		4.920e-02		-51.804		1.012e-02		9.162
1		0.00		5.20		4.945e-02		-52.973		1.033e-02		10.552
1		0.00		5.60		4.979e-02		-54.324		1.006e-02		10.776
1		0.00		6.00		5.029e-02		-54.185		1.010e-02		10.567
1		0.00		6.40		5.166e-02		-54.780		1.009e-02		10.667
1		0.00		6.80		5.112e-02		-54.168		9.623e-03		11.665
1		0.00		7.20		5.283e-02		-53.921		9.245e-03		10.480
1		0.00		7.60		5.474e-02		-53.610		9.982e-03		11.027
1		0.00		8.00		5.695e-02		-54.557		1.027e-02		11.198
1		0.00		8.40		5.698e-02		-55.075		1.086e-02		12.599
1		0.00		8.80		5.956e-02		-53.703		1.049e-02		11.017
1		0.00		9.20		5.974e-02		-54.193		1.180e-02		13.816
1		0.00		9.60		6.241e-02		-52.493		1.256e-02		12.267
1		0.00		10.00		6.394e-02		-51.428		1.379e-02		11.463
1		0.00		9.60		5.961e-02		-52.016		1.195e-02		14.390
1		0.00		9.20		6.005e-02		-50.733		1.252e-02		11.528
1		0.00		8.80		5.849e-02		-50.280		1.225e-02		8.285
1		0.00		8.40		5.709e-02		-49.397		1.299e-02		9.773
1		0.00		8.00		5.650e-02		-48.983		1.320e-02		10.721
1		0.00		7.60		5.680e-02		-50.177		1.307e-02		10.658
1		0.00		7.20		5.560e-02		-50.855		1.261e-02		9.497
1		0.00		6.80		5.545e-02		-52.581		1.311e-02		10.572
1		0.00		6.40		5.454e-02		-52.959		1.220e-02		10.292
1		0.00		6.00		5.444e-02		-54.852		1.230e-02		11.398
1		0.00		5.60		5.489e-02		-54.664		1.084e-02		10.683
1		0.00		5.20		5.507e-02		-55.867		1.015e-02		9.914
1		0.00		4.80		5.436e-02		-54.975		8.969e-03		9.357
1		0.00		4.40		5.412e-02		-54.118		8.615e-03		8.969
1		0.00		4.00		5.405e-02		-55.065		9.092e-03		9.696
1		0.00		3.60		5.250e-02		-53.218		9.253e-03		9.024
1		0.00		3.20		5.245e-02		-54.327		9.640e-03		9.697
1		0.00		2.80		5.215e-02		-53.669		9.658e-03		9.622
1		0.00		2.40		5.078e-02		-53.306		1.004e-02		10.080
1		0.00		2.00		4.916e-02		-53.331		1.028e-02		11.367
1		0.00		1.60		4.951e-02		-53.359		1.071e-02		12.423
1		0.00		1.20		4.841e-02		-51.297		1.144e-02		12.338
1		0.00		0.80		4.737e-02		-50.423		1.200e-02		11.679
1		0.00		0.40		4.715e-02		-51.576		1.236e-02		10.367
1		0.00		0.00		4.769e-02		-53.719		1.234e-02		11.398
1		0.00		-0.40		4.830e-02		-54.066		1.117e-02		10.496
1		0.00		-0.80		4.747e-02		-55.863		1.048e-02		11.479
1		0.00		-1.20		4.620e-02		-55.179		8.982e-03		11.853
1		0.00		-1.60		4.501e-02		-55.161		7.882e-03		11.834
1		0.00		-2.00		4.359e-02		-54.588		6.998e-03		11.254
1		0.00		-2.40		4.224e-02		-54.996		6.919e-03		11.881
1		0.00		-2.80		3.968e-02		-54.544		6.302e-03		10.602
1		0.00		-3.20		3.802e-02		-53.619		5.979e-03		10.770
1		0.00		-3.60		3.626e-02		-53.665		5.775e-03		10.757
1		0.00		-4.00		3.222e-02		-53.494		5.348e-03		11.364
1		0.00		-4.40		2.936e-02		-52.434		5.282e-03		10.734
1		0.00		-4.80		2.551e-02		-53.278		5.152e-03		14.862
1		0.00		-5.20		2.253e-02		-49.113		5.052e-03		13.640
1		0.00		-5.60		1.972e-02		-51.861		4.728e-03		12.913
1		0.00		-6.00		1.685e-02		-50.607		4.193e-03		13.278
1		0.00		-6.40		1.386e-02		-52.357		3.708e-03		15.248
1		0.00		-6.80		1.196e-02		-48.140		3.492e-03		16.510
1		0.00		-7.20		9.287e-03		-50.026		2.775e-03		16.890
1		0.00		-7.60		6.997e-03		-54.652		2.360e-03		21.277
1		0.00		-8.00		4.957e-03		-57.297		1.947e-03		25.444
1		0.00		-8.40		3.520e-03		-51.512		1.773e-03		46.770
1		0.00		-8.80		2.486e-03		-22.045		1.119e-03		70.840
1		0.00		-9.20		2.634e-03		36.895		1.412e-03		76.364
1		0.00		-9.60		3.918e-03		94.611		1.922e-03		60.230
1		0.00		-10.00		4.519e-03		95.816		2.106e-03		47.188
1		0.00		-9.60		5.210e-03		104.844		2.267e-03		53.095
1		0.00		-9.20		5.247e-03		108.938		2.190e-03		41.558
1		0.00		-8.80		5.233e-03		113.898		2.176e-03		30.667
1		0.00		-8.40		5.097e-03		110.240		2.390e-03		37.932
1		0.00		-8.00		4.425e-03		102.127		2.104e-03		44.712
1		0.00		-7.60		3.742e-03		90.324		1.705e-03		57.960
1		0.00		-7.20		3.042e-03		71.566		1.651e-03		62.884
1		0.00		-6.80		2.261e-03		40.938		1.278e-03		72.955
1		0.00		-6.40		2.301e-03		12.474		1.153e-03		80.443
1		0.00		-6.00		2.105e-03		-9.215		9.617e-04		72.523
1		0.00		-5.60		2.154e-03		-14.406		1.109e-03		60.702
1		0.00		-5.20		2.853e-03		-43.630		1.286e-03		63.554
1		0.00		-4.80		3.662e-03		-63.658		1.672e-03		29.386
1		0.00		-4.40		4.368e-03		-50.240		1.656e-03		24.706
1		0.00		-4.00		5.365e-03		-54.850		1.808e-03		22.124
1		0.00		-3.60		6.362e-03		-53.893		1.945e-03		20.610
1		0.00		-3.20		6.650e-03		-49.323		1.749e-03		21.332
1		0.00		-2.80		7.692e-03		-43.904		1.990e-03		17.526
1		0.00		-2.40		8.428e-03		-52.187		2.128e-03		22.430
1		0.00		-2.00		9.186e-03		-51.002		2.281e-03		16.793
1		0.00		-1.60		9.757e-03		-45.604		2.413e-03		19.060
1		0.00		-1.20		1.060e-02		-49.391		2.378e-03		15.826
1		0.00		-0.80		1.067e-02		-51.288		2.532e-03		12.971
1		0.00		-0.40		1.137e-02		-48.593		2.841e-03		15.178
2		0.00		0.00		1.140e-02		-49.165		2.738e-03		13.724
2		0.00		0.40		1.191e-02		-53.418		2.960e-03		12.732
2		0.00		0.80		1.208e-02		-48.960		2.806e-03		13.844
2		0.00		1.20		1.250e-02		-52.946		2.904e-03		14.405
2		0.00		1.60		1.353e-02		-55.274		3.053e-03		12.281
2		0.00		2.00		1.430e-02		-52.066		2.823e-03		11.665
2		0.00		2.40		1.431e-02		-53.678		2.844e-03		12.484
2		0.00		2.80		1.541e-02		-52.867		3.120e-03		13.639
2		0.00		3.20		1.605e-02		-55.281		3.166e-03		13.847
2		0.00		3.60		1.665e-02		-55.618		2.946e-03		13.513
2		0.00		4.00		1.788e-02		-53.369		2.973e-03		13.370
2		0.00		4.40		1.947e-02		-54.738		3.018e-03		13.194
2		0.00		4.80		2.101e-02		-56.066		3.127e-03		12.211
2		0.00		5.20		2.269e-02		-57.045		3.521e-03		12.206
2		0.00		5.60		2.536e-02		-55.978		3.799e-03		12.179
2		0.00		6.00		2.803e-02		-55.718		3.878e-03		11.838
2		0.00		6.40		3.262e-02		-54.655		5.207e-03		11.777
2		0.00		6.80		3.612e-02		-55.249		5.433e-03		10.707
2		0.00		7.20		4.043e-02		-56.243		6.392e-03		10.517
2		0.00		7.60		4.344e-02		-54.990		7.947e-03		11.842
2		0.00		8.00		4.645e-02		-54.817		8.717e-03		11.622
2		0.00		8.40		4.748e-02		-54.445		9.117e-03		11.651
2		0.00		8.80		5.016e-02		-54.822		1.017e-02		12.646
2		0.00		9.20		5.344e-02		-54.983		1.158e-02		12.985
2		0.00		9.60		5.403e-02		-54.292		1.098e-02		12.212
2		0.00		10.00		5.335e-02		-55.198		1.211e-02		13.817
2		0.00		9.60		5.428e-02		-53.550		1.167e-02		12.726
2		0.00		9.20		5.319e-02		-55.173		1.218e-02		15.020
2		0.00		8.80		5.202e-02		-53.506		1.109e-02		14.586
2		0.00		8.40		5.056e-02		-53.272		9.591e-03		11.787
2		0.00		8.00		4.880e-02		-53.810		9.732e-03		15.071
2		0.00		7.60		4.910e-02		-53.098		8.563e-03		11.624
2		0.00		7.20		4.685e-02		-53.289		8.514e-03		13.662
2		0.00		6.80		4.655e-02		-51.748		9.153e-03		12.428
2		0.00		6.40		4.590e-02		-53.327		8.814e-03		13.545
2		0.00		6.00		4.468e-02		-52.262		8.653e-03		9.386
2		0.00		5.60		4.419e-02		-51.364		8.982e-03		11.027
2		0.00		5.20		4.369e-02		-50.967		8.792e-03		11.596
2		0.00		4.80		4.398e-02		-51.706		9.255e-03		12.670
2		0.00		4.40		4.350e-02		-50.684		9.715e-03		11.850
2		0.00		4.00		4.283e-02		-51.313		1.018e-02		12.323
2		0.00		3.60		4.252e-02		-50.822		9.930e-03		11.470
2		0.00		3.20		4.179e-02		-50.651		9.594e-03		8.938
2		0.00		2.80		4.210e-02		-51.371		9.523e-03		9.208
2		0.00		2.40		4.201e-02		-51.655		9.806e-03		8.292
2		0.00		2.00		4.154e-02		-49.654		9.679e-03		7.694
2		0.00		1.60		4.151e-02		-52.966		9.663e-03		11.941
2		0.00		1.20		4.017e-02		-51.258		9.808e-03		8.962
2		0.00		0.80		4.055e-02		-51.748		9.370e-03		8.237
2		0.00		0.40		3.977e-02		-50.860		9.018e-03		9.638
2		0.00		0.00		3.913e-02		-51.880		8.874e-03		10.081
2		0.00		-0.40		3.893e-02		-52.260		8.523e-03		10.892
2		0.00		-0.80		3.729e-02		-53.804		8.082e-03		9.929
2		0.00		-1.20		3.651e-02		-53.089		7.654e-03		10.601
2		0.00		-1.60		3.468e-02		-53.497		7.432e-03		10.306
2		0.00		-2.00		3.293e-02		-53.616		7.005e-03		11.159
2		0.00		-2.40		3.121e-02		-54.967		6.971e-03		10.036
2		0.00		-2.80		2.879e-02		-52.768		6.002e-03		10.979
2		0.00		-3.20		2.681e-02		-53.419		5.818e-03		10.018
2		0.00		-3.60		2.420e-02		-55.743		5.763e-03		11.311
2		0.00		-4.00		2.220e-02		-55.594		5.546e-03		12.253
2		0.00		-4.40		2.049e-02		-52.604		4.766e-03		12.403
2		0.00		-4.80		1.762e-02		-53.375		4.186e-03		10.654
2		0.00		-5.20		1.583e-02		-54.222		3.820e-03		14.175
2		0.00		-5.60		1.445e-02		-54.136		3.636e-03		12.882
2		0.00		-6.00		1.200e-02		-56.360		2.893e-03		15.043
2		0.00		-6.40		8.027e-03		-54.474		2.239e-03		13.998
2		0.00		-6.80		6.183e-03		-56.688		2.081e-03		24.881
2		0.00		-7.20		4.174e-03		-55.214		1.745e-03		35.097
2		0.00		-7.60		2.648e-03		-43.055		1.241e-03		67.909
2		0.00		-8.00		2.800e-03		-23.508		1.306e-03		84.383
2		0.00		-8.40		2.706e-03		65.948		1.450e-03		71.428
2		0.00		-8.80		3.462e-03		85.404		1.625e-03		68.500
2		0.00		-9.20		3.970e-03		101.470		1.930e-03		52.636
2		0.00		-9.60		5.094e-03		108.523		2.384e-03		50.216
2		0.00		-10.00		6.129e-03		113.807		2.572e-03		35.557
2		0.00		-9.60		6.736e-03		118.496		2.576e-03		27.497
2		0.00		-9.20		7.092e-03		125.216		2.588e-03		27.859
2		0.00		-8.80		6.086e-03		115.716		2.502e-03		27.933
2		0.00		-8.40		5.485e-03		113.571		2.352e-03		32.326
2		0.00		-8.00		5.086e-03		111.643		2.254e-03		51.769
2		0.00		-7.60		4.253e-03		110.616		1.853e-03		50.104
2		0.00		-7.20		3.958e-03		105.310		1.904e-03		49.613
2		0.00		-6.80		3.032e-03		81.990		1.506e-03		67.087
2		0.00		-6.40		2.502e-03		32.202		1.196e-03		80.135
2		0.00		-6.00		2.334e-03		28.575		1.129e-03		83.183
2		0.00		-5.60		2.252e-03		-24.049		9.615e-04		72.276
2		0.00		-5.20		2.484e-03		-36.743		1.131e-03		63.551
2		0.00		-4.80		3.191e-03		-62.929		1.376e-03		45.647
2		0.00		-4.40		3.547e-03		-36.267		1.659e-03		36.980
2		0.00		-4.00		4.229e-03		-48.319		1.660e-03		25.799
2		0.00		-3.60		5.317e-03		-45.716		2.051e-03		25.086
2		0.00		-3.20		6.572e-03		-52.868		2.042e-03		16.537
2		0.00		-2.80		7.067e-03		-53.642		1.984e-03		17.917
2		0.00		-2.40		7.994e-03		-53.221		1.898e-03		14.739
2		0.00		-2.00		9.223e-03		-53.676		1.795e-03		14.937
2		0.00		-1.60		9.559e-03		-52.508		1.819e-03		15.339
2		0.00		-1.20		1.073e-02		-55.143		2.051e-03		14.731
2		0.00		-0.80		1.110e-02		-55.425		2.082e-03		16.378
2		0.00		-0.40		1.168e-02		-55.787		2.192e-03		14.671
3		0.00		0.00		1.232e-02		-55.030		1.966e-03		15.472
3		0.00		0.40		1.252e-02		-52.769		2.199e-03		15.752
3		0.00		0.80		1.295e-02		-54.128		2.250e-03		12.814
3		0.00		1.20		1.354e-02		-49.194		2.324e-03		14.091
3		0.00		1.60		1.357e-02		-53.208		2.654e-03		15.021
3		0.00		2.00		1.442e-02		-54.934		2.539e-03		13.692
3		0.00		2.40		1.524e-02		-53.748		2.757e-03		14.487
3		0.00		2.80		1.584e-02		-51.789		2.953e-03		13.182
3		0.00		3.20		1.608e-02		-49.104		3.065e-03		14.191
3		0.00		3.60		1.701e-02		-53.371		3.402e-03		14.960
3		0.00		4.00		1.776e-02		-54.640		3.649e-03		15.537
3		0.00		4.40		1.846e-02		-53.346		3.729e-03		12.157
3		0.00		4.80		1.996e-02		-53.084		4.306e-03		13.821
3		0.00		5.20		2.304e-02		-54.781		5.030e-03		13.497
3		0.00		5.60		2.637e-02		-53.866		5.966e-03		11.436
3		0.00		6.00		3.084e-02		-54.933		7.201e-03		11.815
3		0.00		6.40		3.461e-02		-53.730		7.649e-03		11.151
3		0.00		6.80		3.690e-02		-55.926		8.626e-03		11.483
3		0.00		7.20		4.001e-02		-55.953		9.379e-03		11.100
3		0.00		7.60		4.369e-02		-55.811		1.001e-02		10.823
3		0.00		8.00		4.376e-02		-55.900		9.378e-03		11.262
3		0.00		8.40		4.891e-02		-56.226		9.843e-03		10.006
3		0.00		8.80		5.064e-02		-55.073		9.880e-03		9.751
3		0.00		9.20		5.268e-02		-54.261		9.651e-03		9.314
3		0.00		9.60		5.429e-02		-54.167		1.022e-02		9.720
3		0.00		10.00		5.604e-02		-55.606		1.007e-02		9.518
3		0.00		9.60		5.543e-02		-54.422		9.728e-03		10.221
3		0.00		9.20		5.447e-02		-54.352		9.592e-03		10.391
3		0.00		8.80		5.324e-02		-54.891		1.045e-02		12.868
3		0.00		8.40		5.138e-02		-54.282		9.499e-03		11.705
3		0.00		8.00		4.473e-02		-56.590		1.227e-02		17.986
3		0.00		7.60		4.328e-02		-56.785		1.245e-02		20.161
3		0.00		7.20		4.541e-02		-54.844		1.032e-02		15.477
3		0.00		6.80		4.514e-02		-52.786		1.061e-02		13.704
3		0.00		6.40		4.460e-02		-55.186		1.027e-02		14.936
3		0.00		6.00		4.257e-02		-50.543		1.102e-02		16.488
3		0.00		5.60		4.211e-02		-50.344		1.130e-02		16.469
3		0.00		5.20		4.146e-02		-48.930		1.174e-02		16.152
3		0.00		4.80		4.166e-02		-51.977		1.205e-02		14.782
3		0.00		4.40		4.128e-02		-52.872		1.209e-02		15.953
3		0.00		4.00		4.112e-02		-54.181		1.192e-02		13.261
3		0.00		3.60		4.091e-02		-56.103		1.183e-02		13.674
3		0.00		3.20		4.091e-02		-56.003		1.162e-02		13.460
3		0.00		2.80		4.121e-02		-56.027		1.100e-02		13.779
3		0.00		2.40		4.084e-02		-56.739		1.013e-02		14.721
3		0.00		2.00		4.126e-02		-57.395		9.829e-03		13.904
3		0.00		1.60		4.204e-02		-56.391		8.926e-03		13.197
3		0.00		1.20		4.186e-02		-56.295		7.768e-03		11.666
3		0.00		0.80		4.188e-02		-55.515		7.130e-03		11.618
3		0.00		0.40		4.179e-02		-54.916		7.227e-03		11.976
3		0.00		0.00		4.090e-02		-54.338		6.759e-03		12.636
3		0.00		-0.40		3.969e-02		-53.813		6.737e-03		11.859
3		0.00		-0.80		3.884e-02		-53.119		6.710e-03		12.879
3		0.00		-1.20		3.858e-02		-53.450		7.185e-03		12.120
3		0.00		-1.60		3.628e-02		-54.657		7.336e-03		14.350
3		0.00		-2.00		3.467e-02		-53.505		7.529e-03		15.024
3		0.00		-2.40		3.287e-02		-54.009		7.686e-03		15.715
3		0.00		-2.80		3.105e-02		-51.441		7.899e-03		15.840
3		0.00		-3.20		2.877e-02		-52.830		7.445e-03		18.147
3		0.00		-3.60		2.697e-02		-53.012		7.477e-03		20.223
3		0.00		-4.00		2.476e-02		-54.357		6.771e-03		13.951
3		0.00		-4.40		2.240e-02		-54.742		5.563e-03		12.952
3		0.00		-4.80		1.927e-02		-56.319		4.613e-03		13.427
3		0.00		-5.20		1.717e-02		-56.396		3.827e-03		14.607
3		0.00		-5.60		1.404e-02		-52.750		2.788e-03		15.703
3		0.00		-6.00		1.167e-02		-53.318		2.470e-03		16.092
3		0.00		-6.40		9.465e-03		-54.681		2.143e-03		17.737
3		0.00		-6.80		7.471e-03		-51.520		1.829e-03		20.650
3		0.00		-7.20		6.209e-03		-46.901		1.712e-03		21.174
3		0.00		-7.60		4.319e-03		-48.812		1.751e-03		25.277
3		0.00		-8.00		2.801e-03		-39.160		1.236e-03		62.375
3		0.00		-8.40		2.557e-03		-14.965		1.114e-03		68.490
3		0.00		-8.80		2.264e-03		36.318		1.138e-03		78.370
3		0.00		-9.20		3.114e-03		77.120		1.481e-03		64.494
3		0.00		-9.60		3.396e-03		83.939		1.869e-03		66.728
3		0.00		-10.00		4.633e-03		108.438		2.035e-03		41.565
3		0.00		-9.60		3.891e-03		99.760		1.719e-03		57.166
3		0.00		-9.20		3.609e-03		95.581		1.761e-03		52.263
3		0.00		-8.80		3.868e-03		106.394		2.002e-03		48.594
3		0.00		-8.40		3.743e-03		93.523		2.010e-03		51.844
3		0.00		-8.00		3.286e-03		86.816		1.695e-03		56.557
3		0.00		-7.60		2.773e-03		53.551		1.394e-03		83.002
3		0.00		-7.20		2.488e-03		37.296		1.098e-03		82.934
3		0.00		-6.80		2.183e-03		2.862		1.054e-03		85.407
3		0.00		-6.40		2.499e-03		-38.657		1.089e-03		70.056
3		0.00		-6.00		3.106e-03		-49.632		1.293e-03		50.970
3		0.00		-5.60		3.391e-03		-50.620		1.463e-03		33.039
3		0.00		-5.20		4.204e-03		-53.594		1.632e-03		28.640
3		0.00		-4.80		5.475e-03		-47.642		1.921e-03		22.590
3		0.00		-4.40		6.391e-03		-56.339		1.747e-03		21.266
3		0.00		-4.00		7.202e-03		-45.785		2.012e-03		20.856
3		0.00		-3.60		8.528e-03		-48.561		2.201e-03		19.295
3		0.00		-3.20		9.351e-03		-48.748		2.374e-03		16.025
3		0.00		-2.80		1.062e-02		-50.471		2.465e-03		13.945
3		0.00		-2.40		1.092e-02		-52.963		2.344e-03		15.741
3		0.00		-2.00		1.200e-02		-53.109		2.181e-03		14.084
3		0.00		-1.60		1.285e-02		-55.572		1.989e-03		14.519
3		0.00		-1.20		1.357e-02		-52.496		2.097e-03		14.587
3		0.00		-0.80		1.466e-02		-52.503		2.410e-03		13.387
3		0.00		-0.40		1.479e-02		-51.365		2.520e-03		14.265
4		0.00		0.00		1.499e-02		-52.877		2.822e-03		13.694
4		0.00		0.40		1.504e-02		-54.120		3.236e-03		15.337
4		0.00		0.80		1.539e-02		-50.602		3.593e-03		15.315
4		0.00		1.20		1.568e-02		-52.413		3.832e-03		14.333
4		0.00		1.60		1.616e-02		-54.510		3.932e-03		15.959
4		0.00		2.00		1.689e-02		-54.013		3.816e-03		15.557
4		0.00		2.40		1.782e-02		-54.478		3.296e-03		12.503
4		0.00		2.80		1.849e-02		-54.885		2.688e-03		13.348
4		0.00		3.20		1.955e-02		-55.142		3.160e-03		14.221
4		0.00		3.60		1.994e-02		-54.982		3.338e-03		13.898
4		0.00		4.00		1.979e-02		-52.597		3.458e-03		13.006
4		0.00		4.40		2.039e-02		-54.171		4.027e-03		13.039
4		0.00		4.80		2.144e-02		-51.129		4.807e-03		13.063
4		0.00		5.20		2.415e-02		-53.833		5.608e-03		13.235
4		0.00		5.60		2.749e-02		-55.204		6.183e-03		10.919
4		0.00		6.00		3.424e-02		-55.765		6.499e-03		12.082
4		0.00		6.40		3.612e-02		-55.987		6.287e-03		11.832
4		0.00		6.80		4.036e-02		-54.939		7.573e-03		10.994
4		0.00		7.20		4.089e-02		-53.962		8.386e-03		12.382
4		0.00		7.60		4.411e-02		-54.938		9.853e-03		14.410
4		0.00		8.00		4.677e-02		-51.689		1.189e-02		14.477
4		0.00		8.40		4.761e-02		-52.185		1.290e-02		13.895
4		0.00		8.80		4.782e-02		-54.958		1.266e-02		12.482
4		0.00		9.20		5.118e-02		-55.645		1.217e-02		11.869
4		0.00		9.60		5.381e-02		-55.759		1.073e-02		9.517
4		0.00		10.00		5.446e-02		-55.485		1.046e-02		10.458
4		0.00		9.60		5.266e-02		-55.283		1.082e-02		12.794
4		0.00		9.20		5.099e-02		-53.644		1.073e-02		14.527
4		0.00		8.80		4.966e-02		-51.092		1.162e-02		14.532
4		0.00		8.40		4.969e-02		-52.983		1.235e-02		12.327
4		0.00		8.00		4.845e-02		-55.338		1.121e-02		12.338
4		0.00		7.60		4.802e-02		-54.464		8.811e-03		11.188
4		0.00		7.20		4.773e-02		-54.303		7.611e-03		10.558
4		0.00		6.80		4.640e-02		-53.448		7.847e-03		10.887
4		0.00		6.40		4.525e-02		-53.401		8.674e-03		11.134
4		0.00		6.00		4.335e-02		-51.804		9.821e-03		14.020
4		0.00		5.60		4.337e-02		-51.123		1.006e-02		9.956
4		0.00		5.20		4.281e-02		-54.255		1.026e-02		10.922
4		0.00		4.80		4.308e-02		-55.298		8.417e-03		10.089
4		0.00		4.40		4.401e-02		-54.285		6.867e-03		9.258
4		0.00		4.00		4.350e-02		-53.424		6.702e-03		10.111
4		0.00		3.60		4.275e-02		-53.451		7.675e-03		10.974
4		0.00		3.20		4.146e-02		-52.001		8.477e-03		12.413
4		0.00		2.80		4.053e-02		-51.418		9.810e-03		10.855
4		0.00		2.40		4.086e-02		-53.533		1.003e-02		10.912
4		0.00		2.00		4.187e-02		-55.730		8.506e-03		9.862
4		0.00		1.60		4.144e-02		-54.048		6.770e-03		9.937
4		0.00		1.20		4.115e-02		-54.216		5.868e-03		9.446
4		0.00		0.80		4.061e-02		-52.532		6.087e-03		8.954
4		0.00		0.40		3.845e-02		-52.718		7.173e-03		12.704
4		0.00		0.00		3.759e-02		-52.023		7.977e-03		12.230
4		0.00		-0.40		3.704e-02		-53.295		8.265e-03		10.322
4		0.00		-0.80		3.658e-02		-54.993		7.382e-03		10.669
4		0.00		-1.20		3.688e-02		-54.599		5.808e-03		9.927
4		0.00		-1.60		3.627e-02		-54.628		5.160e-03		10.545
4		0.00		-2.00		3.318e-02		-53.547		5.364e-03		10.929
4		0.00		-2.40		3.135e-02		-51.223		6.231e-03		11.353
4		0.00		-2.80		3.048e-02		-50.467		6.830e-03		13.952
4		0.00		-3.20		2.917e-02		-52.379		6.886e-03		10.829
4		0.00		-3.60		2.737e-02		-54.742		6.051e-03		10.832
4		0.00		-4.00		2.542e-02		-54.823		4.421e-03		11.234
4		0.00		-4.40		2.305e-02		-54.080		3.773e-03		12.364
4		0.00		-4.80		2.097e-02		-53.675		3.961e-03		13.470
4		0.00		-5.20		1.864e-02		-51.462		3.899e-03		12.833
4		0.00		-5.60		1.523e-02		-51.925		3.641e-03		13.558
4		0.00		-6.00		1.178e-02		-51.798		3.081e-03		15.498
4		0.00		-6.40		9.970e-03		-55.542		2.587e-03		16.354
4		0.00		-6.80		8.577e-03		-53.087		1.933e-03		17.651
4		0.00		-7.20		6.675e-03		-56.167		1.969e-03		20.217
4		0.00		-7.60		5.193e-03		-69.228		1.910e-03		27.199
4		0.00		-8.00		3.660e-03		-38.362		1.977e-03		40.176
4		0.00		-8.40		2.532e-03		-44.395		1.362e-03		63.455
4		0.00		-8.80		2.277e-03		18.221		1.164e-03		78.565
4		0.00		-9.20		3.135e-03		74.127		1.363e-03		60.033
4		0.00		-9.60		3.884e-03		79.223		1.942e-03		58.635
4		0.00		-10.00		5.336e-03		107.682		2.273e-03		36.473
4		0.00		-9.60		6.338e-03		116.333		2.834e-03		29.542
4		0.00		-9.20		5.622e-03		105.352		2.259e-03		29.293
4		0.00		-8.80		4.939e-03		103.192		2.143e-03		44.011
4		0.00		-8.40		5.117e-03		106.677		2.117e-03		37.950
4		0.00		-8.00		4.075e-03		104.234		1.681e-03		43.271
4		0.00		-7.60		3.536e-03		88.528		1.550e-03		45.907
4		0.00		-7.20		2.314e-03		47.196		1.183e-03		75.608
4		0.00		-6.80		2.036e-03		7.795		9.310e-04		77.852
4		0.00		-6.40		2.041e-03		-0.731		8.634e-04		64.802
4		0.00		-6.00		2.258e-03		-40.376		1.087e-03		56.382
4		0.00		-5.60		3.261e-03		-40.524		1.350e-03		43.000
4		0.00		-5.20		3.579e-03		-58.161		1.363e-03		34.431
4		0.00		-4.80		4.979e-03		-42.267		1.309e-03		21.571
4		0.00		-4.40		6.261e-03		-49.098		1.643e-03		19.147
4		0.00		-4.00		7.639e-03		-50.700		1.701e-03		20.363
4		0.00		-3.60		8.577e-03		-49.057		1.941e-03		15.067
4		0.00		-3.20		9.414e-03		-46.659		2.041e-03		14.644
4		0.00		-2.80		1.061e-02		-46.752		2.582e-03		12.392
4		0.00		-2.40		1.146e-02		-50.871		2.433e-03		12.375
4		0.00		-2.00		1.294e-02		-50.434		2.308e-03		11.778
4		0.00		-1.60		1.373e-02		-52.098		2.021e-03		10.788
4		0.00		-1.20		1.467e-02		-50.041		2.290e-03		12.544
4		0.00		-0.80		1.549e-02		-51.523		2.677e-03		12.376
4		0.00		-0.40		1.545e-02		-50.332		3.046e-03		14.530
5		0.00		0.00		1.610e-02		-51.979		3.483e-03		12.776
5		0.00		0.40		1.735e-02		-51.593		3.750e-03		10.428
5		0.00		0.80		1.782e-02		-53.173		3.606e-03		11.718
5		0.00		1.20		1.856e-02		-53.935		2.973e-03		11.430
5		0.00		1.60		1.895e-02		-53.268		3.145e-03		12.472
5		0.00		2.00		1.952e-02		-52.003		3.350e-03		11.326
5		0.00		2.40		1.994e-02		-52.424		3.912e-03		12.595
5		0.00		2.80		2.010e-02		-55.461		4.554e-03		15.361
5		0.00		3.20		2.061e-02		-52.488		5.036e-03		11.789
5		0.00		3.60		2.145e-02		-54.240		4.372e-03		11.321
5		0.00		4.00		2.212e-02		-55.330		3.635e-03		10.759
5		0.00		4.40		2.285e-02		-54.209		3.182e-03		11.727
5		0.00		4.80		2.386e-02		-53.303		3.338e-03		10.612
5		0.00		5.20		2.540e-02		-51.443		4.292e-03		12.169
5		0.00		5.60		2.906e-02		-53.480		5.543e-03		14.336
5		0.00		6.00		3.252e-02		-52.865		7.240e-03		11.274
5		0.00		6.40		3.656e-02		-53.853		7.663e-03		10.386
5		0.00		6.80		3.938e-02		-55.163		7.267e-03		10.292
5		0.00		7.20		4.175e-02		-54.114		6.667e-03		10.381
5		0.00		7.60		4.418e-02		-54.141		6.642e-03		9.649
5		0.00		8.00		4.592e-02		-52.688		7.507e-03		9.651
5		0.00		8.40		4.686e-02		-51.898		8.196e-03		9.945
5		0.00		8.80		4.785e-02		-51.826		1.042e-02		8.281
5		0.00		9.20		4.791e-02		-51.052		1.149e-02		10.119
5		0.00		9.60		4.867e-02		-53.815		1.213e-02		10.672
5		0.00		10.00		5.179e-02		-54.587		1.121e-02		8.754
5		0.00		9.60		5.156e-02		-53.559		9.613e-03		8.425
5		0.00		9.20		5.238e-02		-53.602		8.185e-03		7.692
5		0.00		8.80		5.289e-02		-53.368		7.855e-03		7.790
5		0.00		8.40		5.005e-02		-53.208		8.536e-03		10.710
5		0.00		8.00		4.941e-02		-52.993		9.234e-03		13.200
5		0.00		7.60		4.623e-02		-51.195		1.055e-02		11.859
5		0.00		7.20		4.505e-02		-51.875		1.041e-02		10.193
5		0.00		6.80		4.371e-02		-53.817		9.532e-03		10.187
5		0.00		6.40		4.533e-02		-56.014		8.282e-03		9.367
5		0.00		6.00		4.494e-02		-54.230		6.278e-03		9.186
5		0.00		5.60		4.498e-02		-54.339		6.538e-03		8.742
5		0.00		5.20		4.370e-02		-52.900		7.107e-03		9.018
5		0.00		4.80		4.387e-02		-51.880		8.000e-03		11.826
5		0.00		4.40		4.309e-02		-50.134		9.046e-03		8.446
5		0.00		4.00		4.262e-02		-52.968		9.815e-03		9.715
5		0.00		3.60		4.277e-02		-53.065		8.905e-03		8.813
5		0.00		3.20		4.241e-02		-55.011		7.952e-03		8.873
5		0.00		2.80		4.289e-02		-54.742		6.957e-03		9.077
5		0.00		2.40		4.310e-02		-54.225		7.090e-03		8.375
5		0.00		2.00		4.132e-02		-54.101		7.619e-03		10.020
5		0.00		1.60		3.978e-02		-54.087		8.076e-03		11.914
5		0.00		1.20		3.903e-02		-51.333		8.732e-03		9.296
5		0.00		0.80		3.852e-02		-53.002		9.779e-03		9.314
5		0.00		0.40		3.893e-02		-53.094		9.105e-03		9.142
5		0.00		0.00		3.982e-02		-55.462		7.743e-03		8.917
5		0.00		-0.40		4.047e-02		-54.883		6.509e-03		9.090
5		0.00		-0.80		3.943e-02		-53.628		6.068e-03		10.021
5		0.00		-1.20		3.740e-02		-53.284		5.811e-03		9.178
5		0.00		-1.60		3.398e-02		-51.413		5.318e-03		12.245
5		0.00		-2.00		3.197e-02		-52.157		6.007e-03		9.726
5		0.00		-2.40		3.032e-02		-50.697		6.533e-03		12.833
5		0.00		-2.80		2.968e-02		-53.335		6.182e-03		8.996
5		0.00		-3.20		2.785e-02		-55.515		4.839e-03		10.531
5		0.00		-3.60		2.606e-02		-53.651		3.838e-03		10.463
5		0.00		-4.00		2.369e-02		-53.498		3.324e-03		11.262
5		0.00		-4.40		2.106e-02		-51.748		3.150e-03		10.931
5		0.00		-4.80		1.794e-02		-51.503		3.147e-03		10.784
5		0.00		-5.20		1.539e-02		-50.791		3.089e-03		10.972
5		0.00		-5.60		1.319e-02		-48.970		3.437e-03		11.424
5		0.00		-6.00		1.098e-02		-48.993		2.946e-03		14.948
5		0.00		-6.40		8.973e-03		-50.081		2.484e-03		15.047
5		0.00		-6.80		6.634e-03		-45.473		1.897e-03		16.975
5		0.00		-7.20		4.683e-03		-50.029		1.774e-03		26.674
5		0.00		-7.60		2.618e-03		-28.619		1.376e-03		51.673
5		0.00		-8.00		2.281e-03		4.488		1.058e-03		68.567
5		0.00		-8.40		2.391e-03		41.759		1.117e-03		77.864
5		0.00		-8.80		3.416e-03		90.150		1.624e-03		50.064
5		0.00		-9.20		4.759e-03		109.035		2.193e-03		45.937
5		0.00		-9.60		5.276e-03		113.301		1.916e-03		41.080
5		0.00		-10.00		6.645e-03		114.997		2.382e-03		26.677
5		0.00		-9.60		6.338e-03		117.844		2.196e-03		24.871
5		0.00		-9.20		5.731e-03		112.087		2.079e-03		17.703
5		0.00		-8.80		5.160e-03		115.713		2.091e-03		28.508
5		0.00		-8.40		4.550e-03		115.022		1.797e-03		34.066
5		0.00		-8.00		3.859e-03		105.068		1.678e-03		33.024
5		0.00		-7.60		3.661e-03		100.402		1.736e-03		51.568
5		0.00		-7.20		2.986e-03		76.718		1.384e-03		66.075
5		0.00		-6.80		2.292e-03		43.878		1.017e-03		73.083
5		0.00		-6.40		2.111e-03		21.931		9.961e-04		69.663
5		0.00		-6.00		2.250e-03		-30.946		9.293e-04		66.091
5		0.00		-5.60		2.754e-03		-52.132		1.379e-03		50.718
5		0.00		-5.20		4.035e-03		-53.747		1.511e-03		34.736
5		0.00		-4.80		5.365e-03		-44.155		1.549e-03		20.250
5		0.00		-4.40		6.523e-03		-45.188		1.631e-03		19.998
5		0.00		-4.00		7.504e-03		-51.287		1.816e-03		14.280
5		0.00		-3.60		8.285e-03		-48.578		1.831e-03		15.734
5		0.00		-3.20		9.240e-03		-46.444		1.976e-03		14.764
5		0.00		-2.80		1.019e-02		-49.269		2.528e-03		17.851
5		0.00		-2.40		1.125e-02		-50.837		2.581e-03		15.328
5		0.00		-2.00		1.241e-02		-52.236		2.488e-03		13.411
5		0.00		-1.60		1.327e-02		-52.688		2.255e-03		10.596
5		0.00		-1.20		1.395e-02		-49.136		2.270e-03		12.399
5		0.00		-0.80		1.488e-02		-50.962		2.224e-03		13.295
5		0.00		-0.40		1.580e-02		-49.345		2.145e-03		11.051
6		0.00		0.00		1.649e-02		-49.790		2.330e-03		11.571
6		0.00		0.40		1.670e-02		-50.567		2.467e-03		10.306
6		0.00		0.80		1.685e-02		-52.167		2.821e-03		11.943
6		0.00		1.20		1.751e-02		-51.865		3.011e-03		10.698
6		0.00		1.60		1.768e-02		-50.674		3.222e-03		13.064
6		0.00		2.00		1.775e-02		-52.396		3.672e-03		10.319
6		0.00		2.40		1.884e-02		-53.978		3.993e-03		10.871
6		0.00		2.80		1.915e-02		-51.583		4.012e-03		10.161
6		0.00		3.20		1.968e-02		-51.303		3.783e-03		9.394
6		0.00		3.60		2.058e-02		-53.916		3.644e-03		10.916
6		0.00		4.00		2.168e-02		-53.739		3.319e-03		10.298
6		0.00		4.40		2.240e-02		-53.844		3.239e-03		10.599
6		0.00		4.80		2.343e-02		-54.639		3.307e-03		9.889
6		0.00		5.20		2.638e-02		-53.403		3.900e-03		10.139
6		0.00		5.60		2.869e-02		-51.439		4.191e-03		9.555
6		0.00		6.00		3.392e-02		-52.690		5.643e-03		9.028
6		0.00		6.40		3.651e-02		-52.066		6.066e-03		9.060
6		0.00		6.80		3.807e-02		-52.808		7.176e-03		12.011
6		0.00		7.20		4.096e-02		-50.399		8.572e-03		7.619
6		0.00		7.60		4.311e-02		-50.136		9.558e-03		7.990
6		0.00		8.00		4.412e-02		-52.232		1.038e-02		10.441
6		0.00		8.40		4.736e-02		-53.475		1.077e-02		9.669
6		0.00		8.80		4.994e-02		-54.359		1.082e-02		10.812
6		0.00		9.20		5.059e-02		-54.807		9.758e-03		9.240
6		0.00		9.60		5.201e-02		-54.750		9.846e-03		9.930
6		0.00		10.00		5.157e-02		-54.567		9.080e-03		8.910
6		0.00		9.60		5.222e-02		-53.224		9.283e-03		9.822
6		0.00		9.20		5.214e-02		-53.223		9.315e-03		9.757
6		0.00		8.80		5.138e-02		-53.678		9.870e-03		9.944
6		0.00		8.40		5.022e-02		-53.050		9.382e-03		9.902
6		0.00		8.00		4.832e-02		-53.749		9.611e-03		10.912
6		0.00		7.60		4.508e-02		-51.706		1.002e-02		11.161
6		0.00		7.20		4.454e-02		-51.352		1.020e-02		10.275
6		0.00		6.80		4.324e-02		-49.828		1.050e-02		9.418
6		0.00		6.40		4.315e-02		-51.569		1.042e-02		9.916
6		0.00		6.00		4.247e-02		-52.569		9.500e-03		9.215
6		0.00		5.60		4.230e-02		-52.918		8.913e-03		9.254
6		0.00		5.20		4.203e-02		-53.768		8.188e-03		9.310
6		0.00		4.80		4.227e-02		-53.493		7.088e-03		9.244
6		0.00		4.40		4.242e-02		-54.361		6.635e-03		9.191
6		0.00		4.00		4.277e-02		-53.140		5.751e-03		8.340
6		0.00		3.60		4.256e-02		-53.173		5.646e-03		9.046
6		0.00		3.20		4.231e-02		-52.973		5.629e-03		8.346
6		0.00		2.80		4.201e-02		-52.978		6.134e-03		8.730
6		0.00		2.40		4.124e-02		-51.766		6.320e-03		8.544
6		0.00		2.00		4.093e-02		-53.709		6.908e-03		9.657
6		0.00		1.60		4.071e-02		-52.238		7.527e-03		12.530
6		0.00		1.20		3.925e-02		-50.920		8.611e-03		9.357
6		0.00		0.80		3.909e-02		-51.494		8.625e-03		9.362
6		0.00		0.40		3.917e-02		-51.958		9.473e-03		9.725
6		0.00		0.00		3.878e-02		-51.936		8.903e-03		9.532
6		0.00		-0.40		3.881e-02		-53.308		8.621e-03		9.792
6		0.00		-0.80		3.839e-02		-54.347		7.677e-03		10.180
6		0.00		-1.20		3.761e-02		-53.813		6.875e-03		9.837
6		0.00		-1.60		3.749e-02		-53.340		6.118e-03		9.424
6		0.00		-2.00		3.619e-02		-52.769		4.936e-03		9.137
6		0.00		-2.40		3.564e-02		-52.408		5.062e-03		9.173
6		0.00		-2.80		3.362e-02		-52.203		4.758e-03		9.538
6		0.00		-3.20		3.146e-02		-51.458		4.292e-03		9.318
6		0.00		-3.60		2.832e-02		-50.062		4.146e-03		9.291
6		0.00		-4.00		2.609e-02		-52.023		4.059e-03		10.517
6		0.00		-4.40		2.450e-02		-50.050		3.966e-03		11.096
6		0.00		-4.80		2.134e-02		-49.752		4.024e-03		11.603
6		0.00		-5.20		1.953e-02		-50.888		3.918e-03		10.566
6		0.00		-5.60		1.748e-02		-50.898		4.236e-03		12.466
6		0.00		-6.00		1.511e-02		-51.232		3.955e-03		12.479
6		0.00		-6.40		1.267e-02		-51.729		3.664e-03		11.184
6		0.00		-6.80		9.781e-03		-52.633		2.849e-03		17.082
6		0.00		-7.20		8.086e-03		-44.010		2.444e-03		17.364
6		0.00		-7.60		5.812e-03		-52.962		1.983e-03		23.865
6		0.00		-8.00		3.914e-03		-34.060		1.734e-03		37.806
6		0.00		-8.40		2.687e-03		-33.160		1.180e-03		71.106
6		0.00		-8.80		2.364e-03		13.123		1.068e-03		72.628
6		0.00		-9.20		3.198e-03		75.838		1.545e-03		68.269
6		0.00		-9.60		4.073e-03		94.609		1.925e-03		52.658
6		0.00		-10.00		5.471e-03		111.959		2.320e-03		35.499
6		0.00		-9.60		5.804e-03		113.298		2.323e-03		32.001
6		0.00		-9.20		4.891e-03		105.667		2.309e-03		39.437
6		0.00		-8.80		4.334e-03		89.229		2.125e-03		46.670
6		0.00		-8.40		3.762e-03		91.251		1.805e-03		58.048
6		0.00		-8.00		2.957e-03		60.549		1.498e-03		65.640
6		0.00		-7.60		2.941e-03		68.980		1.513e-03		62.849
6		0.00		-7.20		2.376e-03		39.778		1.033e-03		76.579
6		0.00		-6.80		2.281e-03		14.590		9.128e-04		72.460
6		0.00		-6.40		2.663e-03		-9.879		1.184e-03		66.001
6		0.00		-6.00		3.197e-03		-32.595		1.441e-03		40.481
6		0.00		-5.60		4.219e-03		-50.531		1.741e-03		33.191
6		0.00		-5.20		5.530e-03		-43.801		1.882e-03		22.619
6		0.00		-4.80		6.495e-03		-48.760		1.887e-03		17.736
6		0.00		-4.40		8.074e-03		-42.816		1.925e-03		15.921
6		0.00		-4.00		9.157e-03		-48.929		1.907e-03		16.070
6		0.00		-3.60		1.018e-02		-43.458		2.049e-03		15.669
6		0.00		-3.20		1.118e-02		-49.566		2.023e-03		14.624
6		0.00		-2.80		1.201e-02		-50.803		2.433e-03		12.057
6		0.00		-2.40		1.334e-02		-50.828		2.602e-03		13.739
6		0.00		-2.00		1.378e-02		-49.684		2.871e-03		14.470
6		0.00		-1.60		1.424e-02		-48.735		3.045e-03		14.961
6		0.00		-1.20		1.497e-02		-51.417		3.417e-03		12.930
6		0.00		-0.80		1.583e-02		-50.435		3.665e-03		12.680
6		0.00		-0.40		1.626e-02		-49.374		3.868e-03		11.866
7		0.00		0.00		1.716e-02		-51.118		3.822e-03		11.319
7		0.00		0.40		1.777e-02		-54.598		3.669e-03		11.926
7		0.00		0.80		1.846e-02		-53.983		3.685e-03		10.639
7		0.00		1.20		1.959e-02		-50.921		3.375e-03		11.255
7		0.00		1.60		1.987e-02		-54.597		3.370e-03		9.774
7		0.00		2.00		2.049e-02		-52.648		3.432e-03		10.217
7		0.00		2.40		2.047e-02		-52.200		3.367e-03		11.365
7		0.00		2.80		2.091e-02		-52.434		3.425e-03		10.975
7		0.00		3.20		2.108e-02		-51.213		3.380e-03		11.097
7		0.00		3.60		2.144e-02		-51.976		3.471e-03		11.514
7		0.00		4.00		2.215e-02		-52.966		3.653e-03		10.509
7		0.00		4.40		2.306e-02		-52.519		3.688e-03		11.634
7		0.00		4.80		2.411e-02		-52.218		3.802e-03		10.981
7		0.00		5.20		2.616e-02		-54.073		4.145e-03		10.477
7		0.00		5.60		3.030e-02		-51.060		4.591e-03		10.248
7		0.00		6.00		3.400e-02		-51.618		4.799e-03		9.413
7		0.00		6.40		3.545e-02		-53.180		5.671e-03		10.549
7		0.00		6.80		3.779e-02		-51.494		5.935e-03		10.279
7		0.00		7.20		4.017e-02		-50.838		6.687e-03		10.333
7		0.00		7.60		4.283e-02		-51.638		8.095e-03		13.237
7		0.00		8.00		4.454e-02		-52.108		8.452e-03		13.152
7		0.00		8.40		4.574e-02		-52.579		9.003e-03		11.779
7		0.00		8.80		4.729e-02		-51.431		9.952e-03		11.533
7		0.00		9.20		4.976e-02		-51.414		1.059e-02		11.735
7		0.00		9.60		5.173e-02		-50.428		1.268e-02		13.926
7		0.00		10.00		5.363e-02		-49.566		1.340e-02		12.016
7		0.00		9.60		5.245e-02		-50.634		1.331e-02		13.914
7		0.00		9.20		5.169e-02		-49.422		1.289e-02		14.703
7		0.00		8.80		4.646e-02		-50.797		1.134e-02		11.913
7		0.00		8.40		4.885e-02		-50.037		1.204e-02		14.167
7		0.00		8.00		4.748e-02		-51.039		1.191e-02		11.888
7		0.00		7.60		4.640e-02		-50.427		1.190e-02		10.474
7		0.00		7.20		4.551e-02		-51.635		1.179e-02		12.125
7		0.00		6.80		4.466e-02		-52.608		1.121e-02		11.488
7		0.00		6.40		4.532e-02		-52.417		1.031e-02		11.576
7		0.00		6.00		4.390e-02		-52.674		1.042e-02		12.702
7		0.00		5.60		4.378e-02		-52.757		1.040e-02		11.195
7		0.00		5.20		4.345e-02		-54.166		1.033e-02		11.504
7		0.00		4.80		4.271e-02		-53.440		9.947e-03		11.571
7		0.00		4.40		4.352e-02		-54.098		9.811e-03		10.062
7		0.00		4.00		4.331e-02		-54.629		9.379e-03		10.217
7		0.00		3.60		4.275e-02		-53.998		9.177e-03		10.520
7		0.00		3.20		4.237e-02		-53.540		8.476e-03		9.620
7		0.00		2.80		4.269e-02		-53.976		9.014e-03		10.629
7		0.00		2.40		4.220e-02		-54.749		9.126e-03		11.375
7		0.00		2.00		4.306e-02		-54.269		8.580e-03		10.056
7		0.00		1.60		4.287e-02		-53.963		8.275e-03		10.823
7		0.00		1.20		4.276e-02		-54.473		8.053e-03		10.448
7		0.00		0.80		4.198e-02		-54.343		7.911e-03		10.020
7		0.00		0.40		4.196e-02		-54.583		7.538e-03		9.003
7		0.00		0.00		4.110e-02		-53.540		7.218e-03		9.130
7		0.00		-0.40		4.095e-02		-52.974		7.231e-03		9.663
7		0.00		-0.80		3.940e-02		-53.417		6.454e-03		9.836
7		0.00		-1.20		3.916e-02		-52.728		5.992e-03		8.819
7		0.00		-1.60		3.711e-02		-53.742		5.865e-03		9.584
7		0.00		-2.00		3.550e-02		-53.061		5.480e-03		10.226
7		0.00		-2.40		3.433e-02		-52.728		5.322e-03		10.902
7		0.00		-2.80		3.333e-02		-52.629		5.034e-03		11.324
7		0.00		-3.20		3.050e-02		-51.172		4.735e-03		11.172
7		0.00		-3.60		2.897e-02		-52.378		4.872e-03		11.330
7		0.00		-4.00		2.713e-02		-52.014		4.563e-03		11.330
7		0.00		-4.40		2.380e-02		-51.128		4.207e-03		11.202
7		0.00		-4.80		2.119e-02		-49.968		3.894e-03		11.552
7		0.00		-5.20		1.885e-02		-52.115		3.831e-03		12.299
7		0.00		-5.60		1.592e-02		-51.294		3.481e-03		13.287
7		0.00		-6.00		1.411e-02		-50.831		3.215e-03		13.591
7		0.00		-6.40		1.291e-02		-50.038		2.870e-03		12.130
7		0.00		-6.80		9.660e-03		-47.467		2.550e-03		14.729
7		0.00		-7.20		6.979e-03		-49.463		2.296e-03		19.399
7		0.00		-7.60		5.634e-03		-49.548		2.228e-03		21.202
7		0.00		-8.00		2.709e-03		-18.245		1.362e-03		69.917
7		0.00		-8.40		2.452e-03		-8.973		1.148e-03		66.830
7		0.00		-8.80		2.613e-03		35.995		1.414e-03		79.721
7		0.00		-9.20		2.875e-03		72.164		1.368e-03		61.704
7		0.00		-9.60		3.062e-03		66.860		1.504e-03		57.447
7		0.00		-10.00		4.636e-03		92.845		1.979e-03		47.262
7		0.00		-9.60		4.229e-03		90.972		1.786e-03		54.748
7		0.00		-9.20		4.081e-03		92.706		1.872e-03		52.761
7		0.00		-8.80		3.583e-03		81.250		1.618e-03		58.071
7		0.00		-8.40		2.969e-03		72.079		1.481e-03		56.377
7		0.00		-8.00		2.747e-03		73.910		1.335e-03		55.404
7		0.00		-7.60		2.039e-03		20.878		8.879e-04		67.736
7		0.00		-7.20		2.237e-03		-25.340		1.094e-03		58.985
7		0.00		-6.80		2.807e-03		-10.681		1.290e-03		56.568
7		0.00		-6.40		3.826e-03		-41.505		1.713e-03		39.824
7		0.00		-6.00		4.346e-03		-43.717		1.863e-03		30.552
7		0.00		-5.60		5.877e-03		-49.794		1.713e-03		17.901
7		0.00		-5.20		7.347e-03		-47.823		2.171e-03		17.653
7		0.00		-4.80		9.011e-03		-49.186		2.417e-03		16.349
7		0.00		-4.40		9.813e-03		-50.933		2.463e-03		12.714
7		0.00		-4.00		1.095e-02		-49.666		2.712e-03		16.492
7		0.00		-3.60		1.259e-02		-53.131		2.955e-03		14.548
7		0.00		-3.20		1.407e-02		-52.862		2.920e-03		13.104
7		0.00		-2.80		1.479e-02		-55.636		2.891e-03		11.852
7		0.00		-2.40		1.568e-02		-51.528		2.910e-03		13.475
7		0.00		-2.00		1.688e-02		-50.721		3.030e-03		12.549
7		0.00		-1.60		1.739e-02		-49.448		2.956e-03		11.920
7		0.00		-1.20		1.805e-02		-50.828		3.290e-03		12.759
7		0.00		-0.80		1.895e-02		-51.615		3.292e-03		11.848
7		0.00		-0.40		1.950e-02		-52.242		3.442e-03		12.109
8		0.00		0.00		2.049e-02		-51.913		3.685e-03		12.207
8		0.00		0.40		2.098e-02		-52.188		3.733e-03		13.006
8		0.00		0.80		2.159e-02		-50.835		4.139e-03		13.075
8		0.00		1.20		2.166e-02		-49.362		4.195e-03		12.490
8		0.00		1.60		2.236e-02		-53.332		4.179e-03		12.879
8		0.00		2.00		2.296e-02		-55.625		4.343e-03		11.778
8		0.00		2.40		2.350e-02		-52.054		4.263e-03		12.358
8		0.00		2.80		2.369e-02		-54.285		4.693e-03		13.041
8		0.00		3.20		2.387e-02		-52.674		4.580e-03		13.537
8		0.00		3.60		2.419e-02		-52.008		4.605e-03		12.840
8		0.00		4.00		2.445e-02		-53.350		4.791e-03		12.528
8		0.00		4.40		2.582e-02		-53.091		5.253e-03		12.131
8		0.00		4.80		2.827e-02		-53.342		6.209e-03		15.294
8		0.00		5.20		3.118e-02		-52.388		6.507e-03		13.585
8		0.00		5.60		3.307e-02		-53.068		7.599e-03		15.274
8		0.00		6.00		3.479e-02		-51.153		8.018e-03		13.874
8		0.00		6.40		3.745e-02		-50.210		8.850e-03		18.929
8		0.00		6.80		3.958e-02		-50.225		9.366e-03		18.733
8		0.00		7.20		4.042e-02		-49.237		9.455e-03		17.123
8		0.00		7.60		4.360e-02		-50.291		1.089e-02		21.896
8		0.00		8.00		4.445e-02		-49.503		1.115e-02		19.964
8		0.00		8.40		4.639e-02		-49.798		1.305e-02		16.911
8		0.00		8.80		4.811e-02		-50.545		1.377e-02		15.556
8		0.00		9.20		5.032e-02		-53.558		1.459e-02		13.116
8		0.00		9.60		5.066e-02		-52.839		1.454e-02		11.919
8		0.00		10.00		5.201e-02		-53.427		1.449e-02		11.771
8		0.00		9.60		5.149e-02		-54.301		1.467e-02		12.452
8		0.00		9.20		5.050e-02		-54.103		1.387e-02		13.669
8		0.00		8.80		4.973e-02		-54.913		1.423e-02		13.936
8		0.00		8.40		4.792e-02		-55.338		1.331e-02		13.414
8		0.00		8.00		4.611e-02		-55.013		1.177e-02		12.329
8		0.00		7.60		4.500e-02		-55.406		1.030e-02		11.378
8		0.00		7.20		4.535e-02		-54.914		1.010e-02		11.371
8		0.00		6.80		4.463e-02		-54.847		9.575e-03		10.975
8		0.00		6.40		4.479e-02		-54.873		9.771e-03		11.729
8		0.00		6.00		4.440e-02		-54.235		9.275e-03		11.439
8		0.00		5.60		4.422e-02		-54.448		8.742e-03		11.725
8		0.00		5.20		4.374e-02		-54.154		8.296e-03		11.210
8		0.00		4.80		4.397e-02		-54.758		8.396e-03		11.323
8		0.00		4.40		4.402e-02		-53.464		8.138e-03		10.440
8		0.00		4.00		4.371e-02		-53.041		8.028e-03		10.565
8		0.00		3.60		4.304e-02		-52.559		7.668e-03		10.329
8		0.00		3.20		4.293e-02		-53.858		7.492e-03		10.275
8		0.00		2.80		4.323e-02		-53.648		7.180e-03		8.915
8		0.00		2.40		4.314e-02		-52.456		6.910e-03		8.814
8		0.00		2.00		4.348e-02		-52.429		6.961e-03		8.836
8		0.00		1.60		4.368e-02		-53.611		6.768e-03		8.915
8		0.00		1.20		4.268e-02		-52.857		6.844e-03		8.248
8		0.00		0.80		4.300e-02		-52.963		7.209e-03		8.733
8		0.00		0.40		4.218e-02		-52.343		7.023e-03		8.537
8		0.00		0.00		4.193e-02		-52.305		7.318e-03		10.022
8		0.00		-0.40		4.151e-02		-52.603		7.267e-03		9.504
8		0.00		-0.80		4.066e-02		-51.138		6.791e-03		9.783
8		0.00		-1.20		3.941e-02		-51.341		6.793e-03		10.655
8		0.00		-1.60		3.857e-02		-50.936		6.935e-03		11.674
8		0.00		-2.00		3.614e-02		-51.766		6.943e-03		12.900
8		0.00		-2.40		3.428e-02		-50.927		6.443e-03		13.906
8		0.00		-2.80		3.285e-02		-51.512		6.612e-03		11.920
8		0.00		-3.20		3.140e-02		-50.958		6.599e-03		13.330
8		0.00		-3.60		2.736e-02		-49.288		6.002e-03		11.923
8		0.00		-4.00		2.545e-02		-49.739		6.053e-03		10.967
8		0.00		-4.40		2.413e-02		-51.436		5.963e-03		15.857
8		0.00		-4.80		2.237e-02		-52.326		5.707e-03		13.759
8		0.00		-5.20		2.060e-02		-50.192		5.278e-03		20.194
8		0.00		-5.60		1.813e-02		-50.872		4.879e-03		13.701
8		0.00		-6.00		1.545e-02		-49.580		4.167e-03		12.505
8		0.00		-6.40		1.358e-02		-50.780		3.735e-03		18.976
8		0.00		-6.80		1.121e-02		-45.868		3.102e-03		15.777
8		0.00		-7.20		9.582e-03		-47.501		2.974e-03		17.151
8		0.00		-7.60		7.423e-03		-46.453		2.408e-03		18.311
8		0.00		-8.00		5.839e-03		-47.054		2.226e-03		23.076
8		0.00		-8.40		4.146e-03		-46.151		1.911e-03		31.819
8		0.00		-8.80		2.986e-03		-16.934		1.654e-03		65.698
8		0.00		-9.20		2.519e-03		23.815		1.284e-03		73.013
8		0.00		-9.60		2.936e-03		53.309		1.451e-03		72.545
8		0.00		-10.00		3.554e-03		81.343		1.825e-03		55.801
8		0.00		-9.60		3.565e-03		84.874		1.889e-03		53.612
8		0.00		-9.20		3.449e-03		75.253		1.640e-03		59.894
8		0.00		-8.80		3.480e-03		81.535		1.762e-03		52.457
8		0.00		-8.40		3.059e-03		66.260		1.510e-03		57.470
8		0.00		-8.00		3.403e-03		74.302		1.556e-03		55.434
8		0.00		-7.60		2.632e-03		40.290		1.144e-03		63.146
8		0.00		-7.20		2.406e-03		19.602		1.074e-03		72.904
8		0.00		-6.80		2.442e-03		-13.343		1.081e-03		69.672
8		0.00		-6.40		2.765e-03		-17.676		1.331e-03		53.231
8		0.00		-6.00		3.503e-03		-33.081		1.569e-03		41.449
8		0.00		-5.60		4.917e-03		-39.433		1.702e-03		23.331
8		0.00		-5.20		6.401e-03		-43.232		1.782e-03		18.322
8		0.00		-4.80		7.663e-03		-49.876		2.062e-03		16.458
8		0.00		-4.40		9.364e-03		-47.429		2.246e-03		11.986
8		0.00		-4.00		1.042e-02		-46.826		2.536e-03		15.772
8		0.00		-3.60		1.174e-02		-45.937		2.665e-03		14.133
8		0.00		-3.20		1.236e-02		-48.270		2.757e-03		15.647
8		0.00		-2.80		1.346e-02		-51.511		3.093e-03		13.160
8		0.00		-2.40		1.429e-02		-48.070		3.368e-03		10.705
8		0.00		-2.00		1.553e-02		-48.429		3.688e-03		14.686
8		0.00		-1.60		1.643e-02		-47.862		3.966e-03		12.988
8		0.00		-1.20		1.725e-02		-50.148		3.911e-03		11.084
8		0.00		-0.80		1.831e-02		-50.859		3.828e-03		10.357
8		0.00		-0.40		1.851e-02		-52.288		4.027e-03		10.650
