# Date of analysis: 2024-03-08 10;58
# Segment other properties: height: -26.831629400235652, diff height: 239.22999340647706, deflection: 35.875662596264235, deflection error: 6.123833649024465, adhesion: 24.749908706848995, phase offset: 0
# 
# Loop index	Read Volt (V)	Write Volt (V)	Amplitude (a.u)	Phase (deg)	Sigma Amp (a.u)	Sigma Pha (deg)	
1		0.00		0.00		2.148e-02		-61.407		7.694e-03		19.645
1		0.00		0.40		1.925e-02		-61.537		6.386e-03		19.054
1		0.00		0.80		1.816e-02		-59.418		5.964e-03		18.836
1		0.00		1.20		1.783e-02		-54.916		5.705e-03		17.943
1		0.00		1.60		1.623e-02		-52.071		5.530e-03		17.811
1		0.00		2.00		1.630e-02		-52.203		5.704e-03		18.171
1		0.00		2.40		1.692e-02		-46.187		6.837e-03		20.303
1		0.00		2.80		1.753e-02		-44.159		7.179e-03		25.736
1		0.00		3.20		1.819e-02		-36.378		7.416e-03		32.589
1		0.00		3.60		1.986e-02		-41.022		7.403e-03		31.327
1		0.00		4.00		2.054e-02		-43.310		7.954e-03		25.745
1		0.00		4.40		2.020e-02		-52.326		7.595e-03		26.314
1		0.00		4.80		1.863e-02		-59.223		7.080e-03		20.653
1		0.00		5.20		1.925e-02		-58.096		6.707e-03		21.369
1		0.00		5.60		2.046e-02		-54.518		6.857e-03		20.713
1		0.00		6.00		2.052e-02		-53.768		7.297e-03		19.801
1		0.00		6.40		2.064e-02		-54.050		7.043e-03		20.281
1		0.00		6.80		2.152e-02		-52.245		7.907e-03		20.073
1		0.00		7.20		2.337e-02		-51.812		8.082e-03		17.575
1		0.00		7.60		2.465e-02		-47.881		9.173e-03		16.509
1		0.00		8.00		2.435e-02		-45.730		9.196e-03		16.663
1		0.00		8.40		2.221e-02		-44.197		9.391e-03		25.834
1		0.00		8.80		2.331e-02		-42.961		9.426e-03		33.143
1		0.00		9.20		2.333e-02		-35.667		8.839e-03		41.583
1		0.00		9.60		2.320e-02		-44.639		8.737e-03		36.280
1		0.00		10.00		2.571e-02		-49.999		8.928e-03		29.669
1		0.00		9.60		2.468e-02		-53.280		8.223e-03		21.143
1		0.00		9.20		2.368e-02		-55.549		7.618e-03		19.439
1		0.00		8.80		2.483e-02		-56.610		7.964e-03		18.280
1		0.00		8.40		2.692e-02		-55.109		7.940e-03		18.076
1		0.00		8.00		2.863e-02		-52.037		8.050e-03		17.427
1		0.00		7.60		2.640e-02		-52.128		7.471e-03		18.238
1		0.00		7.20		2.925e-02		-50.389		9.176e-03		16.287
1		0.00		6.80		2.768e-02		-48.640		7.873e-03		16.921
1		0.00		6.40		2.809e-02		-48.657		8.578e-03		15.342
1		0.00		6.00		3.059e-02		-47.007		1.002e-02		14.748
1		0.00		5.60		2.727e-02		-46.481		1.009e-02		15.919
1		0.00		5.20		2.704e-02		-45.702		1.096e-02		22.557
1		0.00		4.80		2.633e-02		-41.166		1.030e-02		33.737
1		0.00		4.40		2.583e-02		-40.293		9.909e-03		31.385
1		0.00		4.00		2.454e-02		-46.904		8.892e-03		29.298
1		0.00		3.60		2.429e-02		-49.491		8.390e-03		22.838
1		0.00		3.20		2.380e-02		-53.678		7.901e-03		20.541
1		0.00		2.80		2.319e-02		-57.575		6.980e-03		15.930
1		0.00		2.40		2.284e-02		-57.917		6.348e-03		15.664
1		0.00		2.00		2.202e-02		-56.590		5.611e-03		15.897
1		0.00		1.60		2.183e-02		-56.210		5.697e-03		15.674
1		0.00		1.20		2.129e-02		-53.014		5.208e-03		15.595
1		0.00		0.80		2.075e-02		-52.516		5.391e-03		16.831
1		0.00		0.40		2.022e-02		-52.655		5.265e-03		16.479
1		0.00		0.00		1.875e-02		-51.223		5.263e-03		15.987
1		0.00		-0.40		1.696e-02		-52.401		5.042e-03		15.578
1		0.00		-0.80		1.444e-02		-50.262		5.238e-03		15.694
1		0.00		-1.20		1.081e-02		-48.484		5.496e-03		29.105
1		0.00		-1.60		7.104e-03		-42.766		4.955e-03		48.423
1		0.00		-2.00		5.876e-03		23.483		3.759e-03		83.068
1		0.00		-2.40		6.216e-03		53.806		3.456e-03		81.274
1		0.00		-2.80		7.589e-03		80.663		3.823e-03		71.913
1		0.00		-3.20		1.006e-02		93.323		5.186e-03		68.362
1		0.00		-3.60		1.188e-02		107.035		6.319e-03		54.914
1		0.00		-4.00		1.465e-02		110.721		7.481e-03		45.844
1		0.00		-4.40		1.815e-02		116.061		8.755e-03		40.040
1		0.00		-4.80		2.019e-02		116.576		8.794e-03		35.628
1		0.00		-5.20		2.179e-02		119.779		9.316e-03		38.840
1		0.00		-5.60		2.377e-02		121.258		1.009e-02		36.322
1		0.00		-6.00		2.597e-02		119.989		1.094e-02		38.804
1		0.00		-6.40		2.314e-02		120.818		1.012e-02		31.454
1		0.00		-6.80		2.596e-02		116.362		1.129e-02		42.946
1		0.00		-7.20		2.957e-02		116.869		1.312e-02		45.402
1		0.00		-7.60		2.846e-02		115.594		1.239e-02		47.983
1		0.00		-8.00		3.036e-02		121.318		1.215e-02		37.894
1		0.00		-8.40		3.220e-02		120.122		1.312e-02		40.351
1		0.00		-8.80		3.459e-02		122.803		1.335e-02		32.415
1		0.00		-9.20		3.290e-02		124.041		1.303e-02		27.975
1		0.00		-9.60		3.383e-02		127.588		1.366e-02		20.426
1		0.00		-10.00		3.533e-02		123.905		1.306e-02		23.365
1		0.00		-9.60		3.507e-02		123.834		1.197e-02		23.123
1		0.00		-9.20		3.390e-02		129.413		1.158e-02		17.431
1		0.00		-8.80		3.456e-02		130.548		1.257e-02		13.539
1		0.00		-8.40		3.535e-02		129.988		1.439e-02		20.239
1		0.00		-8.00		3.398e-02		123.756		1.410e-02		27.572
1		0.00		-7.60		3.497e-02		127.396		1.488e-02		27.346
1		0.00		-7.20		3.616e-02		120.547		1.555e-02		35.832
1		0.00		-6.80		3.585e-02		115.760		1.484e-02		39.276
1		0.00		-6.40		3.499e-02		121.467		1.416e-02		35.669
1		0.00		-6.00		3.260e-02		120.749		1.282e-02		37.232
1		0.00		-5.60		3.179e-02		127.529		1.171e-02		26.067
1		0.00		-5.20		3.073e-02		128.477		1.090e-02		21.569
1		0.00		-4.80		2.940e-02		126.394		1.048e-02		24.449
1		0.00		-4.40		2.773e-02		128.560		9.699e-03		18.397
1		0.00		-4.00		2.677e-02		126.459		8.833e-03		16.829
1		0.00		-3.60		2.456e-02		127.667		8.358e-03		13.523
1		0.00		-3.20		2.261e-02		130.068		7.535e-03		13.130
1		0.00		-2.80		2.016e-02		128.083		7.614e-03		19.981
1		0.00		-2.40		1.827e-02		123.646		7.385e-03		33.378
1		0.00		-2.00		1.647e-02		123.653		6.751e-03		33.448
1		0.00		-1.60		1.514e-02		124.397		6.463e-03		31.537
1		0.00		-1.20		1.339e-02		115.482		5.925e-03		41.333
1		0.00		-0.80		1.232e-02		117.378		5.474e-03		40.594
1		0.00		-0.40		1.104e-02		111.966		4.837e-03		43.015
2		0.00		0.00		9.875e-03		117.546		4.306e-03		34.888
2		0.00		0.40		8.835e-03		115.666		3.606e-03		44.837
2		0.00		0.80		7.088e-03		110.575		3.224e-03		52.795
2		0.00		1.20		5.624e-03		99.566		2.617e-03		66.151
2		0.00		1.60		4.274e-03		79.489		2.115e-03		79.853
2		0.00		2.00		3.246e-03		17.037		1.463e-03		93.676
2		0.00		2.40		3.013e-03		-57.125		1.362e-03		69.962
2		0.00		2.80		4.291e-03		-59.879		1.732e-03		39.219
2		0.00		3.20		6.877e-03		-63.287		2.430e-03		24.037
2		0.00		3.60		8.846e-03		-57.593		3.052e-03		18.067
2		0.00		4.00		1.260e-02		-57.727		4.611e-03		15.522
2		0.00		4.40		1.416e-02		-50.612		5.279e-03		16.830
2		0.00		4.80		1.685e-02		-49.643		6.777e-03		16.318
2		0.00		5.20		1.997e-02		-49.890		8.679e-03		19.182
2		0.00		5.60		2.271e-02		-47.736		9.855e-03		23.575
2		0.00		6.00		2.428e-02		-44.914		1.059e-02		33.198
2		0.00		6.40		2.653e-02		-46.858		1.095e-02		35.329
2		0.00		6.80		2.802e-02		-53.146		1.075e-02		32.737
2		0.00		7.20		2.828e-02		-54.356		1.044e-02		26.535
2		0.00		7.60		2.944e-02		-50.387		1.032e-02		19.402
2		0.00		8.00		3.221e-02		-52.522		1.069e-02		17.375
2		0.00		8.40		3.134e-02		-53.117		1.043e-02		16.648
2		0.00		8.80		3.268e-02		-51.363		9.737e-03		17.212
2		0.00		9.20		3.257e-02		-50.645		9.540e-03		15.354
2		0.00		9.60		3.136e-02		-51.368		9.921e-03		14.832
2		0.00		10.00		3.185e-02		-48.703		1.021e-02		14.918
2		0.00		9.60		3.178e-02		-50.054		1.055e-02		15.049
2		0.00		9.20		3.084e-02		-49.144		1.109e-02		15.016
2		0.00		8.80		3.129e-02		-47.910		1.251e-02		20.938
2		0.00		8.40		3.025e-02		-45.636		1.275e-02		34.702
2		0.00		8.00		3.014e-02		-44.607		1.223e-02		38.945
2		0.00		7.60		2.904e-02		-46.691		1.106e-02		34.842
2		0.00		7.20		2.838e-02		-55.257		1.067e-02		25.131
2		0.00		6.80		2.754e-02		-54.474		9.370e-03		16.206
2		0.00		6.40		2.795e-02		-57.756		8.737e-03		14.324
2		0.00		6.00		2.776e-02		-55.803		7.449e-03		13.975
2		0.00		5.60		2.814e-02		-55.709		7.220e-03		12.971
2		0.00		5.20		2.730e-02		-53.871		6.847e-03		12.909
2		0.00		4.80		2.700e-02		-53.377		7.072e-03		13.185
2		0.00		4.40		2.700e-02		-50.951		7.901e-03		14.368
2		0.00		4.00		2.571e-02		-51.426		8.358e-03		14.153
2		0.00		3.60		2.506e-02		-48.951		8.690e-03		22.059
2		0.00		3.20		2.512e-02		-50.442		8.482e-03		22.577
2		0.00		2.80		2.484e-02		-55.246		7.960e-03		23.679
2		0.00		2.40		2.448e-02		-55.451		7.408e-03		18.287
2		0.00		2.00		2.482e-02		-55.825		7.170e-03		14.613
2		0.00		1.60		2.405e-02		-56.724		6.624e-03		13.837
2		0.00		1.20		2.342e-02		-56.785		5.947e-03		13.367
2		0.00		0.80		2.308e-02		-54.026		5.731e-03		13.100
2		0.00		0.40		2.124e-02		-55.262		5.556e-03		13.208
2		0.00		0.00		1.996e-02		-53.526		5.778e-03		14.435
2		0.00		-0.40		1.724e-02		-52.679		5.438e-03		13.095
2		0.00		-0.80		1.203e-02		-52.723		4.961e-03		15.715
2		0.00		-1.20		8.783e-03		-58.382		4.801e-03		30.715
2		0.00		-1.60		6.161e-03		-39.600		4.087e-03		61.550
2		0.00		-2.00		5.619e-03		23.824		3.223e-03		80.109
2		0.00		-2.40		6.533e-03		71.710		2.946e-03		83.719
2		0.00		-2.80		8.031e-03		95.440		3.762e-03		68.025
2		0.00		-3.20		1.005e-02		100.740		5.027e-03		56.309
2		0.00		-3.60		1.320e-02		111.611		6.271e-03		49.994
2		0.00		-4.00		1.559e-02		116.597		6.580e-03		44.213
2		0.00		-4.40		1.914e-02		123.355		7.339e-03		32.110
2		0.00		-4.80		2.306e-02		124.675		8.784e-03		34.476
2		0.00		-5.20		2.795e-02		124.483		1.042e-02		33.441
2		0.00		-5.60		2.953e-02		125.066		1.117e-02		30.557
2		0.00		-6.00		3.246e-02		126.336		1.263e-02		22.734
2		0.00		-6.40		3.490e-02		121.436		1.431e-02		28.175
2		0.00		-6.80		3.631e-02		122.515		1.549e-02		27.355
2		0.00		-7.20		3.819e-02		120.856		1.541e-02		34.090
2		0.00		-7.60		3.864e-02		121.768		1.478e-02		32.908
2		0.00		-8.00		4.083e-02		121.735		1.534e-02		30.891
2		0.00		-8.40		4.033e-02		124.337		1.499e-02		22.624
2		0.00		-8.80		4.022e-02		127.124		1.382e-02		17.753
2		0.00		-9.20		4.258e-02		126.570		1.357e-02		17.678
2		0.00		-9.60		3.901e-02		130.185		1.223e-02		15.093
2		0.00		-10.00		4.080e-02		130.846		1.173e-02		11.870
2		0.00		-9.60		4.107e-02		128.355		1.216e-02		11.132
2		0.00		-9.20		4.457e-02		128.499		1.441e-02		12.810
2		0.00		-8.80		4.330e-02		129.668		1.474e-02		15.039
2		0.00		-8.40		4.246e-02		126.623		1.481e-02		25.128
2		0.00		-8.00		4.125e-02		123.561		1.427e-02		31.250
2		0.00		-7.60		4.539e-02		123.631		1.541e-02		33.999
2		0.00		-7.20		4.145e-02		126.588		1.366e-02		24.824
2		0.00		-6.80		4.091e-02		128.774		1.409e-02		15.495
2		0.00		-6.40		3.988e-02		128.641		1.324e-02		16.938
2		0.00		-6.00		3.838e-02		128.283		1.164e-02		12.526
2		0.00		-5.60		3.791e-02		128.448		1.198e-02		9.775
2		0.00		-5.20		3.637e-02		127.752		1.241e-02		13.326
2		0.00		-4.80		3.358e-02		126.806		1.237e-02		17.253
2		0.00		-4.40		3.161e-02		123.220		1.264e-02		26.673
2		0.00		-4.00		3.004e-02		122.887		1.090e-02		29.730
2		0.00		-3.60		2.858e-02		126.830		1.009e-02		24.285
2		0.00		-3.20		2.575e-02		129.094		8.507e-03		14.107
2		0.00		-2.80		2.390e-02		128.616		7.132e-03		11.486
2		0.00		-2.40		2.164e-02		130.552		6.105e-03		11.160
2		0.00		-2.00		1.969e-02		129.376		5.982e-03		13.174
2		0.00		-1.60		1.678e-02		130.963		5.280e-03		17.801
2		0.00		-1.20		1.443e-02		129.468		5.054e-03		20.138
2		0.00		-0.80		1.320e-02		126.169		4.878e-03		31.719
2		0.00		-0.40		1.112e-02		129.155		4.027e-03		27.293
3		0.00		0.00		8.996e-03		128.827		3.649e-03		31.524
3		0.00		0.40		7.156e-03		125.277		3.088e-03		34.756
3		0.00		0.80		6.106e-03		118.278		2.502e-03		53.762
3		0.00		1.20		3.933e-03		81.161		1.782e-03		90.488
3		0.00		1.60		2.771e-03		24.001		1.181e-03		99.195
3		0.00		2.00		2.444e-03		-30.851		9.780e-04		78.099
3		0.00		2.40		2.899e-03		-54.721		1.488e-03		59.382
3		0.00		2.80		4.013e-03		-61.956		2.120e-03		41.477
3		0.00		3.20		6.129e-03		-64.781		2.776e-03		30.008
3		0.00		3.60		8.875e-03		-61.289		3.371e-03		21.409
3		0.00		4.00		1.217e-02		-59.471		3.736e-03		16.170
3		0.00		4.40		1.596e-02		-56.778		4.447e-03		15.719
3		0.00		4.80		1.950e-02		-54.426		5.741e-03		13.348
3		0.00		5.20		2.402e-02		-54.463		7.305e-03		12.724
3		0.00		5.60		2.660e-02		-52.060		8.794e-03		13.463
3		0.00		6.00		2.777e-02		-52.259		1.020e-02		21.155
3		0.00		6.40		2.892e-02		-50.477		1.062e-02		26.738
3		0.00		6.80		3.199e-02		-56.486		1.089e-02		25.807
3		0.00		7.20		3.154e-02		-54.014		1.105e-02		20.319
3		0.00		7.60		3.289e-02		-52.771		1.103e-02		15.905
3		0.00		8.00		3.360e-02		-53.432		9.958e-03		14.377
3		0.00		8.40		3.259e-02		-51.898		9.303e-03		12.786
3		0.00		8.80		3.424e-02		-49.314		1.090e-02		11.605
3		0.00		9.20		3.349e-02		-51.520		1.138e-02		13.418
3		0.00		9.60		3.399e-02		-51.879		1.358e-02		13.403
3		0.00		10.00		3.354e-02		-45.136		1.359e-02		30.811
3		0.00		9.60		3.182e-02		-41.143		1.169e-02		33.483
3		0.00		9.20		3.138e-02		-50.981		1.046e-02		22.135
3		0.00		8.80		3.096e-02		-52.802		1.002e-02		15.305
3		0.00		8.40		3.209e-02		-54.433		8.885e-03		12.736
3		0.00		8.00		3.292e-02		-53.253		8.260e-03		11.795
3		0.00		7.60		3.152e-02		-52.462		8.608e-03		12.838
3		0.00		7.20		2.999e-02		-50.489		8.978e-03		14.430
3		0.00		6.80		2.999e-02		-49.841		9.407e-03		14.383
3		0.00		6.40		2.860e-02		-48.964		1.026e-02		19.329
3		0.00		6.00		2.883e-02		-45.862		1.024e-02		24.043
3		0.00		5.60		2.789e-02		-51.954		9.551e-03		23.016
3		0.00		5.20		2.797e-02		-57.134		9.328e-03		19.692
3		0.00		4.80		2.557e-02		-53.920		8.034e-03		13.353
3		0.00		4.40		2.509e-02		-56.495		7.110e-03		13.139
3		0.00		4.00		2.438e-02		-54.769		6.232e-03		12.641
3		0.00		3.60		2.431e-02		-54.199		6.694e-03		13.409
3		0.00		3.20		2.398e-02		-53.055		6.970e-03		12.849
3		0.00		2.80		2.337e-02		-52.621		7.928e-03		12.780
3		0.00		2.40		2.213e-02		-47.306		7.934e-03		22.915
3		0.00		2.00		2.280e-02		-52.019		8.134e-03		25.115
3		0.00		1.60		2.261e-02		-56.845		7.437e-03		24.067
3		0.00		1.20		2.189e-02		-53.772		6.539e-03		15.178
3		0.00		0.80		2.183e-02		-55.723		5.843e-03		15.150
3		0.00		0.40		2.024e-02		-53.553		4.789e-03		13.396
3		0.00		0.00		2.064e-02		-53.429		4.832e-03		13.487
3		0.00		-0.40		1.839e-02		-54.721		4.554e-03		14.332
3		0.00		-0.80		1.337e-02		-52.524		4.303e-03		16.426
3		0.00		-1.20		1.051e-02		-58.774		4.717e-03		17.381
3		0.00		-1.60		6.364e-03		-49.877		4.002e-03		57.983
3		0.00		-2.00		5.098e-03		-19.624		3.252e-03		80.541
3		0.00		-2.40		5.926e-03		62.316		2.935e-03		76.523
3		0.00		-2.80		7.736e-03		75.296		3.735e-03		84.445
3		0.00		-3.20		1.074e-02		108.655		5.360e-03		59.842
3		0.00		-3.60		1.496e-02		120.614		6.840e-03		42.689
3		0.00		-4.00		1.785e-02		122.077		7.772e-03		38.496
3		0.00		-4.40		2.191e-02		122.769		8.986e-03		33.509
3		0.00		-4.80		2.547e-02		123.207		1.050e-02		32.090
3		0.00		-5.20		2.812e-02		115.646		1.159e-02		37.392
3		0.00		-5.60		3.195e-02		120.600		1.253e-02		29.805
3		0.00		-6.00		3.596e-02		126.242		1.354e-02		25.618
3		0.00		-6.40		3.640e-02		126.493		1.336e-02		20.604
3		0.00		-6.80		3.956e-02		131.269		1.359e-02		16.559
3		0.00		-7.20		3.979e-02		131.028		1.321e-02		16.345
3		0.00		-7.60		3.869e-02		120.326		1.279e-02		33.999
3		0.00		-8.00		4.046e-02		127.248		1.232e-02		31.810
3		0.00		-8.40		4.246e-02		130.777		1.427e-02		12.026
3		0.00		-8.80		4.294e-02		129.873		1.548e-02		13.915
3		0.00		-9.20		4.394e-02		129.581		1.674e-02		13.449
3		0.00		-9.60		4.182e-02		126.476		1.660e-02		20.791
3		0.00		-10.00		4.283e-02		122.095		1.756e-02		30.529
3		0.00		-9.60		4.362e-02		122.585		1.680e-02		36.219
3		0.00		-9.20		4.382e-02		123.762		1.650e-02		32.461
3		0.00		-8.80		4.420e-02		125.561		1.654e-02		24.638
3		0.00		-8.40		4.307e-02		126.740		1.593e-02		20.056
3		0.00		-8.00		4.135e-02		122.273		1.380e-02		28.345
3		0.00		-7.60		4.255e-02		127.394		1.360e-02		32.483
3		0.00		-7.20		4.299e-02		131.483		1.347e-02		12.158
3		0.00		-6.80		4.355e-02		129.596		1.388e-02		11.028
3		0.00		-6.40		4.055e-02		129.439		1.315e-02		13.655
3		0.00		-6.00		3.985e-02		128.335		1.398e-02		15.227
3		0.00		-5.60		3.850e-02		124.945		1.427e-02		24.496
3		0.00		-5.20		3.665e-02		124.654		1.326e-02		25.547
3		0.00		-4.80		3.512e-02		125.669		1.233e-02		29.251
3		0.00		-4.40		3.391e-02		125.130		1.155e-02		24.782
3		0.00		-4.00		3.116e-02		127.120		1.082e-02		20.748
3		0.00		-3.60		2.876e-02		129.678		9.997e-03		12.363
3		0.00		-3.20		2.675e-02		128.638		9.564e-03		13.486
3		0.00		-2.80		2.441e-02		127.584		8.405e-03		12.553
3		0.00		-2.40		2.260e-02		130.597		7.421e-03		10.246
3		0.00		-2.00		2.037e-02		131.455		6.968e-03		9.872
3		0.00		-1.60		1.849e-02		132.222		6.618e-03		11.601
3		0.00		-1.20		1.610e-02		130.672		6.030e-03		14.026
3		0.00		-0.80		1.397e-02		126.026		5.488e-03		24.645
3		0.00		-0.40		1.253e-02		126.857		4.916e-03		28.290
4		0.00		0.00		1.100e-02		124.987		4.440e-03		33.893
4		0.00		0.40		9.359e-03		125.502		3.795e-03		39.554
4		0.00		0.80		7.734e-03		115.407		3.152e-03		47.330
4		0.00		1.20		6.447e-03		117.953		2.877e-03		50.048
4		0.00		1.60		5.380e-03		113.339		2.474e-03		56.017
4		0.00		2.00		3.997e-03		65.130		1.863e-03		94.750
4		0.00		2.40		3.286e-03		-5.111		1.431e-03		96.467
4		0.00		2.80		3.570e-03		-52.549		1.540e-03		76.150
4		0.00		3.20		5.121e-03		-63.146		2.474e-03		39.069
4		0.00		3.60		6.714e-03		-70.090		2.949e-03		22.457
4		0.00		4.00		1.001e-02		-64.078		3.555e-03		18.833
4		0.00		4.40		1.747e-02		-58.024		5.484e-03		14.881
4		0.00		4.80		2.188e-02		-60.849		6.321e-03		11.465
4		0.00		5.20		2.467e-02		-58.205		7.510e-03		13.201
4		0.00		5.60		2.847e-02		-56.289		8.475e-03		11.810
4		0.00		6.00		2.983e-02		-55.226		8.912e-03		10.403
4		0.00		6.40		3.236e-02		-55.244		1.027e-02		10.650
4		0.00		6.80		3.373e-02		-55.144		1.096e-02		10.377
4		0.00		7.20		3.208e-02		-54.116		1.116e-02		11.162
4		0.00		7.60		3.487e-02		-53.467		1.220e-02		11.276
4		0.00		8.00		3.781e-02		-52.240		1.375e-02		13.953
4		0.00		8.40		3.752e-02		-47.572		1.406e-02		18.255
4		0.00		8.80		3.650e-02		-45.285		1.341e-02		21.453
4		0.00		9.20		3.828e-02		-48.374		1.334e-02		28.899
4		0.00		9.60		4.039e-02		-45.456		1.373e-02		32.232
4		0.00		10.00		3.882e-02		-48.924		1.264e-02		23.547
4		0.00		9.60		3.497e-02		-52.446		1.146e-02		18.141
4		0.00		9.20		3.686e-02		-53.434		1.247e-02		14.515
4		0.00		8.80		3.507e-02		-54.125		1.116e-02		13.867
4		0.00		8.40		3.327e-02		-55.450		9.634e-03		13.458
4		0.00		8.00		3.269e-02		-53.708		9.630e-03		12.397
4		0.00		7.60		2.947e-02		-53.292		8.474e-03		11.978
4		0.00		7.20		3.089e-02		-52.073		9.154e-03		11.038
4		0.00		6.80		2.800e-02		-51.501		8.446e-03		12.105
4		0.00		6.40		2.744e-02		-52.569		8.995e-03		11.927
4		0.00		6.00		2.574e-02		-52.407		9.330e-03		13.185
4		0.00		5.60		2.581e-02		-52.752		9.346e-03		14.415
4		0.00		5.20		2.521e-02		-47.614		9.027e-03		34.144
4		0.00		4.80		2.486e-02		-50.919		8.318e-03		26.746
4		0.00		4.40		2.690e-02		-52.722		8.678e-03		29.814
4		0.00		4.00		2.539e-02		-56.198		7.983e-03		20.952
4		0.00		3.60		2.438e-02		-53.858		7.289e-03		14.676
4		0.00		3.20		2.373e-02		-55.428		6.580e-03		12.750
4		0.00		2.80		2.296e-02		-56.294		6.034e-03		14.763
4		0.00		2.40		2.387e-02		-55.650		5.909e-03		13.074
4		0.00		2.00		2.424e-02		-54.589		5.831e-03		12.675
4		0.00		1.60		2.372e-02		-54.440		5.854e-03		13.765
4		0.00		1.20		2.290e-02		-53.217		6.098e-03		13.019
4		0.00		0.80		2.202e-02		-52.539		6.630e-03		13.550
4		0.00		0.40		2.124e-02		-53.084		6.763e-03		13.898
4		0.00		0.00		1.986e-02		-50.337		7.312e-03		15.256
4		0.00		-0.40		1.788e-02		-53.929		6.670e-03		20.857
4		0.00		-0.80		1.474e-02		-49.625		5.850e-03		30.422
4		0.00		-1.20		1.176e-02		-55.202		5.469e-03		28.759
4		0.00		-1.60		7.819e-03		-61.121		4.482e-03		35.612
4		0.00		-2.00		5.585e-03		-15.985		3.107e-03		69.919
4		0.00		-2.40		5.785e-03		49.977		2.629e-03		83.637
4		0.00		-2.80		7.577e-03		74.593		3.536e-03		85.897
4		0.00		-3.20		1.098e-02		110.094		5.091e-03		60.641
4		0.00		-3.60		1.485e-02		117.804		6.288e-03		47.213
4		0.00		-4.00		1.864e-02		119.219		7.889e-03		39.789
4		0.00		-4.40		2.231e-02		122.300		9.222e-03		37.204
4		0.00		-4.80		2.681e-02		120.629		1.095e-02		37.310
4		0.00		-5.20		3.104e-02		119.495		1.262e-02		37.026
4		0.00		-5.60		3.224e-02		115.509		1.387e-02		37.401
4		0.00		-6.00		3.554e-02		119.311		1.559e-02		30.603
4		0.00		-6.40		3.658e-02		120.519		1.580e-02		31.902
4		0.00		-6.80		3.829e-02		126.036		1.601e-02		23.929
4		0.00		-7.20		3.934e-02		126.243		1.600e-02		22.467
4		0.00		-7.60		4.067e-02		126.428		1.610e-02		21.112
4		0.00		-8.00		4.055e-02		126.477		1.506e-02		24.728
4		0.00		-8.40		4.079e-02		127.130		1.436e-02		27.246
4		0.00		-8.80		4.077e-02		122.258		1.392e-02		40.755
4		0.00		-9.20		4.366e-02		132.412		1.462e-02		25.961
4		0.00		-9.60		4.069e-02		133.500		1.435e-02		12.783
4		0.00		-10.00		4.486e-02		132.843		1.543e-02		14.849
4		0.00		-9.60		4.491e-02		129.805		1.667e-02		13.691
4		0.00		-9.20		4.610e-02		127.205		1.755e-02		23.718
4		0.00		-8.80		4.458e-02		126.529		1.692e-02		27.288
4		0.00		-8.40		4.509e-02		120.244		1.808e-02		34.976
4		0.00		-8.00		4.442e-02		126.949		1.643e-02		30.627
4		0.00		-7.60		4.334e-02		124.457		1.614e-02		36.823
4		0.00		-7.20		4.201e-02		128.491		1.550e-02		24.472
4		0.00		-6.80		4.161e-02		130.299		1.528e-02		15.830
4		0.00		-6.40		4.052e-02		129.174		1.505e-02		16.293
4		0.00		-6.00		3.865e-02		129.270		1.338e-02		13.995
4		0.00		-5.60		3.692e-02		131.115		1.219e-02		10.606
4		0.00		-5.20		3.580e-02		130.785		1.242e-02		11.298
4		0.00		-4.80		3.472e-02		130.488		1.263e-02		12.211
4		0.00		-4.40		3.382e-02		126.865		1.287e-02		17.052
4		0.00		-4.00		3.187e-02		127.109		1.267e-02		19.736
4		0.00		-3.60		3.051e-02		122.799		1.255e-02		26.669
4		0.00		-3.20		2.874e-02		123.075		1.135e-02		24.486
4		0.00		-2.80		2.770e-02		124.175		1.039e-02		27.068
4		0.00		-2.40		2.636e-02		127.324		9.289e-03		24.899
4		0.00		-2.00		2.389e-02		130.324		8.443e-03		15.520
4		0.00		-1.60		2.151e-02		129.606		7.599e-03		12.447
4		0.00		-1.20		1.971e-02		130.221		6.580e-03		13.160
4		0.00		-0.80		1.756e-02		132.875		5.587e-03		11.934
4		0.00		-0.40		1.570e-02		134.682		5.212e-03		12.022
5		0.00		0.00		1.374e-02		132.178		5.000e-03		18.676
5		0.00		0.40		1.185e-02		130.186		4.329e-03		32.545
5		0.00		0.80		1.032e-02		126.559		4.622e-03		34.569
5		0.00		1.20		9.079e-03		124.627		3.969e-03		35.103
5		0.00		1.60		7.940e-03		121.605		3.624e-03		37.781
5		0.00		2.00		5.858e-03		119.898		2.923e-03		52.312
5		0.00		2.40		4.576e-03		88.489		2.462e-03		85.128
5		0.00		2.80		3.330e-03		17.076		1.386e-03		100.732
5		0.00		3.20		3.048e-03		-33.326		1.182e-03		94.931
5		0.00		3.60		4.992e-03		-80.245		1.837e-03		25.969
5		0.00		4.00		7.179e-03		-55.256		2.624e-03		18.944
5		0.00		4.40		1.079e-02		-59.547		3.889e-03		15.872
5		0.00		4.80		1.434e-02		-53.818		5.412e-03		26.534
5		0.00		5.20		1.804e-02		-57.150		6.458e-03		21.968
5		0.00		5.60		2.334e-02		-60.072		7.587e-03		16.140
5		0.00		6.00		2.769e-02		-58.668		8.095e-03		12.668
5		0.00		6.40		3.259e-02		-55.543		9.042e-03		11.961
5		0.00		6.80		3.393e-02		-53.717		1.002e-02		10.596
5		0.00		7.20		3.790e-02		-51.430		1.152e-02		10.758
5		0.00		7.60		3.519e-02		-52.658		1.327e-02		13.120
5		0.00		8.00		3.354e-02		-50.717		1.363e-02		23.129
5		0.00		8.40		3.426e-02		-50.295		1.322e-02		28.659
5		0.00		8.80		3.627e-02		-53.593		1.294e-02		16.818
5		0.00		9.20		3.666e-02		-54.991		1.199e-02		11.317
5		0.00		9.60		3.866e-02		-55.390		1.128e-02		14.902
5		0.00		10.00		3.994e-02		-51.741		1.197e-02		10.481
5		0.00		9.60		3.724e-02		-51.890		1.173e-02		12.439
5		0.00		9.20		3.667e-02		-50.403		1.357e-02		13.917
5		0.00		8.80		3.445e-02		-48.265		1.298e-02		25.848
5		0.00		8.40		3.376e-02		-51.563		1.165e-02		26.494
5		0.00		8.00		3.459e-02		-52.350		1.096e-02		14.274
5		0.00		7.60		3.200e-02		-54.310		9.516e-03		13.159
5		0.00		7.20		3.089e-02		-53.124		8.194e-03		12.601
5		0.00		6.80		3.050e-02		-52.961		8.523e-03		13.005
5		0.00		6.40		3.070e-02		-50.906		9.120e-03		12.312
5		0.00		6.00		2.949e-02		-50.457		9.896e-03		13.952
5		0.00		5.60		2.670e-02		-47.089		9.788e-03		25.998
5		0.00		5.20		2.751e-02		-54.818		1.000e-02		28.142
5		0.00		4.80		2.629e-02		-53.392		9.124e-03		17.327
5		0.00		4.40		2.640e-02		-55.899		7.800e-03		12.551
5		0.00		4.00		2.578e-02		-55.867		7.140e-03		12.594
5		0.00		3.60		2.412e-02		-54.368		6.678e-03		11.994
5		0.00		3.20		2.391e-02		-54.479		7.313e-03		12.474
5		0.00		2.80		2.226e-02		-53.907		8.126e-03		17.645
5		0.00		2.40		2.268e-02		-46.825		8.249e-03		26.304
5		0.00		2.00		2.269e-02		-52.534		7.620e-03		22.404
5		0.00		1.60		2.244e-02		-54.327		6.996e-03		18.017
5		0.00		1.20		2.125e-02		-56.422		5.400e-03		14.059
5		0.00		0.80		2.101e-02		-55.197		5.207e-03		13.877
5		0.00		0.40		2.046e-02		-56.054		5.012e-03		13.060
5		0.00		0.00		1.908e-02		-50.926		5.521e-03		13.724
5		0.00		-0.40		1.682e-02		-52.505		5.700e-03		21.393
5		0.00		-0.80		1.404e-02		-52.478		5.607e-03		28.595
5		0.00		-1.20		9.926e-03		-59.401		4.954e-03		28.962
5		0.00		-1.60		6.710e-03		-64.033		4.018e-03		43.362
5		0.00		-2.00		5.351e-03		16.442		2.493e-03		83.583
5		0.00		-2.40		7.080e-03		68.248		3.308e-03		88.876
5		0.00		-2.80		8.698e-03		85.320		4.137e-03		76.622
5		0.00		-3.20		1.168e-02		108.029		5.562e-03		52.476
5		0.00		-3.60		1.454e-02		109.150		7.232e-03		42.674
5		0.00		-4.00		1.880e-02		117.262		8.688e-03		37.777
5		0.00		-4.40		2.303e-02		123.356		1.002e-02		28.298
5		0.00		-4.80		2.680e-02		123.854		1.095e-02		24.870
5		0.00		-5.20		2.955e-02		130.388		1.046e-02		13.602
5		0.00		-5.60		3.280e-02		130.489		1.202e-02		11.257
5		0.00		-6.00		3.564e-02		125.693		1.314e-02		27.322
5		0.00		-6.40		3.804e-02		123.407		1.474e-02		29.546
5		0.00		-6.80		3.902e-02		120.627		1.548e-02		29.407
5		0.00		-7.20		4.028e-02		126.754		1.430e-02		23.055
5		0.00		-7.60		4.059e-02		129.761		1.389e-02		13.622
5		0.00		-8.00		4.211e-02		125.225		1.345e-02		22.311
5		0.00		-8.40		4.276e-02		131.553		1.243e-02		12.612
5		0.00		-8.80		4.469e-02		131.434		1.520e-02		12.193
5		0.00		-9.20		4.569e-02		128.422		1.741e-02		16.052
5		0.00		-9.60		4.414e-02		120.691		1.850e-02		33.615
5		0.00		-10.00		4.313e-02		124.548		1.685e-02		31.913
5		0.00		-9.60		4.595e-02		126.077		1.731e-02		26.380
5		0.00		-9.20		4.571e-02		128.079		1.644e-02		17.449
5		0.00		-8.80		4.366e-02		128.383		1.409e-02		20.410
5		0.00		-8.40		4.324e-02		132.964		1.435e-02		13.613
5		0.00		-8.00		4.390e-02		129.023		1.585e-02		15.849
5		0.00		-7.60		4.349e-02		125.078		1.625e-02		21.849
5		0.00		-7.20		4.469e-02		126.914		1.508e-02		24.653
5		0.00		-6.80		4.291e-02		128.443		1.438e-02		21.996
5		0.00		-6.40		4.161e-02		129.005		1.354e-02		16.656
5		0.00		-6.00		3.942e-02		130.856		1.157e-02		14.280
5		0.00		-5.60		3.912e-02		130.699		1.230e-02		10.698
5		0.00		-5.20		3.872e-02		128.486		1.311e-02		16.191
5		0.00		-4.80		3.736e-02		123.483		1.407e-02		25.129
5		0.00		-4.40		3.479e-02		124.198		1.297e-02		28.225
5		0.00		-4.00		3.334e-02		126.670		1.196e-02		18.204
5		0.00		-3.60		3.134e-02		127.994		1.073e-02		12.598
5		0.00		-3.20		2.856e-02		129.241		9.068e-03		10.413
5		0.00		-2.80		2.670e-02		130.584		9.045e-03		11.340
5		0.00		-2.40		2.458e-02		127.728		9.144e-03		20.175
5		0.00		-2.00		2.320e-02		122.749		9.291e-03		28.159
5		0.00		-1.60		2.181e-02		124.032		8.484e-03		28.417
5		0.00		-1.20		2.013e-02		128.793		7.478e-03		20.371
5		0.00		-0.80		1.835e-02		131.337		6.195e-03		9.778
5		0.00		-0.40		1.682e-02		131.637		5.439e-03		10.726
6		0.00		0.00		1.479e-02		132.870		5.037e-03		12.385
6		0.00		0.40		1.319e-02		130.427		4.861e-03		21.483
6		0.00		0.80		1.182e-02		125.249		4.581e-03		29.430
6		0.00		1.20		1.054e-02		130.521		4.053e-03		31.085
6		0.00		1.60		9.251e-03		128.622		3.647e-03		27.844
6		0.00		2.00		8.002e-03		133.327		3.184e-03		31.152
6		0.00		2.40		6.152e-03		116.231		2.512e-03		63.974
6		0.00		2.80		4.351e-03		83.814		2.015e-03		78.994
6		0.00		3.20		3.006e-03		-1.796		1.382e-03		103.600
6		0.00		3.60		3.881e-03		-65.887		1.774e-03		57.796
6		0.00		4.00		5.042e-03		-68.975		2.502e-03		40.895
6		0.00		4.40		8.899e-03		-66.861		3.592e-03		19.515
6		0.00		4.80		1.355e-02		-63.025		4.405e-03		15.227
6		0.00		5.20		1.884e-02		-59.235		5.820e-03		12.599
6		0.00		5.60		2.264e-02		-56.672		7.750e-03		12.612
6		0.00		6.00		2.738e-02		-54.731		1.044e-02		20.787
6		0.00		6.40		3.068e-02		-49.160		1.103e-02		35.464
6		0.00		6.80		3.299e-02		-57.343		1.094e-02		20.137
6		0.00		7.20		3.458e-02		-54.851		1.098e-02		14.947
6		0.00		7.60		3.489e-02		-54.093		1.040e-02		11.323
6		0.00		8.00		3.881e-02		-52.728		1.219e-02		10.844
6		0.00		8.40		4.036e-02		-52.604		1.412e-02		13.868
6		0.00		8.80		3.920e-02		-50.141		1.448e-02		28.650
6		0.00		9.20		3.984e-02		-54.838		1.354e-02		25.117
6		0.00		9.60		3.940e-02		-52.759		1.322e-02		15.999
6		0.00		10.00		3.866e-02		-51.956		1.161e-02		13.059
6		0.00		9.60		3.889e-02		-50.522		1.174e-02		10.994
6		0.00		9.20		3.546e-02		-51.107		1.245e-02		12.776
6		0.00		8.80		3.825e-02		-49.901		1.496e-02		26.556
6		0.00		8.40		3.666e-02		-42.303		1.389e-02		39.571
6		0.00		8.00		3.530e-02		-55.846		1.284e-02		21.165
6		0.00		7.60		3.488e-02		-56.609		1.138e-02		13.045
6		0.00		7.20		3.265e-02		-52.758		9.111e-03		10.860
6		0.00		6.80		3.047e-02		-52.957		8.801e-03		12.122
6		0.00		6.40		3.071e-02		-51.234		9.817e-03		13.261
6		0.00		6.00		3.136e-02		-46.516		1.092e-02		31.095
6		0.00		5.60		3.108e-02		-51.785		1.006e-02		30.934
6		0.00		5.20		3.015e-02		-53.539		9.030e-03		13.491
6		0.00		4.80		2.925e-02		-54.392		7.970e-03		13.002
6		0.00		4.40		2.789e-02		-52.925		7.401e-03		12.291
6		0.00		4.00		2.808e-02		-53.936		7.748e-03		12.872
6		0.00		3.60		2.777e-02		-51.052		9.178e-03		13.609
6		0.00		3.20		2.591e-02		-49.448		9.533e-03		29.869
6		0.00		2.80		2.579e-02		-57.998		9.377e-03		27.345
6		0.00		2.40		2.516e-02		-55.215		8.099e-03		14.792
6		0.00		2.00		2.471e-02		-57.942		6.877e-03		13.237
6		0.00		1.60		2.415e-02		-55.987		6.664e-03		12.530
6		0.00		1.20		2.451e-02		-52.780		7.020e-03		11.969
6		0.00		0.80		2.390e-02		-54.206		7.902e-03		11.745
6		0.00		0.40		2.309e-02		-50.167		8.798e-03		24.358
6		0.00		0.00		2.159e-02		-51.028		7.541e-03		25.728
6		0.00		-0.40		1.987e-02		-57.781		6.152e-03		22.635
6		0.00		-0.80		1.694e-02		-55.069		4.897e-03		13.935
6		0.00		-1.20		1.245e-02		-60.924		3.858e-03		14.413
6		0.00		-1.60		8.318e-03		-66.910		3.253e-03		21.605
6		0.00		-2.00		5.690e-03		-56.486		3.100e-03		49.326
6		0.00		-2.40		4.786e-03		8.573		2.414e-03		86.691
6		0.00		-2.80		6.893e-03		81.128		3.042e-03		74.537
6		0.00		-3.20		9.794e-03		106.018		4.783e-03		59.956
6		0.00		-3.60		1.314e-02		117.881		6.157e-03		42.430
6		0.00		-4.00		1.649e-02		123.123		7.223e-03		35.040
6		0.00		-4.40		2.081e-02		125.624		8.578e-03		37.368
6		0.00		-4.80		2.519e-02		130.390		9.890e-03		21.748
6		0.00		-5.20		2.888e-02		125.082		1.174e-02		27.246
6		0.00		-5.60		3.078e-02		122.019		1.276e-02		29.657
6		0.00		-6.00		3.454e-02		121.382		1.397e-02		30.417
6		0.00		-6.40		3.805e-02		124.338		1.519e-02		29.049
6		0.00		-6.80		3.883e-02		128.278		1.441e-02		14.680
6		0.00		-7.20		4.259e-02		128.970		1.422e-02		14.219
6		0.00		-7.60		4.115e-02		129.775		1.255e-02		11.148
6		0.00		-8.00		4.402e-02		130.679		1.340e-02		10.407
6		0.00		-8.40		4.724e-02		128.229		1.596e-02		13.315
6		0.00		-8.80		4.782e-02		128.124		1.705e-02		25.949
6		0.00		-9.20		4.676e-02		125.215		1.677e-02		27.354
6		0.00		-9.60		4.829e-02		128.669		1.624e-02		25.658
6		0.00		-10.00		4.800e-02		128.439		1.634e-02		23.614
6		0.00		-9.60		4.790e-02		125.255		1.573e-02		22.183
6		0.00		-9.20		4.456e-02		132.231		1.374e-02		16.448
6		0.00		-8.80		4.624e-02		130.694		1.443e-02		11.182
6		0.00		-8.40		4.647e-02		129.193		1.624e-02		11.304
6		0.00		-8.00		4.624e-02		128.917		1.759e-02		15.558
6		0.00		-7.60		4.550e-02		122.382		1.850e-02		33.248
6		0.00		-7.20		4.320e-02		125.921		1.648e-02		27.969
6		0.00		-6.80		4.401e-02		125.855		1.682e-02		28.167
6		0.00		-6.40		4.175e-02		127.779		1.603e-02		18.914
6		0.00		-6.00		3.929e-02		128.173		1.306e-02		13.486
6		0.00		-5.60		3.933e-02		131.019		1.216e-02		10.915
6		0.00		-5.20		3.766e-02		130.428		1.142e-02		9.845
6		0.00		-4.80		3.634e-02		128.855		1.137e-02		13.150
6		0.00		-4.40		3.396e-02		127.098		1.138e-02		16.173
6		0.00		-4.00		3.333e-02		127.025		1.126e-02		23.222
6		0.00		-3.60		3.126e-02		125.517		1.033e-02		26.019
6		0.00		-3.20		2.920e-02		128.813		9.421e-03		17.897
6		0.00		-2.80		2.702e-02		128.979		8.524e-03		14.442
6		0.00		-2.40		2.562e-02		130.547		7.583e-03		11.398
6		0.00		-2.00		2.347e-02		130.352		6.858e-03		10.826
6		0.00		-1.60		2.170e-02		132.302		7.009e-03		10.660
6		0.00		-1.20		1.958e-02		131.548		6.925e-03		17.279
6		0.00		-0.80		1.794e-02		130.234		6.906e-03		21.631
6		0.00		-0.40		1.657e-02		124.593		6.141e-03		30.410
7		0.00		0.00		1.535e-02		125.813		5.951e-03		30.427
7		0.00		0.40		1.363e-02		127.961		5.310e-03		25.356
7		0.00		0.80		1.200e-02		131.865		4.607e-03		15.770
7		0.00		1.20		1.090e-02		135.420		3.912e-03		12.466
7		0.00		1.60		8.971e-03		131.570		3.309e-03		31.734
7		0.00		2.00		7.612e-03		128.510		2.798e-03		47.324
7		0.00		2.40		6.338e-03		122.400		2.756e-03		49.383
7		0.00		2.80		4.907e-03		94.095		2.149e-03		84.404
7		0.00		3.20		3.278e-03		17.165		1.734e-03		100.417
7		0.00		3.60		3.138e-03		-54.471		1.408e-03		74.939
7		0.00		4.00		5.165e-03		-61.989		2.498e-03		41.184
7		0.00		4.40		9.506e-03		-65.918		3.391e-03		23.133
7		0.00		4.80		1.457e-02		-62.001		4.779e-03		16.567
7		0.00		5.20		1.931e-02		-60.342		5.642e-03		13.561
7		0.00		5.60		2.467e-02		-59.274		7.325e-03		11.213
7		0.00		6.00		2.845e-02		-54.550		8.444e-03		10.476
7		0.00		6.40		3.148e-02		-56.154		1.027e-02		10.421
7		0.00		6.80		3.367e-02		-54.479		1.181e-02		13.288
7		0.00		7.20		3.405e-02		-54.772		1.317e-02		14.286
7		0.00		7.60		3.608e-02		-48.540		1.460e-02		28.671
7		0.00		8.00		3.935e-02		-50.791		1.552e-02		33.286
7		0.00		8.40		3.784e-02		-48.183		1.356e-02		27.867
7		0.00		8.80		3.861e-02		-53.515		1.297e-02		18.378
7		0.00		9.20		4.029e-02		-52.735		1.264e-02		12.237
7		0.00		9.60		4.004e-02		-51.739		1.213e-02		14.202
7		0.00		10.00		4.066e-02		-52.086		1.182e-02		14.056
7		0.00		9.60		4.056e-02		-51.142		1.095e-02		11.478
7		0.00		9.20		3.978e-02		-51.041		1.113e-02		10.955
7		0.00		8.80		4.005e-02		-50.283		1.194e-02		11.471
7		0.00		8.40		3.863e-02		-50.846		1.180e-02		11.740
7		0.00		8.00		3.910e-02		-50.336		1.213e-02		12.346
7		0.00		7.60		3.801e-02		-51.699		1.335e-02		12.578
7		0.00		7.20		3.488e-02		-53.755		1.318e-02		17.204
7		0.00		6.80		3.366e-02		-51.111		1.298e-02		20.844
7		0.00		6.40		3.323e-02		-52.513		1.238e-02		20.610
7		0.00		6.00		3.215e-02		-52.779		1.133e-02		20.697
7		0.00		5.60		3.073e-02		-57.079		1.075e-02		21.358
7		0.00		5.20		2.927e-02		-55.090		9.765e-03		17.135
7		0.00		4.80		2.921e-02		-54.992		9.243e-03		11.777
7		0.00		4.40		2.882e-02		-55.400		8.299e-03		12.718
7		0.00		4.00		2.863e-02		-55.090		7.548e-03		12.307
7		0.00		3.60		2.786e-02		-55.090		7.212e-03		12.038
7		0.00		3.20		2.757e-02		-54.956		7.071e-03		12.343
7		0.00		2.80		2.753e-02		-53.997		6.760e-03		11.832
7		0.00		2.40		2.750e-02		-54.030		6.911e-03		11.229
7		0.00		2.00		2.757e-02		-54.276		7.264e-03		11.663
7		0.00		1.60		2.771e-02		-53.231		7.586e-03		11.515
7		0.00		1.20		2.783e-02		-52.336		7.871e-03		10.705
7		0.00		0.80		2.804e-02		-53.215		8.634e-03		11.416
7		0.00		0.40		2.564e-02		-53.163		8.276e-03		12.506
7		0.00		0.00		2.275e-02		-51.738		7.941e-03		16.317
7		0.00		-0.40		1.999e-02		-52.900		7.484e-03		26.621
7		0.00		-0.80		1.909e-02		-49.695		7.328e-03		33.921
7		0.00		-1.20		1.668e-02		-58.148		6.350e-03		28.695
7		0.00		-1.60		1.083e-02		-54.592		4.876e-03		37.773
7		0.00		-2.00		5.728e-03		-53.319		3.479e-03		56.643
7		0.00		-2.40		5.188e-03		12.237		2.433e-03		101.810
7		0.00		-2.80		7.639e-03		88.006		4.117e-03		70.921
7		0.00		-3.20		1.057e-02		118.597		5.251e-03		47.238
7		0.00		-3.60		1.391e-02		128.642		6.395e-03		35.319
7		0.00		-4.00		1.737e-02		126.949		7.247e-03		29.362
7		0.00		-4.40		2.070e-02		127.005		8.074e-03		26.741
7		0.00		-4.80		2.327e-02		128.851		8.770e-03		23.178
7		0.00		-5.20		2.721e-02		131.010		9.264e-03		10.423
7		0.00		-5.60		3.071e-02		133.334		9.980e-03		10.477
7		0.00		-6.00		3.369e-02		131.980		1.076e-02		9.807
7		0.00		-6.40		3.684e-02		131.940		1.192e-02		10.602
7		0.00		-6.80		4.068e-02		131.629		1.318e-02		10.615
7		0.00		-7.20		4.143e-02		131.632		1.321e-02		10.520
7		0.00		-7.60		4.290e-02		130.645		1.442e-02		10.223
7		0.00		-8.00		4.498e-02		129.904		1.551e-02		13.064
7		0.00		-8.40		4.526e-02		128.947		1.583e-02		12.754
7		0.00		-8.80		4.518e-02		130.167		1.616e-02		14.711
7		0.00		-9.20		4.748e-02		129.729		1.720e-02		13.750
7		0.00		-9.60		4.815e-02		130.349		1.775e-02		13.146
7		0.00		-10.00		4.933e-02		127.915		1.843e-02		20.038
7		0.00		-9.60		4.754e-02		127.683		1.743e-02		21.795
7		0.00		-9.20		4.829e-02		126.618		1.789e-02		20.580
7		0.00		-8.80		4.905e-02		128.190		1.718e-02		25.149
7		0.00		-8.40		4.819e-02		127.496		1.668e-02		18.951
7		0.00		-8.00		4.822e-02		129.483		1.659e-02		21.151
7		0.00		-7.60		4.807e-02		127.846		1.740e-02		22.500
7		0.00		-7.20		4.829e-02		124.714		1.699e-02		29.306
7		0.00		-6.80		4.675e-02		127.427		1.573e-02		28.002
7		0.00		-6.40		4.573e-02		126.322		1.512e-02		28.324
7		0.00		-6.00		4.323e-02		128.660		1.411e-02		23.762
7		0.00		-5.60		4.332e-02		126.105		1.442e-02		23.157
7		0.00		-5.20		4.069e-02		128.530		1.357e-02		18.024
7		0.00		-4.80		3.874e-02		129.363		1.369e-02		17.219
7		0.00		-4.40		3.626e-02		130.040		1.306e-02		14.712
7		0.00		-4.00		3.391e-02		130.318		1.178e-02		12.430
7		0.00		-3.60		3.222e-02		130.977		1.100e-02		11.094
7		0.00		-3.20		3.037e-02		131.033		9.846e-03		9.989
7		0.00		-2.80		2.861e-02		129.810		8.846e-03		10.234
7		0.00		-2.40		2.718e-02		129.766		8.267e-03		9.532
7		0.00		-2.00		2.553e-02		128.694		7.870e-03		8.412
7		0.00		-1.60		2.411e-02		130.266		7.230e-03		9.761
7		0.00		-1.20		2.205e-02		133.342		6.453e-03		9.384
7		0.00		-0.80		2.076e-02		132.575		6.161e-03		8.836
7		0.00		-0.40		1.863e-02		132.078		5.649e-03		10.181
8		0.00		0.00		1.668e-02		133.846		5.116e-03		10.826
8		0.00		0.40		1.495e-02		131.969		4.905e-03		15.149
8		0.00		0.80		1.339e-02		131.183		4.538e-03		15.678
8		0.00		1.20		1.149e-02		133.216		4.189e-03		20.407
8		0.00		1.60		1.041e-02		131.455		3.914e-03		27.876
8		0.00		2.00		8.854e-03		130.942		3.393e-03		32.581
8		0.00		2.40		7.444e-03		124.134		3.206e-03		33.810
8		0.00		2.80		5.630e-03		120.985		2.770e-03		43.583
8		0.00		3.20		4.057e-03		79.028		1.983e-03		90.810
8		0.00		3.60		3.220e-03		-10.793		1.535e-03		99.209
8		0.00		4.00		3.359e-03		-64.306		1.686e-03		59.367
8		0.00		4.40		6.110e-03		-63.656		2.709e-03		35.316
8		0.00		4.80		9.892e-03		-60.801		3.490e-03		16.524
8		0.00		5.20		1.481e-02		-63.296		5.139e-03		19.401
8		0.00		5.60		2.116e-02		-57.747		6.788e-03		18.898
8		0.00		6.00		2.518e-02		-57.335		7.342e-03		14.350
8		0.00		6.40		3.036e-02		-56.365		8.261e-03		11.990
8		0.00		6.80		3.476e-02		-56.042		9.043e-03		9.731
8		0.00		7.20		3.900e-02		-56.029		1.075e-02		10.286
8		0.00		7.60		3.971e-02		-55.181		1.083e-02		9.752
8		0.00		8.00		3.885e-02		-53.614		1.035e-02		9.373
8		0.00		8.40		3.966e-02		-54.306		1.123e-02		10.308
8		0.00		8.80		4.195e-02		-52.031		1.251e-02		10.357
8		0.00		9.20		4.238e-02		-52.316		1.414e-02		11.279
8		0.00		9.60		4.385e-02		-49.159		1.529e-02		20.049
8		0.00		10.00		4.370e-02		-48.669		1.587e-02		35.668
8		0.00		9.60		4.124e-02		-49.990		1.488e-02		32.796
8		0.00		9.20		3.923e-02		-56.646		1.416e-02		22.632
8		0.00		8.80		3.733e-02		-53.720		1.243e-02		13.471
8		0.00		8.40		3.499e-02		-53.653		1.076e-02		11.423
8		0.00		8.00		3.502e-02		-54.512		9.412e-03		10.205
8		0.00		7.60		3.320e-02		-53.600		8.762e-03		10.488
8		0.00		7.20		3.711e-02		-54.296		1.080e-02		10.194
8		0.00		6.80		3.679e-02		-53.808		1.113e-02		11.315
8		0.00		6.40		3.004e-02		-53.397		9.510e-03		12.843
8		0.00		6.00		3.183e-02		-51.071		1.057e-02		28.250
8		0.00		5.60		3.180e-02		-54.705		9.978e-03		21.771
8		0.00		5.20		3.157e-02		-56.541		9.251e-03		16.739
8		0.00		4.80		3.109e-02		-53.537		8.093e-03		10.766
8		0.00		4.40		3.258e-02		-54.699		7.864e-03		10.652
8		0.00		4.00		3.136e-02		-53.932		7.201e-03		11.241
8		0.00		3.60		3.132e-02		-53.641		7.711e-03		10.713
8		0.00		3.20		3.122e-02		-51.753		8.369e-03		11.209
8		0.00		2.80		2.935e-02		-54.226		9.724e-03		14.881
8		0.00		2.40		2.800e-02		-51.306		9.644e-03		26.586
8		0.00		2.00		2.800e-02		-55.061		9.353e-03		21.670
8		0.00		1.60		2.693e-02		-55.313		8.494e-03		14.829
8		0.00		1.20		2.681e-02		-56.678		7.267e-03		11.241
8		0.00		0.80		2.603e-02		-55.605		6.486e-03		12.099
8		0.00		0.40		2.556e-02		-55.876		6.487e-03		11.431
8		0.00		0.00		2.470e-02		-55.329		6.330e-03		11.394
8		0.00		-0.40		2.276e-02		-55.389		6.797e-03		13.152
8		0.00		-0.80		2.051e-02		-54.047		6.652e-03		16.054
8		0.00		-1.20		1.705e-02		-53.886		5.711e-03		22.578
8		0.00		-1.60		1.217e-02		-62.567		4.597e-03		21.618
8		0.00		-2.00		9.022e-03		-64.040		3.874e-03		20.462
8		0.00		-2.40		5.339e-03		-44.900		2.761e-03		59.513
8		0.00		-2.80		5.445e-03		43.714		2.158e-03		91.250
8		0.00		-3.20		8.400e-03		95.501		3.810e-03		74.445
8		0.00		-3.60		1.360e-02		119.714		5.896e-03		42.577
8		0.00		-4.00		1.757e-02		123.619		7.640e-03		37.208
8		0.00		-4.40		2.144e-02		120.792		9.030e-03		33.121
8		0.00		-4.80		2.548e-02		126.003		1.033e-02		22.511
8		0.00		-5.20		2.850e-02		127.866		1.140e-02		15.916
8		0.00		-5.60		3.205e-02		131.522		1.157e-02		10.146
8		0.00		-6.00		3.410e-02		129.830		1.158e-02		11.166
8		0.00		-6.40		3.828e-02		130.957		1.284e-02		9.261
8		0.00		-6.80		4.031e-02		127.961		1.433e-02		13.815
8		0.00		-7.20		4.148e-02		127.426		1.550e-02		17.256
8		0.00		-7.60		4.390e-02		126.990		1.643e-02		19.760
8		0.00		-8.00		4.515e-02		125.311		1.605e-02		24.974
8		0.00		-8.40		4.613e-02		129.011		1.506e-02		18.912
8		0.00		-8.80		4.767e-02		131.050		1.551e-02		15.678
8		0.00		-9.20		4.838e-02		129.622		1.472e-02		19.563
8		0.00		-9.60		4.786e-02		130.802		1.418e-02		17.912
8		0.00		-10.00		4.999e-02		132.344		1.413e-02		10.368
8		0.00		-9.60		4.906e-02		132.098		1.409e-02		10.223
8		0.00		-9.20		4.830e-02		132.035		1.467e-02		12.501
8		0.00		-8.80		4.713e-02		128.879		1.636e-02		14.090
8		0.00		-8.40		4.567e-02		127.797		1.625e-02		20.148
8		0.00		-8.00		4.591e-02		123.981		1.685e-02		28.061
8		0.00		-7.60		4.527e-02		124.148		1.643e-02		25.777
8		0.00		-7.20		4.475e-02		128.381		1.542e-02		15.871
8		0.00		-6.80		4.319e-02		128.890		1.414e-02		12.823
8		0.00		-6.40		4.133e-02		129.714		1.223e-02		10.707
8		0.00		-6.00		4.247e-02		129.923		1.315e-02		11.498
8		0.00		-5.60		4.210e-02		127.827		1.352e-02		11.627
8		0.00		-5.20		4.160e-02		128.974		1.332e-02		12.368
8		0.00		-4.80		3.943e-02		127.795		1.312e-02		13.768
8		0.00		-4.40		3.888e-02		126.564		1.315e-02		16.484
8		0.00		-4.00		3.662e-02		125.462		1.216e-02		21.588
8		0.00		-3.60		3.412e-02		127.033		1.123e-02		22.230
8		0.00		-3.20		3.207e-02		127.983		1.004e-02		17.798
8		0.00		-2.80		3.024e-02		129.674		9.286e-03		10.500
8		0.00		-2.40		2.822e-02		131.005		7.724e-03		7.526
8		0.00		-2.00		2.646e-02		131.410		6.966e-03		8.180
8		0.00		-1.60		2.376e-02		132.058		6.950e-03		9.775
8		0.00		-1.20		2.202e-02		132.474		6.645e-03		10.062
8		0.00		-0.80		1.990e-02		130.546		6.522e-03		13.441
8		0.00		-0.40		1.810e-02		129.139		6.524e-03		16.089
