# Date of analysis: 2023-11-20 16;15
# 
# Loop index	Read Volt (V)	Write Volt (V)	Amplitude (a.u)	Phase (deg)	Sigma Amp (a.u)	Sigma Pha (deg)	
1		0.00		0.00		1.428e-02		-51.263		3.872e-03		12.916
1		0.00		0.40		1.389e-02		-53.114		3.863e-03		15.377
1		0.00		0.80		1.361e-02		-55.153		3.718e-03		15.361
1		0.00		1.20		1.354e-02		-52.953		3.968e-03		14.513
1		0.00		1.60		1.304e-02		-55.897		3.962e-03		14.058
1		0.00		2.00		1.371e-02		-55.586		4.021e-03		16.298
1		0.00		2.40		1.452e-02		-57.381		4.131e-03		13.482
1		0.00		2.80		1.430e-02		-56.195		3.951e-03		14.779
1		0.00		3.20		1.423e-02		-56.489		3.767e-03		14.596
1		0.00		3.60		1.396e-02		-53.598		3.737e-03		15.478
1		0.00		4.00		1.468e-02		-54.367		3.696e-03		16.172
1		0.00		4.40		1.491e-02		-56.830		3.726e-03		16.280
1		0.00		4.80		1.559e-02		-59.688		4.013e-03		16.482
1		0.00		5.20		1.644e-02		-56.877		4.015e-03		16.373
1		0.00		5.60		1.713e-02		-58.092		4.405e-03		17.429
1		0.00		6.00		1.825e-02		-55.828		4.227e-03		16.761
1		0.00		6.40		2.040e-02		-55.963		4.832e-03		15.863
1		0.00		6.80		2.212e-02		-55.810		5.382e-03		14.861
1		0.00		7.20		2.446e-02		-56.390		6.114e-03		15.322
1		0.00		7.60		2.688e-02		-55.156		7.023e-03		14.765
1		0.00		8.00		3.040e-02		-55.668		7.680e-03		14.277
1		0.00		8.40		3.376e-02		-54.250		8.676e-03		13.927
1		0.00		8.80		4.012e-02		-54.500		1.013e-02		14.006
1		0.00		9.20		4.236e-02		-53.679		1.115e-02		12.851
1		0.00		9.60		4.583e-02		-54.548		1.214e-02		12.785
1		0.00		10.00		4.760e-02		-54.366		1.306e-02		12.202
1		0.00		9.60		4.728e-02		-54.630		1.238e-02		13.201
1		0.00		9.20		4.680e-02		-54.589		1.225e-02		12.335
1		0.00		8.80		4.611e-02		-53.933		1.250e-02		12.950
1		0.00		8.40		4.605e-02		-54.296		1.280e-02		12.785
1		0.00		8.00		4.417e-02		-54.293		1.158e-02		11.960
1		0.00		7.60		4.374e-02		-54.415		1.155e-02		12.496
1		0.00		7.20		4.294e-02		-54.550		1.135e-02		11.230
1		0.00		6.80		4.290e-02		-54.322		1.040e-02		12.178
1		0.00		6.40		4.159e-02		-53.489		9.985e-03		11.830
1		0.00		6.00		4.166e-02		-53.655		9.883e-03		11.829
1		0.00		5.60		4.046e-02		-53.208		9.690e-03		11.483
1		0.00		5.20		4.005e-02		-53.864		9.546e-03		11.537
1		0.00		4.80		3.866e-02		-53.227		9.107e-03		11.220
1		0.00		4.40		3.829e-02		-52.949		9.500e-03		11.059
1		0.00		4.00		3.704e-02		-52.723		9.423e-03		12.036
1		0.00		3.60		3.702e-02		-52.660		9.396e-03		10.975
1		0.00		3.20		3.631e-02		-53.052		1.036e-02		10.951
1		0.00		2.80		3.578e-02		-51.996		1.076e-02		11.582
1		0.00		2.40		3.503e-02		-52.545		1.076e-02		10.776
1		0.00		2.00		3.400e-02		-51.186		1.048e-02		12.736
1		0.00		1.60		3.376e-02		-51.223		1.097e-02		12.031
1		0.00		1.20		3.335e-02		-49.163		1.095e-02		11.923
1		0.00		0.80		3.232e-02		-48.881		1.081e-02		13.458
1		0.00		0.40		3.141e-02		-47.348		1.005e-02		13.402
1		0.00		0.00		3.084e-02		-49.904		9.518e-03		16.094
1		0.00		-0.40		3.036e-02		-48.709		9.142e-03		14.938
1		0.00		-0.80		2.865e-02		-51.801		7.990e-03		16.332
1		0.00		-1.20		2.677e-02		-52.158		6.996e-03		16.498
1		0.00		-1.60		2.422e-02		-51.948		6.183e-03		16.223
1		0.00		-2.00		2.172e-02		-51.526		5.282e-03		16.213
1		0.00		-2.40		1.940e-02		-51.232		4.747e-03		15.603
1		0.00		-2.80		1.608e-02		-50.683		3.827e-03		15.692
1		0.00		-3.20		1.200e-02		-52.961		3.069e-03		17.035
1		0.00		-3.60		7.139e-03		-58.603		1.977e-03		19.889
1		0.00		-4.00		3.485e-03		-39.551		1.546e-03		50.227
1		0.00		-4.40		2.526e-03		52.369		1.116e-03		81.951
1		0.00		-4.80		4.835e-03		104.375		2.241e-03		44.761
1		0.00		-5.20		7.186e-03		114.834		3.043e-03		28.724
1		0.00		-5.60		1.076e-02		122.078		3.425e-03		19.622
1		0.00		-6.00		1.370e-02		123.170		4.279e-03		15.606
1		0.00		-6.40		1.480e-02		123.075		4.772e-03		13.349
1		0.00		-6.80		1.635e-02		124.745		5.005e-03		12.534
1		0.00		-7.20		1.851e-02		126.011		5.827e-03		12.515
1		0.00		-7.60		1.945e-02		124.548		6.380e-03		13.671
1		0.00		-8.00		2.216e-02		124.671		7.040e-03		23.019
1		0.00		-8.40		2.199e-02		124.711		6.331e-03		23.684
1		0.00		-8.80		2.372e-02		123.945		6.775e-03		25.412
1		0.00		-9.20		2.468e-02		122.148		7.025e-03		25.749
1		0.00		-9.60		2.761e-02		124.123		7.591e-03		20.633
1		0.00		-10.00		2.607e-02		124.614		7.154e-03		17.850
1		0.00		-9.60		2.790e-02		123.382		7.165e-03		15.962
1		0.00		-9.20		2.558e-02		124.506		6.228e-03		14.308
1		0.00		-8.80		2.673e-02		126.171		6.148e-03		13.550
1		0.00		-8.40		2.552e-02		124.705		6.445e-03		13.800
1		0.00		-8.00		2.515e-02		125.134		6.301e-03		14.414
1		0.00		-7.60		2.495e-02		122.176		6.771e-03		14.811
1		0.00		-7.20		2.397e-02		122.326		6.581e-03		13.849
1		0.00		-6.80		2.353e-02		123.810		6.042e-03		14.024
1		0.00		-6.40		2.333e-02		123.055		6.160e-03		13.182
1		0.00		-6.00		2.183e-02		125.156		5.720e-03		12.219
1		0.00		-5.60		2.194e-02		124.867		5.662e-03		11.788
1		0.00		-5.20		2.081e-02		124.588		5.293e-03		11.385
1		0.00		-4.80		2.080e-02		126.829		5.691e-03		10.303
1		0.00		-4.40		2.008e-02		124.286		5.454e-03		9.684
1		0.00		-4.00		1.960e-02		125.661		5.166e-03		10.009
1		0.00		-3.60		1.941e-02		126.566		5.370e-03		10.840
1		0.00		-3.20		1.857e-02		124.462		5.536e-03		14.226
1		0.00		-2.80		1.854e-02		125.712		5.267e-03		17.679
1		0.00		-2.40		1.770e-02		123.717		4.891e-03		22.075
1		0.00		-2.00		1.776e-02		122.959		5.031e-03		25.199
1		0.00		-1.60		1.704e-02		123.290		4.893e-03		28.570
1		0.00		-1.20		1.673e-02		122.309		4.436e-03		25.716
1		0.00		-0.80		1.587e-02		121.518		4.584e-03		25.432
1		0.00		-0.40		1.535e-02		125.142		4.400e-03		23.869
2		0.00		0.00		1.491e-02		122.600		4.008e-03		18.649
2		0.00		0.40		1.479e-02		123.405		4.136e-03		20.206
2		0.00		0.80		1.376e-02		125.766		3.730e-03		19.927
2		0.00		1.20		1.342e-02		125.437		3.429e-03		15.354
2		0.00		1.60		1.250e-02		124.850		3.199e-03		16.276
2		0.00		2.00		1.136e-02		127.207		2.948e-03		14.838
2		0.00		2.40		9.774e-03		127.642		2.607e-03		15.074
2		0.00		2.80		8.830e-03		128.896		2.212e-03		15.840
2		0.00		3.20		7.262e-03		128.271		1.809e-03		15.184
2		0.00		3.60		4.803e-03		123.795		1.442e-03		30.991
2		0.00		4.00		3.088e-03		102.206		1.214e-03		56.419
2		0.00		4.40		2.132e-03		8.283		7.876e-04		80.396
2		0.00		4.80		3.195e-03		-43.114		1.241e-03		48.158
2		0.00		5.20		5.432e-03		-61.272		1.769e-03		22.654
2		0.00		5.60		8.188e-03		-57.063		2.265e-03		21.442
2		0.00		6.00		1.243e-02		-52.768		2.983e-03		15.055
2		0.00		6.40		1.569e-02		-55.121		3.779e-03		15.724
2		0.00		6.80		2.153e-02		-54.150		5.168e-03		14.095
2		0.00		7.20		2.630e-02		-55.503		6.755e-03		15.354
2		0.00		7.60		2.972e-02		-54.118		7.714e-03		13.201
2		0.00		8.00		3.382e-02		-52.925		8.915e-03		11.485
2		0.00		8.40		3.665e-02		-53.098		1.007e-02		11.084
2		0.00		8.80		3.873e-02		-53.149		1.039e-02		9.852
2		0.00		9.20		4.003e-02		-52.111		1.069e-02		10.508
2		0.00		9.60		4.129e-02		-52.370		1.152e-02		10.075
2		0.00		10.00		4.174e-02		-52.238		1.250e-02		10.576
2		0.00		9.60		4.075e-02		-50.747		1.175e-02		10.677
2		0.00		9.20		4.069e-02		-50.977		1.135e-02		11.788
2		0.00		8.80		3.902e-02		-50.230		1.066e-02		12.266
2		0.00		8.40		3.797e-02		-49.333		1.048e-02		12.699
2		0.00		8.00		3.660e-02		-48.407		1.026e-02		15.033
2		0.00		7.60		3.659e-02		-49.961		1.017e-02		17.667
2		0.00		7.20		3.565e-02		-47.907		9.458e-03		14.449
2		0.00		6.80		3.540e-02		-47.794		9.606e-03		16.338
2		0.00		6.40		3.459e-02		-49.603		9.258e-03		14.096
2		0.00		6.00		3.367e-02		-49.407		8.663e-03		14.027
2		0.00		5.60		3.251e-02		-50.859		8.968e-03		16.492
2		0.00		5.20		3.225e-02		-52.283		8.623e-03		14.914
2		0.00		4.80		3.182e-02		-51.058		7.839e-03		13.955
2		0.00		4.40		3.071e-02		-51.120		7.712e-03		14.016
2		0.00		4.00		3.130e-02		-51.587		7.478e-03		13.457
2		0.00		3.60		3.087e-02		-51.803		6.887e-03		13.248
2		0.00		3.20		3.087e-02		-52.110		6.426e-03		13.082
2		0.00		2.80		3.029e-02		-53.607		6.055e-03		13.146
2		0.00		2.40		3.020e-02		-52.257		6.022e-03		13.080
2		0.00		2.00		2.996e-02		-54.047		5.588e-03		12.991
2		0.00		1.60		2.920e-02		-52.613		5.673e-03		11.825
2		0.00		1.20		2.954e-02		-53.091		5.958e-03		11.126
2		0.00		0.80		2.895e-02		-51.638		5.962e-03		11.073
2		0.00		0.40		2.896e-02		-51.578		5.710e-03		10.845
2		0.00		0.00		2.801e-02		-53.143		6.174e-03		10.086
2		0.00		-0.40		2.740e-02		-51.698		6.401e-03		10.249
2		0.00		-0.80		2.641e-02		-49.432		6.173e-03		10.708
2		0.00		-1.20		2.492e-02		-51.402		6.249e-03		9.917
2		0.00		-1.60		2.192e-02		-49.358		5.817e-03		11.036
2		0.00		-2.00		1.941e-02		-52.011		5.561e-03		11.161
2		0.00		-2.40		1.578e-02		-48.808		4.652e-03		13.418
2		0.00		-2.80		1.270e-02		-48.731		3.832e-03		15.377
2		0.00		-3.20		9.451e-03		-46.093		2.994e-03		18.172
2		0.00		-3.60		6.360e-03		-41.372		2.360e-03		21.463
2		0.00		-4.00		3.819e-03		-41.613		1.873e-03		38.270
2		0.00		-4.40		2.919e-03		-21.285		1.486e-03		53.463
2		0.00		-4.80		2.594e-03		38.090		1.137e-03		58.752
2		0.00		-5.20		4.496e-03		94.446		1.680e-03		43.765
2		0.00		-5.60		6.124e-03		103.586		2.478e-03		41.860
2		0.00		-6.00		8.067e-03		111.255		2.835e-03		30.293
2		0.00		-6.40		1.095e-02		120.854		3.318e-03		19.423
2		0.00		-6.80		1.170e-02		122.142		3.519e-03		18.530
2		0.00		-7.20		1.439e-02		124.364		4.216e-03		15.061
2		0.00		-7.60		1.562e-02		124.309		4.236e-03		13.363
2		0.00		-8.00		1.738e-02		124.877		4.538e-03		12.866
2		0.00		-8.40		1.746e-02		123.748		4.414e-03		12.670
2		0.00		-8.80		1.945e-02		124.316		4.553e-03		11.822
2		0.00		-9.20		2.083e-02		126.082		5.036e-03		12.022
2		0.00		-9.60		2.037e-02		125.987		4.742e-03		13.926
2		0.00		-10.00		2.213e-02		123.843		5.481e-03		11.865
2		0.00		-9.60		2.230e-02		125.346		5.354e-03		12.370
2		0.00		-9.20		2.180e-02		123.973		4.949e-03		11.000
2		0.00		-8.80		2.299e-02		125.198		5.704e-03		10.171
2		0.00		-8.40		2.083e-02		126.341		5.228e-03		11.237
2		0.00		-8.00		2.159e-02		125.440		5.519e-03		10.113
2		0.00		-7.60		1.928e-02		126.321		5.070e-03		10.838
2		0.00		-7.20		1.861e-02		126.936		4.925e-03		9.748
2		0.00		-6.80		1.857e-02		127.103		4.958e-03		9.279
2		0.00		-6.40		1.747e-02		124.110		4.647e-03		11.992
2		0.00		-6.00		1.694e-02		124.070		4.826e-03		16.230
2		0.00		-5.60		1.609e-02		124.668		4.334e-03		21.346
2		0.00		-5.20		1.501e-02		123.738		3.954e-03		23.910
2		0.00		-4.80		1.458e-02		125.475		3.687e-03		23.705
2		0.00		-4.40		1.445e-02		122.515		3.567e-03		19.949
2		0.00		-4.00		1.342e-02		122.849		3.512e-03		19.854
2		0.00		-3.60		1.318e-02		126.170		3.153e-03		16.846
2		0.00		-3.20		1.240e-02		124.239		3.261e-03		14.920
2		0.00		-2.80		1.168e-02		124.877		2.855e-03		12.462
2		0.00		-2.40		1.140e-02		123.047		2.766e-03		14.544
2		0.00		-2.00		1.052e-02		120.089		2.839e-03		13.520
2		0.00		-1.60		1.042e-02		125.464		2.482e-03		13.455
2		0.00		-1.20		9.968e-03		126.481		2.262e-03		15.385
2		0.00		-0.80		9.221e-03		124.183		2.565e-03		13.740
2		0.00		-0.40		8.299e-03		121.985		2.543e-03		16.454
3		0.00		0.00		8.057e-03		125.986		2.323e-03		16.859
3		0.00		0.40		7.491e-03		121.341		2.140e-03		17.912
3		0.00		0.80		7.252e-03		120.301		2.062e-03		17.264
3		0.00		1.20		6.346e-03		121.120		2.035e-03		19.929
3		0.00		1.60		5.721e-03		114.761		1.867e-03		32.993
3		0.00		2.00		4.847e-03		118.605		1.657e-03		30.762
3		0.00		2.40		4.354e-03		116.809		1.487e-03		42.655
3		0.00		2.80		3.288e-03		97.061		1.239e-03		40.394
3		0.00		3.20		2.525e-03		64.402		1.134e-03		56.328
3		0.00		3.60		1.861e-03		16.132		7.552e-04		60.855
3		0.00		4.00		2.466e-03		-34.893		9.948e-04		45.484
3		0.00		4.40		3.466e-03		-36.758		1.307e-03		37.021
3		0.00		4.80		6.011e-03		-46.043		2.015e-03		22.275
3		0.00		5.20		1.029e-02		-51.701		2.900e-03		21.868
3		0.00		5.60		1.425e-02		-52.178		4.121e-03		18.529
3		0.00		6.00		1.737e-02		-49.488		4.489e-03		16.362
3		0.00		6.40		1.995e-02		-50.316		5.213e-03		15.827
3		0.00		6.80		2.453e-02		-51.067		6.234e-03		17.174
3		0.00		7.20		2.700e-02		-52.223		6.962e-03		16.466
3		0.00		7.60		2.808e-02		-50.993		7.035e-03		14.874
3		0.00		8.00		2.980e-02		-51.543		7.798e-03		16.317
3		0.00		8.40		3.219e-02		-51.923		8.039e-03		15.021
3		0.00		8.80		3.405e-02		-50.713		8.671e-03		15.301
3		0.00		9.20		3.445e-02		-51.106		8.680e-03		15.045
3		0.00		9.60		3.634e-02		-50.575		9.115e-03		15.894
3		0.00		10.00		3.771e-02		-50.216		8.603e-03		14.341
3		0.00		9.60		3.602e-02		-50.127		8.890e-03		15.295
3		0.00		9.20		3.451e-02		-52.177		8.466e-03		14.920
3		0.00		8.80		3.332e-02		-50.498		7.635e-03		15.135
3		0.00		8.40		3.184e-02		-50.554		7.453e-03		14.261
3		0.00		8.00		3.109e-02		-50.823		7.498e-03		14.705
3		0.00		7.60		2.984e-02		-51.003		7.256e-03		15.721
3		0.00		7.20		2.890e-02		-50.768		7.363e-03		15.790
3		0.00		6.80		2.939e-02		-50.123		6.790e-03		14.979
3		0.00		6.40		2.872e-02		-51.378		6.965e-03		15.467
3		0.00		6.00		2.881e-02		-50.862		6.610e-03		15.377
3		0.00		5.60		2.827e-02		-50.951		6.561e-03		14.208
3		0.00		5.20		2.750e-02		-54.685		6.601e-03		15.675
3		0.00		4.80		2.788e-02		-51.993		6.399e-03		15.671
3		0.00		4.40		2.710e-02		-50.943		6.087e-03		15.231
3		0.00		4.00		2.714e-02		-51.441		5.814e-03		14.483
3		0.00		3.60		2.694e-02		-50.787		5.551e-03		12.909
3		0.00		3.20		2.694e-02		-52.768		5.248e-03		12.564
3		0.00		2.80		2.619e-02		-50.593		5.116e-03		13.880
3		0.00		2.40		2.589e-02		-51.151		5.177e-03		13.621
3		0.00		2.00		2.490e-02		-51.243		5.124e-03		14.446
3		0.00		1.60		2.535e-02		-50.115		4.988e-03		13.411
3		0.00		1.20		2.477e-02		-51.856		4.853e-03		14.101
3		0.00		0.80		2.461e-02		-50.229		5.036e-03		14.048
3		0.00		0.40		2.416e-02		-51.099		5.408e-03		15.071
3		0.00		0.00		2.420e-02		-50.552		4.803e-03		13.696
3		0.00		-0.40		2.408e-02		-49.710		4.715e-03		13.390
3		0.00		-0.80		2.246e-02		-51.008		4.171e-03		13.210
3		0.00		-1.20		2.088e-02		-49.312		3.859e-03		12.939
3		0.00		-1.60		1.885e-02		-49.498		3.027e-03		14.120
3		0.00		-2.00		1.718e-02		-51.003		2.967e-03		15.116
3		0.00		-2.40		1.448e-02		-51.128		2.535e-03		14.019
3		0.00		-2.80		1.139e-02		-49.098		1.988e-03		14.012
3		0.00		-3.20		9.794e-03		-49.908		1.933e-03		13.790
3		0.00		-3.60		6.483e-03		-52.923		1.737e-03		19.354
3		0.00		-4.00		3.790e-03		-34.852		1.951e-03		39.757
3		0.00		-4.40		2.753e-03		7.546		1.424e-03		63.056
3		0.00		-4.80		2.644e-03		36.696		1.182e-03		65.205
3		0.00		-5.20		4.277e-03		91.655		1.786e-03		48.347
3		0.00		-5.60		5.337e-03		94.665		2.295e-03		50.136
3		0.00		-6.00		7.679e-03		110.315		2.719e-03		31.796
3		0.00		-6.40		1.026e-02		115.377		3.232e-03		34.748
3		0.00		-6.80		1.125e-02		119.533		3.479e-03		19.085
3		0.00		-7.20		1.267e-02		123.980		3.833e-03		15.881
3		0.00		-7.60		1.467e-02		122.033		4.437e-03		11.690
3		0.00		-8.00		1.661e-02		122.570		4.969e-03		11.953
3		0.00		-8.40		1.688e-02		124.695		4.715e-03		13.357
3		0.00		-8.80		1.888e-02		124.593		4.997e-03		11.845
3		0.00		-9.20		1.968e-02		122.848		5.219e-03		11.900
3		0.00		-9.60		1.999e-02		124.154		5.306e-03		12.359
3		0.00		-10.00		1.957e-02		124.222		5.424e-03		13.332
3		0.00		-9.60		1.877e-02		123.342		5.361e-03		12.963
3		0.00		-9.20		1.952e-02		123.396		5.607e-03		12.814
3		0.00		-8.80		1.844e-02		123.411		4.588e-03		13.109
3		0.00		-8.40		1.864e-02		124.292		4.738e-03		13.511
3		0.00		-8.00		1.844e-02		124.418		4.766e-03		13.170
3		0.00		-7.60		1.830e-02		126.275		5.146e-03		12.985
3		0.00		-7.20		1.772e-02		125.488		4.850e-03		12.448
3		0.00		-6.80		1.611e-02		126.225		4.585e-03		15.505
3		0.00		-6.40		1.498e-02		126.761		4.052e-03		13.377
3		0.00		-6.00		1.397e-02		125.178		4.162e-03		14.251
3		0.00		-5.60		1.354e-02		125.652		3.959e-03		17.886
3		0.00		-5.20		1.243e-02		120.992		3.938e-03		23.877
3		0.00		-4.80		1.175e-02		121.532		3.850e-03		22.909
3		0.00		-4.40		1.108e-02		117.454		3.706e-03		30.943
3		0.00		-4.00		1.038e-02		119.285		3.548e-03		33.663
3		0.00		-3.60		9.790e-03		117.641		3.384e-03		33.651
3		0.00		-3.20		9.470e-03		113.018		3.396e-03		33.644
3		0.00		-2.80		8.478e-03		114.332		3.065e-03		35.324
3		0.00		-2.40		8.166e-03		114.586		2.823e-03		35.648
3		0.00		-2.00		8.062e-03		113.654		3.004e-03		26.225
3		0.00		-1.60		7.362e-03		120.315		2.604e-03		26.595
3		0.00		-1.20		6.995e-03		118.788		2.484e-03		28.924
3		0.00		-0.80		6.466e-03		119.005		2.519e-03		24.812
3		0.00		-0.40		6.135e-03		114.354		2.043e-03		30.440
4		0.00		0.00		5.444e-03		114.209		2.003e-03		27.943
4		0.00		0.40		4.918e-03		116.142		2.005e-03		30.418
4		0.00		0.80		4.454e-03		109.797		1.622e-03		34.657
4		0.00		1.20		3.661e-03		96.971		1.574e-03		51.505
4		0.00		1.60		3.131e-03		91.202		1.368e-03		42.130
4		0.00		2.00		2.657e-03		70.613		1.148e-03		65.747
4		0.00		2.40		2.293e-03		54.474		8.152e-04		55.220
4		0.00		2.80		1.958e-03		40.192		9.583e-04		59.864
4		0.00		3.20		1.909e-03		3.185		8.501e-04		63.945
4		0.00		3.60		2.208e-03		-21.663		8.967e-04		54.050
4		0.00		4.00		3.238e-03		-36.696		1.355e-03		39.250
4		0.00		4.40		4.599e-03		-52.566		1.770e-03		27.752
4		0.00		4.80		6.906e-03		-45.682		2.264e-03		23.175
4		0.00		5.20		9.280e-03		-48.777		3.067e-03		21.741
4		0.00		5.60		1.125e-02		-46.526		3.495e-03		16.145
4		0.00		6.00		1.485e-02		-49.901		4.453e-03		12.860
4		0.00		6.40		1.903e-02		-52.099		5.084e-03		12.682
4		0.00		6.80		2.253e-02		-51.884		5.724e-03		12.735
4		0.00		7.20		2.417e-02		-51.608		5.545e-03		13.348
4		0.00		7.60		2.530e-02		-52.774		5.633e-03		14.367
4		0.00		8.00		2.820e-02		-53.286		6.632e-03		15.031
4		0.00		8.40		2.964e-02		-51.623		7.427e-03		15.672
4		0.00		8.80		3.167e-02		-50.087		8.058e-03		15.489
4		0.00		9.20		3.227e-02		-50.634		8.753e-03		15.653
4		0.00		9.60		3.450e-02		-50.232		9.844e-03		18.208
4		0.00		10.00		3.438e-02		-51.077		9.730e-03		20.036
4		0.00		9.60		3.297e-02		-48.927		9.438e-03		24.389
4		0.00		9.20		3.225e-02		-47.777		9.858e-03		24.705
4		0.00		8.80		3.130e-02		-48.442		1.003e-02		22.159
4		0.00		8.40		3.069e-02		-49.148		9.450e-03		11.845
4		0.00		8.00		2.962e-02		-47.471		8.108e-03		10.882
4		0.00		7.60		2.881e-02		-49.442		7.331e-03		10.925
4		0.00		7.20		2.864e-02		-49.999		6.450e-03		12.163
4		0.00		6.80		2.811e-02		-51.738		6.081e-03		13.445
4		0.00		6.40		2.728e-02		-52.302		6.007e-03		14.263
4		0.00		6.00		2.592e-02		-52.683		5.833e-03		14.652
4		0.00		5.60		2.524e-02		-51.543		5.879e-03		14.908
4		0.00		5.20		2.475e-02		-52.007		6.124e-03		15.512
4		0.00		4.80		2.400e-02		-50.059		5.826e-03		16.030
4		0.00		4.40		2.344e-02		-49.100		5.980e-03		18.689
4		0.00		4.00		2.318e-02		-49.413		6.169e-03		20.792
4		0.00		3.60		2.339e-02		-47.033		6.317e-03		27.127
4		0.00		3.20		2.348e-02		-46.742		6.296e-03		22.352
4		0.00		2.80		2.393e-02		-49.976		6.274e-03		13.198
4		0.00		2.40		2.407e-02		-48.394		5.552e-03		10.507
4		0.00		2.00		2.376e-02		-51.697		5.056e-03		11.309
4		0.00		1.60		2.416e-02		-51.230		4.955e-03		11.845
4		0.00		1.20		2.333e-02		-51.466		4.585e-03		13.183
4		0.00		0.80		2.243e-02		-50.447		4.778e-03		14.730
4		0.00		0.40		2.195e-02		-50.509		5.226e-03		15.065
4		0.00		0.00		2.121e-02		-51.243		5.454e-03		16.162
4		0.00		-0.40		2.102e-02		-51.488		5.718e-03		18.627
4		0.00		-0.80		1.978e-02		-50.386		5.604e-03		22.909
4		0.00		-1.20		1.843e-02		-47.611		5.383e-03		24.110
4		0.00		-1.60		1.727e-02		-47.447		5.054e-03		20.984
4		0.00		-2.00		1.532e-02		-48.739		4.228e-03		13.742
4		0.00		-2.40		1.256e-02		-51.059		2.927e-03		12.918
4		0.00		-2.80		1.139e-02		-49.678		2.204e-03		15.545
4		0.00		-3.20		8.725e-03		-50.843		1.990e-03		18.461
4		0.00		-3.60		6.133e-03		-48.653		2.219e-03		21.753
4		0.00		-4.00		4.028e-03		-37.135		2.262e-03		42.297
4		0.00		-4.40		2.975e-03		-3.303		1.528e-03		57.536
4		0.00		-4.80		3.044e-03		39.166		1.194e-03		62.403
4		0.00		-5.20		3.733e-03		78.158		1.614e-03		54.345
4		0.00		-5.60		4.699e-03		95.349		1.787e-03		44.568
4		0.00		-6.00		6.210e-03		113.732		2.526e-03		39.666
4		0.00		-6.40		8.315e-03		116.334		3.019e-03		29.318
4		0.00		-6.80		1.010e-02		118.833		3.445e-03		33.987
4		0.00		-7.20		1.270e-02		118.656		3.894e-03		14.539
4		0.00		-7.60		1.440e-02		125.870		4.215e-03		11.620
4		0.00		-8.00		1.647e-02		124.256		4.651e-03		12.293
4		0.00		-8.40		1.623e-02		124.730		4.585e-03		17.162
4		0.00		-8.80		1.849e-02		121.175		5.601e-03		24.859
4		0.00		-9.20		1.976e-02		125.166		6.115e-03		15.283
4		0.00		-9.60		2.022e-02		125.048		6.399e-03		13.097
4		0.00		-10.00		2.234e-02		124.675		5.806e-03		8.358
4		0.00		-9.60		2.093e-02		122.670		5.324e-03		11.871
4		0.00		-9.20		2.036e-02		125.686		5.006e-03		14.157
4		0.00		-8.80		2.025e-02		126.253		4.895e-03		11.067
4		0.00		-8.40		1.926e-02		124.772		4.876e-03		18.508
4		0.00		-8.00		1.855e-02		124.107		5.028e-03		23.776
4		0.00		-7.60		1.837e-02		125.008		5.275e-03		15.659
4		0.00		-7.20		1.879e-02		124.563		5.028e-03		11.684
4		0.00		-6.80		1.721e-02		126.431		4.160e-03		11.231
4		0.00		-6.40		1.616e-02		123.677		3.842e-03		12.425
4		0.00		-6.00		1.547e-02		124.475		3.448e-03		11.249
4		0.00		-5.60		1.452e-02		127.577		3.595e-03		13.267
4		0.00		-5.20		1.341e-02		122.102		3.554e-03		19.948
4		0.00		-4.80		1.318e-02		121.175		3.722e-03		27.805
4		0.00		-4.40		1.191e-02		125.391		3.843e-03		16.657
4		0.00		-4.00		1.140e-02		120.583		3.312e-03		13.631
4		0.00		-3.60		1.087e-02		120.156		3.227e-03		23.496
4		0.00		-3.20		9.773e-03		125.568		2.751e-03		12.835
4		0.00		-2.80		9.356e-03		123.990		2.576e-03		13.555
4		0.00		-2.40		8.833e-03		120.037		2.451e-03		19.955
4		0.00		-2.00		7.863e-03		114.009		2.502e-03		31.180
4		0.00		-1.60		7.527e-03		115.125		2.443e-03		30.574
4		0.00		-1.20		6.855e-03		116.759		2.362e-03		33.132
4		0.00		-0.80		6.533e-03		113.708		2.108e-03		33.197
4		0.00		-0.40		6.083e-03		114.575		1.863e-03		18.986
5		0.00		0.00		5.528e-03		116.368		1.688e-03		25.267
5		0.00		0.40		4.817e-03		111.421		1.469e-03		25.257
5		0.00		0.80		3.864e-03		101.602		1.499e-03		30.773
5		0.00		1.20		3.484e-03		101.946		1.281e-03		38.127
5		0.00		1.60		3.033e-03		89.937		1.162e-03		45.027
5		0.00		2.00		2.399e-03		63.108		9.581e-04		58.991
5		0.00		2.40		1.933e-03		24.762		8.032e-04		73.083
5		0.00		2.80		2.029e-03		-19.298		8.964e-04		65.502
5		0.00		3.20		2.589e-03		-43.538		1.135e-03		48.026
5		0.00		3.60		3.123e-03		-34.638		1.197e-03		37.895
5		0.00		4.00		4.126e-03		-53.209		1.340e-03		24.370
5		0.00		4.40		5.044e-03		-39.538		1.767e-03		22.474
5		0.00		4.80		6.568e-03		-38.197		2.204e-03		23.843
5		0.00		5.20		8.081e-03		-49.579		2.386e-03		15.355
5		0.00		5.60		1.101e-02		-47.658		3.028e-03		12.204
5		0.00		6.00		1.328e-02		-46.726		2.971e-03		10.699
5		0.00		6.40		1.731e-02		-51.028		3.494e-03		10.915
5		0.00		6.80		1.909e-02		-52.565		4.282e-03		13.579
5		0.00		7.20		2.108e-02		-48.221		4.554e-03		13.114
5		0.00		7.60		2.494e-02		-50.774		5.980e-03		13.568
5		0.00		8.00		2.809e-02		-49.504		7.199e-03		14.504
5		0.00		8.40		2.879e-02		-50.538		7.638e-03		12.696
5		0.00		8.80		3.526e-02		-50.718		9.068e-03		9.557
5		0.00		9.20		3.538e-02		-51.150		7.543e-03		8.701
5		0.00		9.60		3.594e-02		-51.423		7.471e-03		11.493
5		0.00		10.00		3.604e-02		-50.178		7.409e-03		13.914
5		0.00		9.60		3.449e-02		-51.506		7.346e-03		13.808
5		0.00		9.20		3.292e-02		-50.075		7.893e-03		14.482
5		0.00		8.80		3.118e-02		-49.528		7.795e-03		16.053
5		0.00		8.40		3.074e-02		-49.567		8.218e-03		14.686
5		0.00		8.00		3.017e-02		-48.898		7.843e-03		10.122
5		0.00		7.60		2.946e-02		-51.824		6.499e-03		10.229
5		0.00		7.20		2.961e-02		-52.568		6.202e-03		11.869
5		0.00		6.80		2.776e-02		-51.326		6.149e-03		14.433
5		0.00		6.40		2.745e-02		-50.173		6.338e-03		14.247
5		0.00		6.00		2.612e-02		-51.702		7.055e-03		18.657
5		0.00		5.60		2.572e-02		-51.695		7.052e-03		19.284
5		0.00		5.20		2.470e-02		-50.102		7.247e-03		16.583
5		0.00		4.80		2.475e-02		-52.401		6.224e-03		10.465
5		0.00		4.40		2.563e-02		-52.443		5.196e-03		10.576
5		0.00		4.00		2.532e-02		-52.380		4.731e-03		12.623
5		0.00		3.60		2.517e-02		-50.873		5.095e-03		12.664
5		0.00		3.20		2.432e-02		-49.789		4.835e-03		13.719
5		0.00		2.80		2.429e-02		-50.386		5.482e-03		15.320
5		0.00		2.40		2.407e-02		-46.258		6.135e-03		14.140
5		0.00		2.00		2.407e-02		-51.152		6.136e-03		12.161
5		0.00		1.60		2.458e-02		-51.008		5.665e-03		9.213
5		0.00		1.20		2.479e-02		-51.231		4.556e-03		10.113
5		0.00		0.80		2.510e-02		-50.353		4.187e-03		11.545
5		0.00		0.40		2.422e-02		-49.416		4.419e-03		11.424
5		0.00		0.00		2.332e-02		-50.068		4.360e-03		11.668
5		0.00		-0.40		2.191e-02		-48.858		4.941e-03		13.084
5		0.00		-0.80		2.054e-02		-48.942		5.328e-03		20.071
5		0.00		-1.20		1.991e-02		-51.623		5.366e-03		13.224
5		0.00		-1.60		1.784e-02		-48.773		4.302e-03		11.882
5		0.00		-2.00		1.646e-02		-47.631		3.391e-03		10.732
5		0.00		-2.40		1.328e-02		-52.696		2.334e-03		13.735
5		0.00		-2.80		9.709e-03		-48.806		2.103e-03		15.102
5		0.00		-3.20		8.025e-03		-52.863		2.138e-03		19.810
5		0.00		-3.60		4.710e-03		-49.147		1.987e-03		27.483
5		0.00		-4.00		3.512e-03		-26.996		1.819e-03		38.723
5		0.00		-4.40		2.881e-03		11.779		1.493e-03		65.176
5		0.00		-4.80		3.119e-03		65.556		1.098e-03		58.904
5		0.00		-5.20		4.893e-03		104.378		2.017e-03		39.101
5		0.00		-5.60		7.516e-03		113.243		2.655e-03		29.003
5		0.00		-6.00		9.413e-03		113.362		3.203e-03		30.610
5		0.00		-6.40		1.029e-02		119.243		3.221e-03		23.798
5		0.00		-6.80		1.128e-02		123.853		3.509e-03		19.780
5		0.00		-7.20		1.420e-02		121.341		3.912e-03		24.935
5		0.00		-7.60		1.579e-02		124.020		4.844e-03		22.600
5		0.00		-8.00		1.724e-02		125.060		5.164e-03		14.753
5		0.00		-8.40		1.884e-02		127.381		5.540e-03		9.402
5		0.00		-8.80		1.990e-02		125.596		5.170e-03		10.434
5		0.00		-9.20		2.023e-02		124.751		5.298e-03		11.327
5		0.00		-9.60		2.145e-02		124.486		5.312e-03		11.919
5		0.00		-10.00		2.137e-02		127.794		5.406e-03		12.547
5		0.00		-9.60		2.160e-02		124.100		6.054e-03		15.569
5		0.00		-9.20		2.171e-02		122.385		6.220e-03		21.606
5		0.00		-8.80		2.038e-02		120.973		6.252e-03		23.600
5		0.00		-8.40		2.109e-02		126.563		6.779e-03		14.704
5		0.00		-8.00		1.936e-02		127.223		5.887e-03		9.702
5		0.00		-7.60		1.976e-02		123.670		5.449e-03		11.985
5		0.00		-7.20		1.879e-02		123.504		4.779e-03		11.741
5		0.00		-6.80		1.793e-02		123.274		4.284e-03		11.172
5		0.00		-6.40		1.742e-02		125.520		4.287e-03		11.410
5		0.00		-6.00		1.665e-02		126.864		4.054e-03		13.559
5		0.00		-5.60		1.631e-02		123.688		4.057e-03		17.433
5		0.00		-5.20		1.471e-02		123.155		3.964e-03		25.190
5		0.00		-4.80		1.421e-02		122.580		3.888e-03		23.784
5		0.00		-4.40		1.355e-02		122.731		4.064e-03		14.984
5		0.00		-4.00		1.284e-02		122.670		3.325e-03		11.402
5		0.00		-3.60		1.233e-02		126.290		3.160e-03		15.129
5		0.00		-3.20		1.135e-02		124.751		3.003e-03		13.734
5		0.00		-2.80		1.067e-02		121.631		2.623e-03		12.411
5		0.00		-2.40		9.904e-03		120.997		2.773e-03		16.589
5		0.00		-2.00		8.865e-03		120.671		2.510e-03		18.131
5		0.00		-1.60		8.352e-03		117.301		2.509e-03		24.267
5		0.00		-1.20		7.625e-03		113.743		2.508e-03		32.456
5		0.00		-0.80		6.826e-03		115.308		2.374e-03		37.074
5		0.00		-0.40		6.078e-03		115.186		2.026e-03		24.599
6		0.00		0.00		5.972e-03		120.811		2.126e-03		31.375
6		0.00		0.40		5.286e-03		110.912		1.842e-03		27.454
6		0.00		0.80		4.949e-03		105.924		1.667e-03		33.296
6		0.00		1.20		4.025e-03		105.057		1.495e-03		29.399
6		0.00		1.60		3.572e-03		101.216		1.326e-03		36.390
6		0.00		2.00		2.887e-03		81.217		1.250e-03		53.231
6		0.00		2.40		2.598e-03		74.142		1.069e-03		50.518
6		0.00		2.80		2.165e-03		34.125		9.044e-04		64.909
6		0.00		3.20		2.077e-03		17.238		8.684e-04		68.100
6		0.00		3.60		2.336e-03		-11.448		9.815e-04		56.468
6		0.00		4.00		3.084e-03		-31.627		1.229e-03		39.145
6		0.00		4.40		4.129e-03		-50.166		1.229e-03		22.944
6		0.00		4.80		5.442e-03		-47.583		1.306e-03		20.159
6		0.00		5.20		6.723e-03		-43.230		1.770e-03		18.713
6		0.00		5.60		1.077e-02		-48.100		2.627e-03		15.814
6		0.00		6.00		1.207e-02		-51.642		3.261e-03		14.692
6		0.00		6.40		1.724e-02		-50.581		5.071e-03		15.866
6		0.00		6.80		2.142e-02		-50.316		6.350e-03		14.436
6		0.00		7.20		2.540e-02		-50.931		7.004e-03		10.646
6		0.00		7.60		2.808e-02		-51.828		6.838e-03		10.330
6		0.00		8.00		2.790e-02		-50.593		6.211e-03		11.757
6		0.00		8.40		2.980e-02		-53.321		6.968e-03		13.148
6		0.00		8.80		3.209e-02		-52.029		7.578e-03		13.159
6		0.00		9.20		3.395e-02		-50.728		8.446e-03		13.970
6		0.00		9.60		3.331e-02		-50.215		8.247e-03		15.805
6		0.00		10.00		3.331e-02		-48.567		8.705e-03		19.621
6		0.00		9.60		3.375e-02		-49.863		9.112e-03		13.415
6		0.00		9.20		3.295e-02		-50.695		7.786e-03		11.061
6		0.00		8.80		3.429e-02		-50.097		7.545e-03		10.908
6		0.00		8.40		3.101e-02		-50.650		6.200e-03		11.787
6		0.00		8.00		2.990e-02		-51.433		5.850e-03		13.513
6		0.00		7.60		2.889e-02		-49.030		5.797e-03		13.103
6		0.00		7.20		2.815e-02		-49.399		6.200e-03		13.598
6		0.00		6.80		2.805e-02		-50.886		6.929e-03		17.172
6		0.00		6.40		2.704e-02		-49.963		7.351e-03		15.538
6		0.00		6.00		2.612e-02		-46.176		7.570e-03		16.504
6		0.00		5.60		2.571e-02		-49.433		6.964e-03		10.607
6		0.00		5.20		2.609e-02		-50.264		6.004e-03		10.343
6		0.00		4.80		2.618e-02		-51.996		5.313e-03		10.724
6		0.00		4.40		2.685e-02		-51.376		5.103e-03		12.087
6		0.00		4.00		2.590e-02		-50.192		5.511e-03		13.370
6		0.00		3.60		2.548e-02		-49.968		5.675e-03		13.266
6		0.00		3.20		2.398e-02		-50.686		5.843e-03		15.170
6		0.00		2.80		2.403e-02		-49.973		6.366e-03		16.264
6		0.00		2.40		2.380e-02		-46.528		6.264e-03		12.221
6		0.00		2.00		2.441e-02		-47.834		6.387e-03		10.838
6		0.00		1.60		2.471e-02		-51.499		5.708e-03		9.477
6		0.00		1.20		2.450e-02		-51.244		4.754e-03		9.689
6		0.00		0.80		2.508e-02		-51.996		4.447e-03		10.837
6		0.00		0.40		2.405e-02		-51.918		4.379e-03		12.313
6		0.00		0.00		2.306e-02		-47.923		4.626e-03		13.644
6		0.00		-0.40		2.204e-02		-50.279		4.898e-03		13.440
6		0.00		-0.80		2.083e-02		-48.268		4.953e-03		17.956
6		0.00		-1.20		1.892e-02		-49.115		4.926e-03		22.063
6		0.00		-1.60		1.638e-02		-48.646		4.592e-03		13.856
6		0.00		-2.00		1.464e-02		-50.357		3.674e-03		10.947
6		0.00		-2.40		1.275e-02		-48.472		2.756e-03		13.431
6		0.00		-2.80		1.063e-02		-49.524		2.248e-03		15.991
6		0.00		-3.20		6.585e-03		-45.496		2.052e-03		19.548
6		0.00		-3.60		4.514e-03		-48.218		2.015e-03		32.986
6		0.00		-4.00		2.831e-03		-9.243		1.668e-03		57.923
6		0.00		-4.40		2.767e-03		34.362		1.300e-03		73.310
6		0.00		-4.80		4.281e-03		83.275		1.770e-03		57.204
6		0.00		-5.20		5.289e-03		99.556		2.171e-03		42.074
6		0.00		-5.60		7.194e-03		112.972		2.512e-03		39.813
6		0.00		-6.00		8.813e-03		115.006		3.129e-03		35.895
6		0.00		-6.40		1.053e-02		118.590		3.308e-03		25.765
6		0.00		-6.80		1.308e-02		124.960		4.131e-03		14.440
6		0.00		-7.20		1.584e-02		124.168		4.652e-03		15.645
6		0.00		-7.60		1.610e-02		123.594		4.664e-03		22.399
6		0.00		-8.00		1.683e-02		121.423		5.183e-03		23.425
6		0.00		-8.40		1.813e-02		124.086		5.676e-03		21.874
6		0.00		-8.80		1.909e-02		126.662		5.603e-03		13.574
6		0.00		-9.20		2.091e-02		124.621		5.361e-03		12.777
6		0.00		-9.60		2.193e-02		126.644		5.583e-03		11.667
6		0.00		-10.00		2.184e-02		126.097		5.663e-03		12.714
6		0.00		-9.60		2.164e-02		127.490		5.656e-03		10.425
6		0.00		-9.20		2.265e-02		122.920		6.266e-03		15.750
6		0.00		-8.80		2.137e-02		124.403		6.151e-03		22.164
6		0.00		-8.40		2.125e-02		122.930		6.262e-03		24.367
6		0.00		-8.00		2.122e-02		128.175		6.651e-03		9.665
6		0.00		-7.60		2.013e-02		125.609		5.687e-03		10.764
6		0.00		-7.20		1.986e-02		127.786		5.121e-03		10.243
6		0.00		-6.80		1.770e-02		125.618		4.639e-03		12.794
6		0.00		-6.40		1.686e-02		124.184		4.270e-03		12.419
6		0.00		-6.00		1.580e-02		125.617		4.039e-03		14.905
6		0.00		-5.60		1.534e-02		123.285		4.191e-03		19.241
6		0.00		-5.20		1.417e-02		123.780		3.937e-03		24.390
6		0.00		-4.80		1.347e-02		123.624		3.912e-03		22.566
6		0.00		-4.40		1.294e-02		122.742		4.003e-03		16.079
6		0.00		-4.00		1.259e-02		120.697		3.512e-03		15.870
6		0.00		-3.60		1.157e-02		125.327		2.854e-03		18.717
6		0.00		-3.20		1.056e-02		128.060		2.870e-03		13.088
6		0.00		-2.80		9.755e-03		121.265		2.762e-03		15.700
6		0.00		-2.40		8.802e-03		121.623		2.719e-03		21.689
6		0.00		-2.00		8.326e-03		116.624		2.574e-03		28.991
6		0.00		-1.60		7.581e-03		114.928		2.708e-03		30.236
6		0.00		-1.20		7.064e-03		118.523		2.529e-03		33.182
6		0.00		-0.80		6.675e-03		119.367		2.324e-03		30.991
6		0.00		-0.40		6.152e-03		116.772		2.032e-03		26.600
7		0.00		0.00		5.555e-03		115.083		1.854e-03		24.045
7		0.00		0.40		5.136e-03		113.645		1.713e-03		33.183
7		0.00		0.80		4.357e-03		112.211		1.775e-03		37.047
7		0.00		1.20		3.874e-03		101.563		1.365e-03		39.595
7		0.00		1.60		3.330e-03		90.691		1.306e-03		43.827
7		0.00		2.00		2.825e-03		87.315		1.042e-03		50.064
7		0.00		2.40		2.579e-03		76.577		1.038e-03		58.506
7		0.00		2.80		2.024e-03		28.193		7.996e-04		57.726
7		0.00		3.20		2.099e-03		-9.352		8.639e-04		62.171
7		0.00		3.60		2.353e-03		-36.585		9.135e-04		50.782
7		0.00		4.00		3.015e-03		-43.271		1.142e-03		36.965
7		0.00		4.40		3.640e-03		-28.111		1.370e-03		33.680
7		0.00		4.80		4.715e-03		-40.353		1.419e-03		26.345
7		0.00		5.20		6.217e-03		-42.962		1.920e-03		19.378
7		0.00		5.60		8.021e-03		-54.125		2.311e-03		16.011
7		0.00		6.00		1.070e-02		-50.730		2.740e-03		14.291
7		0.00		6.40		1.330e-02		-49.580		2.694e-03		13.817
7		0.00		6.80		2.050e-02		-50.280		4.478e-03		14.061
7		0.00		7.20		2.176e-02		-51.760		4.971e-03		13.380
7		0.00		7.60		2.367e-02		-50.850		5.894e-03		14.299
7		0.00		8.00		2.917e-02		-53.449		7.835e-03		19.860
7		0.00		8.40		2.925e-02		-49.927		8.688e-03		17.540
7		0.00		8.80		3.057e-02		-50.650		9.170e-03		10.566
7		0.00		9.20		3.386e-02		-50.172		9.216e-03		10.612
7		0.00		9.60		3.687e-02		-52.130		8.946e-03		10.241
7		0.00		10.00		3.647e-02		-52.784		8.718e-03		13.031
7		0.00		9.60		3.313e-02		-51.723		7.659e-03		13.915
7		0.00		9.20		3.153e-02		-49.298		7.179e-03		12.503
7		0.00		8.80		3.026e-02		-51.168		7.359e-03		14.169
7		0.00		8.40		2.881e-02		-51.388		7.533e-03		19.111
7		0.00		8.00		2.672e-02		-47.858		7.266e-03		12.330
7		0.00		7.60		2.773e-02		-50.146		7.033e-03		9.693
7		0.00		7.20		2.862e-02		-50.829		5.972e-03		8.791
7		0.00		6.80		2.833e-02		-50.927		5.184e-03		10.953
7		0.00		6.40		2.781e-02		-51.505		5.217e-03		12.321
7		0.00		6.00		2.685e-02		-49.748		5.146e-03		12.990
7		0.00		5.60		2.629e-02		-48.888		5.709e-03		11.957
7		0.00		5.20		2.573e-02		-50.804		6.780e-03		14.910
7		0.00		4.80		2.564e-02		-49.455		6.853e-03		17.713
7		0.00		4.40		2.501e-02		-46.642		7.358e-03		18.349
7		0.00		4.00		2.529e-02		-50.761		7.351e-03		11.063
7		0.00		3.60		2.502e-02		-51.326		6.484e-03		10.635
7		0.00		3.20		2.415e-02		-51.718		5.204e-03		9.479
7		0.00		2.80		2.386e-02		-52.202		4.924e-03		11.669
7		0.00		2.40		2.324e-02		-51.403		4.980e-03		13.441
7		0.00		2.00		2.231e-02		-50.323		5.436e-03		14.984
7		0.00		1.60		2.236e-02		-51.790		5.805e-03		16.891
7		0.00		1.20		2.236e-02		-51.088		6.037e-03		22.083
7		0.00		0.80		2.275e-02		-48.054		5.994e-03		22.834
7		0.00		0.40		2.291e-02		-49.318		5.842e-03		11.491
7		0.00		0.00		2.319e-02		-52.572		5.129e-03		10.876
7		0.00		-0.40		2.203e-02		-50.719		4.080e-03		11.212
7		0.00		-0.80		2.140e-02		-50.176		3.712e-03		12.624
7		0.00		-1.20		1.945e-02		-50.976		3.706e-03		14.751
7		0.00		-1.60		1.722e-02		-50.196		3.237e-03		13.505
7		0.00		-2.00		1.556e-02		-48.760		3.311e-03		15.188
7		0.00		-2.40		1.353e-02		-49.925		3.475e-03		15.051
7		0.00		-2.80		1.139e-02		-46.035		3.122e-03		12.423
7		0.00		-3.20		8.152e-03		-49.989		2.771e-03		20.554
7		0.00		-3.60		6.569e-03		-50.863		2.332e-03		18.111
7		0.00		-4.00		3.671e-03		-31.140		1.879e-03		34.817
7		0.00		-4.40		2.719e-03		35.217		1.301e-03		66.947
7		0.00		-4.80		3.395e-03		73.567		1.598e-03		54.758
7		0.00		-5.20		4.924e-03		102.139		1.998e-03		40.883
7		0.00		-5.60		7.531e-03		114.050		2.718e-03		29.946
7		0.00		-6.00		8.996e-03		113.157		3.058e-03		31.344
7		0.00		-6.40		1.133e-02		117.247		3.625e-03		30.209
7		0.00		-6.80		1.330e-02		123.481		4.320e-03		18.449
7		0.00		-7.20		1.546e-02		122.942		4.430e-03		12.748
7		0.00		-7.60		1.691e-02		124.446		4.264e-03		9.899
7		0.00		-8.00		1.902e-02		124.040		4.640e-03		10.814
7		0.00		-8.40		2.016e-02		125.596		4.835e-03		11.189
7		0.00		-8.80		2.210e-02		127.595		5.455e-03		11.039
7		0.00		-9.20		2.124e-02		124.505		5.536e-03		15.847
7		0.00		-9.60		2.164e-02		124.794		5.803e-03		24.504
7		0.00		-10.00		2.280e-02		123.643		6.479e-03		21.790
7		0.00		-9.60		2.280e-02		126.534		6.203e-03		12.464
7		0.00		-9.20		2.288e-02		125.181		5.667e-03		9.862
7		0.00		-8.80		2.288e-02		126.796		5.251e-03		8.562
7		0.00		-8.40		2.168e-02		125.540		4.952e-03		9.724
7		0.00		-8.00		2.168e-02		127.106		5.219e-03		11.144
7		0.00		-7.60		2.103e-02		125.207		5.081e-03		11.809
7		0.00		-7.20		1.980e-02		125.527		5.630e-03		15.564
7		0.00		-6.80		1.899e-02		123.353		5.748e-03		21.755
7		0.00		-6.40		1.710e-02		120.459		5.126e-03		27.262
7		0.00		-6.00		1.691e-02		123.487		5.554e-03		19.959
7		0.00		-5.60		1.549e-02		126.647		4.835e-03		12.946
7		0.00		-5.20		1.479e-02		126.286		4.247e-03		12.362
7		0.00		-4.80		1.376e-02		123.082		3.746e-03		13.083
7		0.00		-4.40		1.269e-02		124.273		3.196e-03		11.824
7		0.00		-4.00		1.193e-02		125.425		2.895e-03		13.952
7		0.00		-3.60		1.136e-02		123.581		3.154e-03		18.062
7		0.00		-3.20		1.076e-02		119.386		3.064e-03		23.527
7		0.00		-2.80		9.829e-03		117.371		2.849e-03		26.348
7		0.00		-2.40		9.422e-03		118.716		2.877e-03		19.533
7		0.00		-2.00		8.637e-03		120.551		2.724e-03		15.894
7		0.00		-1.60		7.655e-03		119.071		2.199e-03		23.901
7		0.00		-1.20		6.950e-03		117.834		2.087e-03		20.176
7		0.00		-0.80		6.171e-03		118.279		2.029e-03		22.894
7		0.00		-0.40		5.869e-03		117.422		1.745e-03		19.187
8		0.00		0.00		5.046e-03		118.334		1.766e-03		26.481
8		0.00		0.40		4.532e-03		114.423		1.585e-03		28.583
8		0.00		0.80		4.016e-03		97.134		1.442e-03		44.470
8		0.00		1.20		3.410e-03		95.489		1.204e-03		50.810
8		0.00		1.60		2.808e-03		74.110		1.054e-03		59.005
8		0.00		2.00		2.549e-03		73.231		9.980e-04		53.655
8		0.00		2.40		2.326e-03		53.472		9.423e-04		62.420
8		0.00		2.80		2.042e-03		9.977		8.705e-04		68.114
8		0.00		3.20		1.965e-03		-16.090		8.256e-04		66.674
8		0.00		3.60		2.407e-03		-36.430		9.426e-04		62.118
8		0.00		4.00		2.811e-03		-41.448		1.211e-03		39.615
8		0.00		4.40		3.706e-03		-46.247		1.432e-03		26.780
8		0.00		4.80		4.890e-03		-41.411		1.698e-03		27.801
8		0.00		5.20		7.080e-03		-45.607		1.992e-03		16.600
8		0.00		5.60		9.164e-03		-54.693		2.234e-03		13.594
8		0.00		6.00		1.367e-02		-51.091		2.782e-03		11.837
8		0.00		6.40		1.704e-02		-51.371		3.298e-03		12.631
8		0.00		6.80		2.278e-02		-51.203		4.448e-03		12.563
8		0.00		7.20		2.582e-02		-49.708		5.923e-03		13.112
8		0.00		7.60		2.792e-02		-52.427		7.451e-03		15.629
8		0.00		8.00		2.954e-02		-51.367		8.626e-03		18.593
8		0.00		8.40		3.332e-02		-48.667		1.034e-02		20.455
8		0.00		8.80		3.345e-02		-50.070		1.022e-02		9.818
8		0.00		9.20		3.622e-02		-52.391		9.726e-03		10.012
8		0.00		9.60		3.664e-02		-52.334		8.401e-03		10.693
8		0.00		10.00		3.676e-02		-52.788		8.340e-03		12.493
8		0.00		9.60		3.415e-02		-52.118		8.235e-03		13.593
8		0.00		9.20		3.142e-02		-50.931		8.296e-03		13.710
8		0.00		8.80		3.190e-02		-52.466		9.162e-03		17.526
8		0.00		8.40		3.213e-02		-48.207		9.304e-03		16.219
8		0.00		8.00		3.113e-02		-50.530		8.535e-03		12.290
8		0.00		7.60		3.011e-02		-51.159		7.210e-03		8.857
8		0.00		7.20		3.010e-02		-51.478		6.071e-03		9.325
8		0.00		6.80		2.960e-02		-50.863		5.729e-03		11.285
8		0.00		6.40		2.788e-02		-49.723		5.587e-03		13.151
8		0.00		6.00		2.725e-02		-48.654		5.840e-03		12.490
8		0.00		5.60		2.684e-02		-51.338		6.053e-03		14.498
8		0.00		5.20		2.699e-02		-49.732		6.577e-03		17.949
8		0.00		4.80		2.710e-02		-50.240		6.830e-03		12.075
8		0.00		4.40		2.683e-02		-49.360		6.343e-03		10.763
8		0.00		4.00		2.691e-02		-49.144		5.511e-03		9.870
8		0.00		3.60		2.637e-02		-52.128		5.044e-03		10.687
8		0.00		3.20		2.528e-02		-51.134		4.949e-03		12.805
8		0.00		2.80		2.563e-02		-48.861		5.380e-03		12.338
8		0.00		2.40		2.499e-02		-50.223		6.039e-03		14.302
8		0.00		2.00		2.489e-02		-52.867		6.677e-03		16.676
8		0.00		1.60		2.522e-02		-49.467		7.015e-03		16.892
8		0.00		1.20		2.554e-02		-51.353		6.624e-03		9.773
8		0.00		0.80		2.589e-02		-51.449		5.406e-03		9.952
8		0.00		0.40		2.601e-02		-51.821		4.818e-03		10.567
8		0.00		0.00		2.514e-02		-51.130		4.887e-03		11.779
8		0.00		-0.40		2.413e-02		-49.133		4.984e-03		11.458
8		0.00		-0.80		2.275e-02		-48.989		4.980e-03		13.075
8		0.00		-1.20		2.191e-02		-50.437		5.293e-03		13.620
8		0.00		-1.60		2.050e-02		-49.073		5.285e-03		13.457
8		0.00		-2.00		1.851e-02		-51.783		4.380e-03		9.482
8		0.00		-2.40		1.526e-02		-50.477		3.109e-03		10.325
8		0.00		-2.80		1.303e-02		-49.876		2.229e-03		12.786
8		0.00		-3.20		1.034e-02		-49.534		2.179e-03		15.394
8		0.00		-3.60		6.983e-03		-48.720		1.861e-03		20.686
8		0.00		-4.00		4.613e-03		-52.152		2.114e-03		29.730
8		0.00		-4.40		2.764e-03		-4.364		1.592e-03		58.484
8		0.00		-4.80		2.941e-03		46.245		1.187e-03		59.656
8		0.00		-5.20		4.336e-03		83.438		1.802e-03		51.130
8		0.00		-5.60		6.422e-03		114.517		2.272e-03		35.102
8		0.00		-6.00		8.615e-03		118.166		2.930e-03		32.691
8		0.00		-6.40		1.113e-02		119.106		3.844e-03		24.143
8		0.00		-6.80		1.267e-02		118.847		4.036e-03		20.553
8		0.00		-7.20		1.343e-02		123.561		4.303e-03		17.255
8		0.00		-7.60		1.493e-02		120.686		4.937e-03		23.641
8		0.00		-8.00		1.632e-02		119.295		5.187e-03		30.989
8		0.00		-8.40		1.873e-02		123.486		6.174e-03		22.867
8		0.00		-8.80		1.940e-02		125.253		5.807e-03		18.268
8		0.00		-9.20		2.152e-02		126.475		5.268e-03		9.084
8		0.00		-9.60		2.304e-02		126.261		5.520e-03		11.003
8		0.00		-10.00		2.426e-02		125.913		5.554e-03		11.463
8		0.00		-9.60		2.348e-02		126.661		5.712e-03		11.866
8		0.00		-9.20		2.231e-02		126.544		5.826e-03		14.156
8		0.00		-8.80		2.271e-02		125.434		5.734e-03		18.490
8		0.00		-8.40		2.148e-02		124.701		5.990e-03		22.204
8		0.00		-8.00		2.197e-02		125.263		6.329e-03		16.745
8		0.00		-7.60		2.134e-02		127.191		6.013e-03		11.770
8		0.00		-7.20		2.026e-02		127.937		4.716e-03		10.198
8		0.00		-6.80		1.944e-02		126.154		4.571e-03		10.445
8		0.00		-6.40		1.846e-02		126.232		4.284e-03		11.893
8		0.00		-6.00		1.662e-02		127.649		3.941e-03		10.359
8		0.00		-5.60		1.603e-02		126.489		3.984e-03		11.365
8		0.00		-5.20		1.503e-02		123.535		4.040e-03		20.441
8		0.00		-4.80		1.435e-02		122.187		4.099e-03		23.389
8		0.00		-4.40		1.329e-02		123.549		4.384e-03		21.304
8		0.00		-4.00		1.235e-02		124.104		3.762e-03		20.935
8		0.00		-3.60		1.222e-02		123.349		3.273e-03		15.231
8		0.00		-3.20		1.143e-02		125.203		3.108e-03		17.062
8		0.00		-2.80		1.060e-02		124.290		2.803e-03		11.619
8		0.00		-2.40		1.049e-02		127.207		2.395e-03		12.215
8		0.00		-2.00		9.027e-03		124.951		2.651e-03		16.954
8		0.00		-1.60		8.859e-03		122.773		2.523e-03		21.912
8		0.00		-1.20		8.107e-03		116.639		2.482e-03		29.812
8		0.00		-0.80		7.276e-03		118.827		2.175e-03		26.920
8		0.00		-0.40		6.697e-03		120.820		2.078e-03		21.038
