# Date of analysis: 2024-03-08 10;58
# Segment other properties: height: -32.75020192938417, diff height: 232.146283678011, deflection: 35.959757298918845, deflection error: 3.5588620805472755, adhesion: 36.77198885238446, phase offset: 0
# 
# Loop index	Read Volt (V)	Write Volt (V)	Amplitude (a.u)	Phase (deg)	Sigma Amp (a.u)	Sigma Pha (deg)	
1		0.00		0.00		2.854e-02		-52.422		5.808e-03		14.215
1		0.00		0.40		2.599e-02		-53.656		6.102e-03		15.585
1		0.00		0.80		2.477e-02		-50.072		6.331e-03		18.602
1		0.00		1.20		2.397e-02		-50.845		6.844e-03		14.411
1		0.00		1.60		2.399e-02		-51.731		6.454e-03		12.989
1		0.00		2.00		2.436e-02		-52.169		5.708e-03		13.003
1		0.00		2.40		2.474e-02		-52.556		4.852e-03		12.836
1		0.00		2.80		2.482e-02		-54.043		4.966e-03		13.281
1		0.00		3.20		2.331e-02		-53.288		5.372e-03		15.412
1		0.00		3.60		2.365e-02		-48.646		5.461e-03		16.008
1		0.00		4.00		2.390e-02		-49.294		6.361e-03		17.490
1		0.00		4.40		2.424e-02		-49.105		6.622e-03		13.402
1		0.00		4.80		2.545e-02		-49.007		6.473e-03		11.898
1		0.00		5.20		2.673e-02		-53.564		6.241e-03		11.788
1		0.00		5.60		2.826e-02		-54.352		5.772e-03		13.341
1		0.00		6.00		2.929e-02		-54.690		6.552e-03		14.652
1		0.00		6.40		3.038e-02		-51.019		7.257e-03		14.115
1		0.00		6.80		3.183e-02		-51.319		8.098e-03		16.256
1		0.00		7.20		3.289e-02		-46.701		9.263e-03		15.048
1		0.00		7.60		3.546e-02		-49.933		1.061e-02		10.510
1		0.00		8.00		3.580e-02		-51.846		9.810e-03		10.617
1		0.00		8.40		3.720e-02		-52.630		9.293e-03		11.932
1		0.00		8.80		3.826e-02		-51.518		9.127e-03		12.724
1		0.00		9.20		3.749e-02		-51.763		1.017e-02		16.254
1		0.00		9.60		3.716e-02		-51.742		1.097e-02		17.811
1		0.00		10.00		3.877e-02		-48.691		1.202e-02		18.650
1		0.00		9.60		3.690e-02		-49.259		1.186e-02		14.450
1		0.00		9.20		3.672e-02		-49.790		1.080e-02		13.134
1		0.00		8.80		3.579e-02		-51.576		8.202e-03		12.277
1		0.00		8.40		3.557e-02		-52.972		7.588e-03		12.408
1		0.00		8.00		3.420e-02		-53.129		6.628e-03		14.104
1		0.00		7.60		3.297e-02		-50.492		7.176e-03		14.709
1		0.00		7.20		3.120e-02		-49.253		7.340e-03		17.020
1		0.00		6.80		3.002e-02		-47.055		8.203e-03		15.862
1		0.00		6.40		2.928e-02		-47.900		8.063e-03		13.305
1		0.00		6.00		2.854e-02		-50.503		7.108e-03		12.674
1		0.00		5.60		2.972e-02		-50.921		6.353e-03		12.369
1		0.00		5.20		2.896e-02		-51.484		5.185e-03		12.508
1		0.00		4.80		2.761e-02		-50.592		4.998e-03		14.763
1		0.00		4.40		2.707e-02		-50.084		5.316e-03		13.662
1		0.00		4.00		2.679e-02		-49.170		5.441e-03		12.431
1		0.00		3.60		2.534e-02		-49.654		6.252e-03		14.105
1		0.00		3.20		2.436e-02		-49.371		6.807e-03		17.151
1		0.00		2.80		2.462e-02		-51.286		7.238e-03		15.500
1		0.00		2.40		2.455e-02		-50.893		6.657e-03		10.744
1		0.00		2.00		2.427e-02		-50.671		6.028e-03		10.611
1		0.00		1.60		2.436e-02		-50.281		4.719e-03		11.087
1		0.00		1.20		2.344e-02		-52.894		4.241e-03		13.097
1		0.00		0.80		2.319e-02		-49.467		4.345e-03		13.183
1		0.00		0.40		2.249e-02		-49.503		4.576e-03		13.181
1		0.00		0.00		2.175e-02		-48.083		4.842e-03		12.898
1		0.00		-0.40		2.060e-02		-49.232		4.906e-03		17.902
1		0.00		-0.80		1.850e-02		-46.889		4.833e-03		18.418
1		0.00		-1.20		1.670e-02		-48.772		4.211e-03		13.647
1		0.00		-1.60		1.452e-02		-47.908		3.721e-03		12.349
1		0.00		-2.00		1.102e-02		-49.171		2.646e-03		12.345
1		0.00		-2.40		8.382e-03		-49.506		2.371e-03		16.562
1		0.00		-2.80		5.932e-03		-52.423		2.243e-03		22.150
1		0.00		-3.20		4.057e-03		-41.108		2.171e-03		36.262
1		0.00		-3.60		2.769e-03		21.717		1.431e-03		60.561
1		0.00		-4.00		3.852e-03		85.288		1.820e-03		56.038
1		0.00		-4.40		5.096e-03		104.415		2.189e-03		44.651
1		0.00		-4.80		7.557e-03		116.523		2.762e-03		33.163
1		0.00		-5.20		9.725e-03		115.806		3.577e-03		32.673
1		0.00		-5.60		1.172e-02		123.136		4.129e-03		23.029
1		0.00		-6.00		1.408e-02		125.867		4.345e-03		15.222
1		0.00		-6.40		1.664e-02		125.752		4.965e-03		11.707
1		0.00		-6.80		1.819e-02		125.840		4.707e-03		11.372
1		0.00		-7.20		1.984e-02		123.841		5.022e-03		12.450
1		0.00		-7.60		2.146e-02		124.857		5.072e-03		11.593
1		0.00		-8.00		2.046e-02		126.006		4.798e-03		12.717
1		0.00		-8.40		2.360e-02		127.331		5.922e-03		12.157
1		0.00		-8.80		2.154e-02		126.544		5.394e-03		16.633
1		0.00		-9.20		2.417e-02		126.702		6.102e-03		18.796
1		0.00		-9.60		2.421e-02		126.686		6.175e-03		18.849
1		0.00		-10.00		2.345e-02		126.533		6.096e-03		20.849
1		0.00		-9.60		2.525e-02		128.256		6.417e-03		11.370
1		0.00		-9.20		2.412e-02		124.039		5.619e-03		10.188
1		0.00		-8.80		2.473e-02		127.405		5.394e-03		10.447
1		0.00		-8.40		2.400e-02		126.677		4.893e-03		11.312
1		0.00		-8.00		2.570e-02		127.226		5.217e-03		10.728
1		0.00		-7.60		2.501e-02		127.592		4.887e-03		9.415
1		0.00		-7.20		2.361e-02		128.089		4.598e-03		10.571
1		0.00		-6.80		2.303e-02		127.902		5.074e-03		11.323
1		0.00		-6.40		2.114e-02		128.846		4.463e-03		10.696
1		0.00		-6.00		2.046e-02		128.744		4.641e-03		10.395
1		0.00		-5.60		2.026e-02		127.786		4.778e-03		15.879
1		0.00		-5.20		1.823e-02		125.963		4.705e-03		18.284
1		0.00		-4.80		1.708e-02		122.632		4.595e-03		20.466
1		0.00		-4.40		1.678e-02		128.379		4.395e-03		19.493
1		0.00		-4.00		1.491e-02		126.124		4.455e-03		22.569
1		0.00		-3.60		1.516e-02		127.234		4.089e-03		11.302
1		0.00		-3.20		1.427e-02		127.986		3.588e-03		10.556
1		0.00		-2.80		1.368e-02		128.497		3.267e-03		10.498
1		0.00		-2.40		1.251e-02		127.875		2.953e-03		10.311
1		0.00		-2.00		1.156e-02		124.327		2.449e-03		11.738
1		0.00		-1.60		1.186e-02		128.016		2.649e-03		10.658
1		0.00		-1.20		1.063e-02		125.025		2.359e-03		10.065
1		0.00		-0.80		1.006e-02		127.728		2.032e-03		11.300
1		0.00		-0.40		8.781e-03		125.430		2.267e-03		13.877
2		0.00		0.00		7.849e-03		124.658		1.959e-03		13.551
2		0.00		0.40		6.744e-03		125.698		1.822e-03		16.250
2		0.00		0.80		6.384e-03		129.403		1.584e-03		16.115
2		0.00		1.20		5.803e-03		126.976		1.568e-03		17.567
2		0.00		1.60		4.599e-03		117.979		1.572e-03		31.262
2		0.00		2.00		3.842e-03		111.473		1.221e-03		34.670
2		0.00		2.40		2.998e-03		83.937		1.167e-03		62.655
2		0.00		2.80		2.292e-03		56.572		9.036e-04		75.275
2		0.00		3.20		2.092e-03		-21.685		8.598e-04		60.460
2		0.00		3.60		2.738e-03		-61.418		1.048e-03		45.217
2		0.00		4.00		4.223e-03		-44.476		1.477e-03		31.947
2		0.00		4.40		6.524e-03		-50.371		2.103e-03		20.479
2		0.00		4.80		8.955e-03		-45.810		2.736e-03		20.027
2		0.00		5.20		1.176e-02		-48.274		3.349e-03		17.466
2		0.00		5.60		1.484e-02		-49.961		4.024e-03		15.158
2		0.00		6.00		1.725e-02		-50.745		4.744e-03		12.581
2		0.00		6.40		1.994e-02		-48.510		5.389e-03		13.317
2		0.00		6.80		2.200e-02		-49.137		6.042e-03		12.412
2		0.00		7.20		2.530e-02		-49.090		6.219e-03		11.694
2		0.00		7.60		2.750e-02		-51.785		6.845e-03		11.309
2		0.00		8.00		3.061e-02		-49.451		7.364e-03		11.266
2		0.00		8.40		3.369e-02		-50.189		8.501e-03		11.157
2		0.00		8.80		3.619e-02		-49.556		8.935e-03		10.914
2		0.00		9.20		3.830e-02		-51.594		9.303e-03		11.081
2		0.00		9.60		3.956e-02		-50.253		9.832e-03		11.538
2		0.00		10.00		3.961e-02		-50.534		9.233e-03		11.392
2		0.00		9.60		3.840e-02		-50.963		8.807e-03		11.977
2		0.00		9.20		3.801e-02		-50.823		8.731e-03		12.011
2		0.00		8.80		3.532e-02		-51.162		8.310e-03		13.243
2		0.00		8.40		3.263e-02		-49.350		7.750e-03		13.117
2		0.00		8.00		3.301e-02		-48.738		7.813e-03		12.040
2		0.00		7.60		3.163e-02		-48.322		7.613e-03		13.429
2		0.00		7.20		3.079e-02		-49.088		7.379e-03		13.533
2		0.00		6.80		2.907e-02		-48.453		7.107e-03		14.678
2		0.00		6.40		2.853e-02		-48.046		6.802e-03		14.640
2		0.00		6.00		2.836e-02		-48.974		6.965e-03		16.136
2		0.00		5.60		2.768e-02		-47.618		7.116e-03		16.440
2		0.00		5.20		2.726e-02		-48.154		7.159e-03		11.486
2		0.00		4.80		2.686e-02		-48.784		7.215e-03		12.274
2		0.00		4.40		2.637e-02		-49.196		6.490e-03		10.974
2		0.00		4.00		2.614e-02		-50.172		6.526e-03		10.063
2		0.00		3.60		2.565e-02		-50.252		6.369e-03		10.561
2		0.00		3.20		2.477e-02		-50.199		5.855e-03		9.514
2		0.00		2.80		2.475e-02		-49.781		5.518e-03		10.716
2		0.00		2.40		2.457e-02		-50.788		5.052e-03		10.591
2		0.00		2.00		2.432e-02		-51.234		5.166e-03		11.111
2		0.00		1.60		2.418e-02		-50.442		4.412e-03		11.353
2		0.00		1.20		2.381e-02		-51.497		4.356e-03		12.060
2		0.00		0.80		2.356e-02		-51.173		4.211e-03		12.029
2		0.00		0.40		2.333e-02		-50.908		4.305e-03		12.956
2		0.00		0.00		2.265e-02		-49.164		4.299e-03		12.649
2		0.00		-0.40		2.174e-02		-48.423		3.873e-03		12.414
2		0.00		-0.80		1.926e-02		-46.935		3.625e-03		13.927
2		0.00		-1.20		1.673e-02		-45.587		3.519e-03		14.168
2		0.00		-1.60		1.395e-02		-47.823		3.211e-03		15.830
2		0.00		-2.00		1.138e-02		-47.597		3.133e-03		13.448
2		0.00		-2.40		8.315e-03		-49.256		2.492e-03		18.280
2		0.00		-2.80		5.746e-03		-51.514		2.588e-03		21.879
2		0.00		-3.20		3.740e-03		-22.517		2.170e-03		41.705
2		0.00		-3.60		3.334e-03		23.996		1.675e-03		66.203
2		0.00		-4.00		4.339e-03		92.233		1.959e-03		49.251
2		0.00		-4.40		5.258e-03		100.847		2.320e-03		36.685
2		0.00		-4.80		8.228e-03		120.013		3.151e-03		27.499
2		0.00		-5.20		1.040e-02		124.254		3.575e-03		19.151
2		0.00		-5.60		1.346e-02		124.227		4.023e-03		15.170
2		0.00		-6.00		1.583e-02		127.757		4.300e-03		9.198
2		0.00		-6.40		1.764e-02		126.197		4.489e-03		10.001
2		0.00		-6.80		1.946e-02		128.184		4.862e-03		8.791
2		0.00		-7.20		2.211e-02		127.057		5.263e-03		9.757
2		0.00		-7.60		2.245e-02		124.908		5.363e-03		10.868
2		0.00		-8.00		2.510e-02		126.462		5.689e-03		10.003
2		0.00		-8.40		2.323e-02		126.176		5.416e-03		10.898
2		0.00		-8.80		2.679e-02		125.899		5.929e-03		10.403
2		0.00		-9.20		2.558e-02		126.249		5.560e-03		11.217
2		0.00		-9.60		2.538e-02		126.212		5.624e-03		10.829
2		0.00		-10.00		2.783e-02		126.482		5.741e-03		11.152
2		0.00		-9.60		2.531e-02		126.229		5.323e-03		11.734
2		0.00		-9.20		2.567e-02		127.206		5.763e-03		12.093
2		0.00		-8.80		2.542e-02		127.619		5.684e-03		11.652
2		0.00		-8.40		2.654e-02		126.917		6.589e-03		14.240
2		0.00		-8.00		2.421e-02		127.166		6.263e-03		15.634
2		0.00		-7.60		2.356e-02		122.992		6.510e-03		22.567
2		0.00		-7.20		2.232e-02		122.260		6.408e-03		23.713
2		0.00		-6.80		2.063e-02		123.446		6.093e-03		23.980
2		0.00		-6.40		2.033e-02		122.082		6.280e-03		24.156
2		0.00		-6.00		1.915e-02		121.665		5.832e-03		24.124
2		0.00		-5.60		1.774e-02		123.133		5.413e-03		23.918
2		0.00		-5.20		1.702e-02		123.085		5.219e-03		23.524
2		0.00		-4.80		1.577e-02		123.422		4.962e-03		26.057
2		0.00		-4.40		1.544e-02		126.013		4.820e-03		12.657
2		0.00		-4.00		1.487e-02		124.861		4.390e-03		12.789
2		0.00		-3.60		1.416e-02		127.661		3.968e-03		10.598
2		0.00		-3.20		1.401e-02		126.669		3.669e-03		9.875
2		0.00		-2.80		1.276e-02		125.074		3.237e-03		12.295
2		0.00		-2.40		1.197e-02		126.469		3.006e-03		10.813
2		0.00		-2.00		1.109e-02		122.652		2.779e-03		11.337
2		0.00		-1.60		1.057e-02		127.803		2.593e-03		10.511
2		0.00		-1.20		9.624e-03		128.373		2.316e-03		13.783
2		0.00		-0.80		9.131e-03		129.477		2.259e-03		10.834
2		0.00		-0.40		8.207e-03		127.809		2.168e-03		14.130
3		0.00		0.00		7.505e-03		127.140		2.018e-03		12.952
3		0.00		0.40		6.684e-03		127.139		1.957e-03		14.401
3		0.00		0.80		6.043e-03		125.243		1.952e-03		16.800
3		0.00		1.20		5.532e-03		119.958		1.594e-03		28.048
3		0.00		1.60		5.046e-03		116.929		1.603e-03		25.802
3		0.00		2.00		4.189e-03		109.743		1.584e-03		36.301
3		0.00		2.40		3.361e-03		101.605		1.272e-03		50.211
3		0.00		2.80		2.604e-03		65.900		9.495e-04		67.408
3		0.00		3.20		2.144e-03		16.954		9.128e-04		75.377
3		0.00		3.60		2.189e-03		-36.684		8.287e-04		52.822
3		0.00		4.00		3.676e-03		-53.428		1.559e-03		34.588
3		0.00		4.40		6.484e-03		-55.045		2.075e-03		16.896
3		0.00		4.80		8.795e-03		-45.887		2.110e-03		13.786
3		0.00		5.20		1.063e-02		-56.325		2.548e-03		15.049
3		0.00		5.60		1.279e-02		-51.485		3.017e-03		13.918
3		0.00		6.00		1.492e-02		-46.744		3.563e-03		14.457
3		0.00		6.40		1.765e-02		-47.071		4.025e-03		15.725
3		0.00		6.80		1.994e-02		-48.330		4.883e-03		14.417
3		0.00		7.20		2.274e-02		-46.150		5.638e-03		14.810
3		0.00		7.60		2.548e-02		-49.177		6.925e-03		15.757
3		0.00		8.00		2.780e-02		-46.578		8.328e-03		16.090
3		0.00		8.40		3.039e-02		-46.251		9.665e-03		12.463
3		0.00		8.80		3.205e-02		-46.289		1.023e-02		10.005
3		0.00		9.20		3.332e-02		-49.251		1.017e-02		10.532
3		0.00		9.60		3.516e-02		-49.450		9.749e-03		10.070
3		0.00		10.00		3.677e-02		-49.096		9.131e-03		10.073
3		0.00		9.60		3.579e-02		-51.512		8.655e-03		11.041
3		0.00		9.20		3.330e-02		-50.935		7.917e-03		13.238
3		0.00		8.80		3.204e-02		-50.116		7.318e-03		12.779
3		0.00		8.40		3.208e-02		-48.467		7.479e-03		12.847
3		0.00		8.00		3.074e-02		-47.654		7.448e-03		13.493
3		0.00		7.60		2.991e-02		-49.625		7.665e-03		17.468
3		0.00		7.20		2.848e-02		-48.656		7.155e-03		17.116
3		0.00		6.80		2.826e-02		-45.921		7.416e-03		15.532
3		0.00		6.40		2.780e-02		-49.563		7.393e-03		12.275
3		0.00		6.00		2.735e-02		-49.658		6.814e-03		10.904
3		0.00		5.60		2.742e-02		-48.217		5.896e-03		10.500
3		0.00		5.20		2.691e-02		-49.112		4.911e-03		10.377
3		0.00		4.80		2.550e-02		-50.700		4.333e-03		11.304
3		0.00		4.40		2.504e-02		-48.634		4.377e-03		12.909
3		0.00		4.00		2.395e-02		-47.709		4.884e-03		12.346
3		0.00		3.60		2.308e-02		-47.875		5.189e-03		13.734
3		0.00		3.20		2.243e-02		-49.006		5.358e-03		14.065
3		0.00		2.80		2.239e-02		-49.931		5.711e-03		17.070
3		0.00		2.40		2.201e-02		-46.408		5.690e-03		12.230
3		0.00		2.00		2.132e-02		-49.189		5.761e-03		14.663
3		0.00		1.60		2.075e-02		-48.474		5.407e-03		10.790
3		0.00		1.20		2.146e-02		-50.542		4.390e-03		10.005
3		0.00		0.80		2.106e-02		-47.413		3.700e-03		10.047
3		0.00		0.40		2.149e-02		-50.016		3.441e-03		9.160
3		0.00		0.00		2.110e-02		-50.793		3.270e-03		8.959
3		0.00		-0.40		1.956e-02		-49.690		3.038e-03		11.813
3		0.00		-0.80		1.770e-02		-47.818		3.414e-03		13.375
3		0.00		-1.20		1.589e-02		-46.834		3.524e-03		13.349
3		0.00		-1.60		1.392e-02		-44.894		3.257e-03		15.528
3		0.00		-2.00		1.163e-02		-51.086		3.103e-03		17.870
3		0.00		-2.40		8.196e-03		-48.379		2.798e-03		22.817
3		0.00		-2.80		5.673e-03		-49.495		2.482e-03		26.311
3		0.00		-3.20		3.235e-03		-11.577		1.776e-03		55.471
3		0.00		-3.60		2.967e-03		30.388		1.156e-03		69.862
3		0.00		-4.00		3.883e-03		79.644		1.597e-03		58.188
3		0.00		-4.40		5.706e-03		108.120		2.317e-03		35.074
3		0.00		-4.80		8.491e-03		114.879		3.052e-03		29.627
3		0.00		-5.20		1.093e-02		127.597		3.473e-03		16.620
3		0.00		-5.60		1.337e-02		126.711		4.199e-03		16.612
3		0.00		-6.00		1.569e-02		126.693		4.928e-03		20.105
3		0.00		-6.40		1.697e-02		121.392		5.454e-03		25.135
3		0.00		-6.80		1.912e-02		122.759		6.172e-03		23.804
3		0.00		-7.20		2.215e-02		125.443		7.044e-03		20.849
3		0.00		-7.60		2.300e-02		130.137		7.159e-03		9.070
3		0.00		-8.00		2.492e-02		127.067		6.408e-03		8.521
3		0.00		-8.40		2.437e-02		127.211		5.520e-03		10.500
3		0.00		-8.80		2.664e-02		126.157		5.602e-03		8.933
3		0.00		-9.20		2.678e-02		127.720		5.938e-03		10.971
3		0.00		-9.60		2.586e-02		127.870		5.710e-03		10.710
3		0.00		-10.00		2.777e-02		129.863		6.243e-03		10.544
3		0.00		-9.60		2.669e-02		126.035		6.656e-03		14.461
3		0.00		-9.20		2.608e-02		126.097		6.544e-03		18.494
3		0.00		-8.80		2.693e-02		126.750		7.294e-03		20.114
3		0.00		-8.40		2.724e-02		128.076		7.734e-03		9.789
3		0.00		-8.00		2.797e-02		128.160		7.152e-03		8.895
3		0.00		-7.60		2.622e-02		127.348		6.547e-03		9.496
3		0.00		-7.20		2.534e-02		128.009		5.754e-03		9.219
3		0.00		-6.80		2.402e-02		127.482		4.884e-03		10.208
3		0.00		-6.40		2.219e-02		126.152		4.844e-03		10.581
3		0.00		-6.00		2.225e-02		127.950		5.090e-03		10.210
3		0.00		-5.60		2.013e-02		128.161		4.904e-03		11.462
3		0.00		-5.20		1.889e-02		126.787		4.820e-03		16.565
3		0.00		-4.80		1.880e-02		126.338		5.311e-03		15.710
3		0.00		-4.40		1.707e-02		124.943		4.979e-03		18.792
3		0.00		-4.00		1.657e-02		127.232		4.738e-03		10.545
3		0.00		-3.60		1.588e-02		127.073		4.126e-03		9.996
3		0.00		-3.20		1.468e-02		128.020		3.595e-03		9.863
3		0.00		-2.80		1.373e-02		126.381		3.143e-03		10.600
3		0.00		-2.40		1.274e-02		125.997		3.059e-03		11.257
3		0.00		-2.00		1.163e-02		128.820		2.715e-03		13.155
3		0.00		-1.60		1.077e-02		126.244		2.928e-03		13.122
3		0.00		-1.20		1.030e-02		124.679		2.644e-03		14.625
3		0.00		-0.80		9.737e-03		124.454		2.685e-03		26.077
3		0.00		-0.40		8.606e-03		124.188		2.584e-03		26.018
4		0.00		0.00		7.792e-03		120.397		2.506e-03		30.715
4		0.00		0.40		7.918e-03		129.897		2.437e-03		17.447
4		0.00		0.80		6.721e-03		124.349		2.248e-03		23.203
4		0.00		1.20		5.843e-03		124.578		2.063e-03		30.348
4		0.00		1.60		4.992e-03		122.456		1.556e-03		24.708
4		0.00		2.00		4.572e-03		119.179		1.611e-03		34.419
4		0.00		2.40		3.573e-03		103.613		1.232e-03		41.838
4		0.00		2.80		2.772e-03		88.226		1.067e-03		54.513
4		0.00		3.20		2.155e-03		61.006		7.923e-04		67.818
4		0.00		3.60		1.915e-03		-2.835		8.866e-04		71.880
4		0.00		4.00		2.538e-03		-38.864		1.015e-03		42.747
4		0.00		4.40		4.072e-03		-59.699		1.472e-03		23.664
4		0.00		4.80		7.010e-03		-45.590		1.999e-03		17.057
4		0.00		5.20		9.088e-03		-55.294		2.337e-03		14.476
4		0.00		5.60		1.221e-02		-48.698		2.771e-03		13.863
4		0.00		6.00		1.483e-02		-53.267		3.015e-03		13.793
4		0.00		6.40		1.821e-02		-49.906		3.593e-03		13.375
4		0.00		6.80		2.102e-02		-50.462		4.235e-03		13.223
4		0.00		7.20		2.379e-02		-50.654		5.044e-03		13.789
4		0.00		7.60		2.564e-02		-47.365		5.629e-03		12.779
4		0.00		8.00		2.759e-02		-47.804		6.158e-03		13.178
4		0.00		8.40		3.008e-02		-48.934		7.104e-03		12.673
4		0.00		8.80		3.174e-02		-48.715		8.226e-03		14.186
4		0.00		9.20		3.310e-02		-49.390		8.903e-03		17.468
4		0.00		9.60		3.441e-02		-48.694		9.772e-03		16.881
4		0.00		10.00		3.456e-02		-47.933		9.902e-03		13.692
4		0.00		9.60		3.397e-02		-49.401		9.939e-03		14.911
4		0.00		9.20		3.362e-02		-46.032		1.001e-02		14.411
4		0.00		8.80		3.242e-02		-49.423		9.367e-03		13.930
4		0.00		8.40		3.164e-02		-48.656		8.760e-03		11.661
4		0.00		8.00		3.183e-02		-48.678		8.612e-03		9.869
4		0.00		7.60		3.087e-02		-48.674		7.738e-03		10.728
4		0.00		7.20		3.017e-02		-47.727		7.365e-03		9.948
4		0.00		6.80		2.957e-02		-50.031		6.730e-03		10.431
4		0.00		6.40		2.935e-02		-48.250		6.469e-03		9.275
4		0.00		6.00		2.830e-02		-48.755		5.880e-03		9.865
4		0.00		5.60		2.812e-02		-49.586		5.812e-03		9.667
4		0.00		5.20		2.791e-02		-49.419		5.520e-03		9.496
4		0.00		4.80		2.779e-02		-51.048		5.001e-03		9.597
4		0.00		4.40		2.739e-02		-50.128		5.374e-03		10.000
4		0.00		4.00		2.679e-02		-50.112		4.891e-03		10.230
4		0.00		3.60		2.677e-02		-49.741		5.093e-03		10.545
4		0.00		3.20		2.587e-02		-50.273		5.023e-03		9.357
4		0.00		2.80		2.566e-02		-51.156		5.184e-03		10.128
4		0.00		2.40		2.461e-02		-50.299		5.028e-03		10.923
4		0.00		2.00		2.378e-02		-49.763		4.769e-03		12.052
4		0.00		1.60		2.366e-02		-50.375		4.658e-03		11.031
4		0.00		1.20		2.370e-02		-48.807		4.608e-03		11.163
4		0.00		0.80		2.363e-02		-51.423		4.685e-03		11.141
4		0.00		0.40		2.338e-02		-49.549		4.165e-03		11.022
4		0.00		0.00		2.278e-02		-50.806		4.435e-03		12.575
4		0.00		-0.40		2.202e-02		-50.995		4.085e-03		11.870
4		0.00		-0.80		1.970e-02		-49.518		3.453e-03		11.769
4		0.00		-1.20		1.832e-02		-48.742		3.302e-03		11.964
4		0.00		-1.60		1.536e-02		-49.231		2.797e-03		15.034
4		0.00		-2.00		1.303e-02		-51.665		2.849e-03		13.753
4		0.00		-2.40		9.863e-03		-49.350		2.422e-03		15.813
4		0.00		-2.80		6.815e-03		-43.228		2.353e-03		19.758
4		0.00		-3.20		3.787e-03		-28.970		1.949e-03		47.020
4		0.00		-3.60		3.140e-03		17.175		1.254e-03		70.464
4		0.00		-4.00		4.061e-03		77.745		1.694e-03		57.162
4		0.00		-4.40		6.158e-03		109.784		2.698e-03		40.590
4		0.00		-4.80		8.498e-03		120.971		3.250e-03		21.966
4		0.00		-5.20		1.106e-02		125.958		3.910e-03		20.127
4		0.00		-5.60		1.434e-02		126.306		4.521e-03		10.803
4		0.00		-6.00		1.579e-02		126.374		5.077e-03		13.109
4		0.00		-6.40		1.708e-02		128.234		5.189e-03		11.534
4		0.00		-6.80		2.045e-02		127.533		6.209e-03		11.392
4		0.00		-7.20		1.983e-02		127.523		5.762e-03		11.594
4		0.00		-7.60		2.117e-02		126.831		6.260e-03		12.200
4		0.00		-8.00		2.394e-02		126.986		7.003e-03		12.267
4		0.00		-8.40		2.392e-02		127.799		6.949e-03		11.905
4		0.00		-8.80		2.646e-02		128.754		7.226e-03		11.076
4		0.00		-9.20		2.571e-02		128.273		7.002e-03		11.364
4		0.00		-9.60		2.707e-02		128.732		7.149e-03		11.295
4		0.00		-10.00		2.681e-02		128.493		7.276e-03		12.899
4		0.00		-9.60		2.605e-02		127.900		7.104e-03		12.537
4		0.00		-9.20		2.705e-02		129.104		7.296e-03		12.540
4		0.00		-8.80		2.652e-02		128.465		7.631e-03		12.876
4		0.00		-8.40		2.631e-02		128.165		7.691e-03		14.687
4		0.00		-8.00		2.444e-02		126.426		7.381e-03		15.904
4		0.00		-7.60		2.374e-02		125.033		7.430e-03		15.880
4		0.00		-7.20		2.179e-02		125.919		7.129e-03		17.742
4		0.00		-6.80		2.205e-02		126.600		7.234e-03		17.476
4		0.00		-6.40		2.134e-02		124.639		6.990e-03		18.544
4		0.00		-6.00		1.971e-02		126.901		6.238e-03		15.242
4		0.00		-5.60		1.878e-02		124.410		5.593e-03		17.721
4		0.00		-5.20		1.742e-02		126.664		5.265e-03		16.582
4		0.00		-4.80		1.647e-02		124.488		4.918e-03		15.589
4		0.00		-4.40		1.594e-02		126.051		4.670e-03		14.328
4		0.00		-4.00		1.440e-02		127.672		4.486e-03		15.768
4		0.00		-3.60		1.423e-02		126.112		4.163e-03		15.008
4		0.00		-3.20		1.367e-02		123.377		3.921e-03		14.072
4		0.00		-2.80		1.264e-02		126.764		3.522e-03		12.207
4		0.00		-2.40		1.177e-02		125.576		3.536e-03		14.271
4		0.00		-2.00		1.081e-02		127.158		3.216e-03		12.331
4		0.00		-1.60		1.038e-02		124.716		3.159e-03		14.256
4		0.00		-1.20		9.043e-03		126.606		2.722e-03		13.748
4		0.00		-0.80		8.756e-03		123.155		2.844e-03		18.257
4		0.00		-0.40		8.196e-03		125.001		2.545e-03		16.033
5		0.00		0.00		7.421e-03		124.650		2.361e-03		19.120
5		0.00		0.40		6.716e-03		122.658		2.180e-03		16.604
5		0.00		0.80		5.576e-03		124.366		1.909e-03		29.708
5		0.00		1.20		5.169e-03		121.205		1.797e-03		27.280
5		0.00		1.60		4.122e-03		117.917		1.498e-03		29.315
5		0.00		2.00		3.602e-03		116.355		1.354e-03		29.021
5		0.00		2.40		2.857e-03		83.170		1.226e-03		67.295
5		0.00		2.80		2.690e-03		86.787		1.153e-03		49.715
5		0.00		3.20		1.938e-03		14.829		8.013e-04		73.770
5		0.00		3.60		2.005e-03		4.122		8.815e-04		70.318
5		0.00		4.00		2.880e-03		-54.333		1.332e-03		40.900
5		0.00		4.40		4.060e-03		-39.524		1.572e-03		33.354
5		0.00		4.80		6.551e-03		-49.606		1.969e-03		19.503
5		0.00		5.20		9.155e-03		-51.492		2.536e-03		15.110
5		0.00		5.60		1.140e-02		-46.674		3.128e-03		13.491
5		0.00		6.00		1.428e-02		-48.070		3.551e-03		15.825
5		0.00		6.40		1.669e-02		-49.197		4.340e-03		12.755
5		0.00		6.80		2.055e-02		-48.072		4.844e-03		14.420
5		0.00		7.20		2.307e-02		-50.240		5.919e-03		13.211
5		0.00		7.60		2.418e-02		-50.024		6.492e-03		13.253
5		0.00		8.00		2.627e-02		-49.535		6.753e-03		12.235
5		0.00		8.40		2.845e-02		-48.556		7.462e-03		11.938
5		0.00		8.80		2.993e-02		-48.508		7.766e-03		13.566
5		0.00		9.20		3.192e-02		-50.112		8.339e-03		13.316
5		0.00		9.60		3.324e-02		-50.355		8.621e-03		13.091
5		0.00		10.00		3.410e-02		-50.054		8.767e-03		12.774
5		0.00		9.60		3.434e-02		-51.662		8.654e-03		12.438
5		0.00		9.20		3.364e-02		-50.872		8.415e-03		12.694
5		0.00		8.80		3.354e-02		-50.861		8.234e-03		11.098
5		0.00		8.40		3.254e-02		-51.063		7.722e-03		11.101
5		0.00		8.00		3.168e-02		-49.112		7.808e-03		11.528
5		0.00		7.60		3.109e-02		-50.412		7.395e-03		11.100
5		0.00		7.20		3.075e-02		-49.171		7.172e-03		11.244
5		0.00		6.80		2.877e-02		-47.248		6.866e-03		11.056
5		0.00		6.40		2.837e-02		-46.957		6.979e-03		10.770
5		0.00		6.00		2.795e-02		-50.589		6.843e-03		11.425
5		0.00		5.60		2.674e-02		-48.194		6.468e-03		10.800
5		0.00		5.20		2.562e-02		-48.019		6.278e-03		10.854
5		0.00		4.80		2.576e-02		-49.736		6.605e-03		10.597
5		0.00		4.40		2.548e-02		-48.258		6.650e-03		10.613
5		0.00		4.00		2.487e-02		-49.910		6.491e-03		10.264
5		0.00		3.60		2.451e-02		-48.380		6.362e-03		10.802
5		0.00		3.20		2.421e-02		-49.206		6.141e-03		10.445
5		0.00		2.80		2.357e-02		-49.869		5.876e-03		10.375
5		0.00		2.40		2.331e-02		-48.798		5.847e-03		9.913
5		0.00		2.00		2.335e-02		-50.017		5.841e-03		9.806
5		0.00		1.60		2.301e-02		-48.393		5.543e-03		9.736
5		0.00		1.20		2.321e-02		-49.121		5.482e-03		9.823
5		0.00		0.80		2.303e-02		-49.168		5.269e-03		9.124
5		0.00		0.40		2.279e-02		-47.306		5.300e-03		10.146
5		0.00		0.00		2.234e-02		-49.369		5.416e-03		9.420
5		0.00		-0.40		2.161e-02		-49.511		4.960e-03		9.947
5		0.00		-0.80		2.029e-02		-48.964		4.526e-03		9.221
5		0.00		-1.20		1.846e-02		-49.316		4.296e-03		10.884
5		0.00		-1.60		1.495e-02		-49.988		3.484e-03		10.847
5		0.00		-2.00		1.252e-02		-47.380		3.147e-03		12.417
5		0.00		-2.40		9.249e-03		-48.185		2.680e-03		13.581
5		0.00		-2.80		5.841e-03		-48.345		2.407e-03		22.251
5		0.00		-3.20		3.966e-03		-45.726		2.313e-03		28.261
5		0.00		-3.60		2.917e-03		33.404		1.506e-03		62.112
5		0.00		-4.00		3.777e-03		74.338		1.502e-03		61.056
5		0.00		-4.40		5.868e-03		107.333		2.425e-03		39.447
5		0.00		-4.80		9.123e-03		117.942		3.450e-03		26.140
5		0.00		-5.20		1.064e-02		120.302		3.780e-03		26.325
5		0.00		-5.60		1.266e-02		125.313		4.126e-03		16.985
5		0.00		-6.00		1.621e-02		127.530		4.965e-03		11.260
5		0.00		-6.40		1.775e-02		127.715		4.866e-03		9.461
5		0.00		-6.80		2.032e-02		127.391		5.447e-03		9.588
5		0.00		-7.20		2.278e-02		128.797		5.817e-03		8.324
5		0.00		-7.60		2.387e-02		127.318		5.689e-03		8.664
5		0.00		-8.00		2.509e-02		129.094		6.148e-03		8.976
5		0.00		-8.40		2.493e-02		128.311		5.990e-03		9.062
5		0.00		-8.80		2.696e-02		127.574		6.726e-03		9.063
5		0.00		-9.20		2.843e-02		127.507		7.206e-03		8.736
5		0.00		-9.60		3.100e-02		128.422		7.558e-03		7.518
5		0.00		-10.00		2.980e-02		127.909		7.812e-03		7.820
5		0.00		-9.60		2.871e-02		127.341		7.411e-03		8.163
5		0.00		-9.20		2.845e-02		127.875		7.285e-03		7.668
5		0.00		-8.80		2.833e-02		127.549		7.001e-03		7.283
5		0.00		-8.40		2.899e-02		127.546		7.349e-03		7.949
5		0.00		-8.00		2.788e-02		128.786		6.775e-03		7.433
5		0.00		-7.60		2.675e-02		128.547		6.444e-03		8.141
5		0.00		-7.20		2.689e-02		126.595		6.663e-03		7.682
5		0.00		-6.80		2.398e-02		127.822		5.708e-03		7.654
5		0.00		-6.40		2.314e-02		126.879		5.379e-03		7.170
5		0.00		-6.00		2.201e-02		127.599		4.983e-03		8.178
5		0.00		-5.60		2.037e-02		126.541		4.523e-03		7.921
5		0.00		-5.20		2.001e-02		127.142		4.313e-03		8.277
5		0.00		-4.80		1.893e-02		127.512		4.177e-03		6.923
5		0.00		-4.40		1.783e-02		126.697		3.602e-03		10.840
5		0.00		-4.00		1.684e-02		127.034		3.653e-03		9.342
5		0.00		-3.60		1.563e-02		127.523		3.474e-03		9.868
5		0.00		-3.20		1.469e-02		124.860		3.160e-03		9.627
5		0.00		-2.80		1.363e-02		129.462		2.958e-03		10.702
5		0.00		-2.40		1.320e-02		124.440		2.870e-03		9.924
5		0.00		-2.00		1.212e-02		130.524		3.211e-03		11.774
5		0.00		-1.60		1.091e-02		128.113		3.018e-03		11.202
5		0.00		-1.20		1.013e-02		128.351		2.994e-03		11.957
5		0.00		-0.80		9.505e-03		125.265		2.737e-03		11.536
5		0.00		-0.40		8.612e-03		126.429		2.359e-03		14.388
6		0.00		0.00		7.849e-03		125.941		2.235e-03		16.197
6		0.00		0.40		7.032e-03		120.823		2.133e-03		16.239
6		0.00		0.80		6.296e-03		120.589		1.687e-03		14.196
6		0.00		1.20		5.754e-03		118.622		1.566e-03		17.936
6		0.00		1.60		4.933e-03		117.216		1.686e-03		24.614
6		0.00		2.00		3.799e-03		118.577		1.401e-03		34.517
6		0.00		2.40		3.440e-03		104.800		1.322e-03		35.543
6		0.00		2.80		2.424e-03		77.016		9.839e-04		76.122
6		0.00		3.20		1.920e-03		41.574		8.562e-04		78.265
6		0.00		3.60		1.788e-03		-6.921		7.072e-04		65.617
6		0.00		4.00		2.554e-03		-51.508		1.089e-03		40.900
6		0.00		4.40		3.571e-03		-51.975		1.270e-03		32.298
6		0.00		4.80		5.204e-03		-58.196		1.643e-03		21.802
6		0.00		5.20		8.091e-03		-50.106		2.142e-03		16.415
6		0.00		5.60		1.019e-02		-47.834		2.796e-03		15.625
6		0.00		6.00		1.357e-02		-46.937		3.557e-03		13.226
6		0.00		6.40		1.621e-02		-48.081		4.013e-03		12.834
6		0.00		6.80		1.830e-02		-48.221		4.919e-03		13.222
6		0.00		7.20		2.124e-02		-49.722		5.448e-03		14.113
6		0.00		7.60		2.316e-02		-49.737		6.491e-03		15.145
6		0.00		8.00		2.554e-02		-48.430		7.063e-03		17.168
6		0.00		8.40		2.709e-02		-50.198		8.114e-03		18.178
6		0.00		8.80		3.008e-02		-46.275		9.066e-03		15.669
6		0.00		9.20		3.261e-02		-49.011		9.776e-03		10.717
6		0.00		9.60		3.409e-02		-48.103		9.784e-03		10.161
6		0.00		10.00		3.604e-02		-48.124		9.910e-03		10.742
6		0.00		9.60		3.641e-02		-48.479		9.568e-03		10.052
6		0.00		9.20		3.586e-02		-49.470		8.696e-03		9.972
6		0.00		8.80		3.492e-02		-50.333		7.643e-03		9.823
6		0.00		8.40		3.347e-02		-48.946		6.736e-03		10.254
6		0.00		8.00		3.286e-02		-49.815		6.477e-03		10.380
6		0.00		7.60		3.094e-02		-50.017		5.976e-03		11.584
6		0.00		7.20		3.021e-02		-48.368		5.840e-03		11.432
6		0.00		6.80		2.990e-02		-48.560		6.004e-03		11.693
6		0.00		6.40		2.866e-02		-48.578		6.441e-03		11.482
6		0.00		6.00		2.741e-02		-47.316		6.696e-03		11.417
6		0.00		5.60		2.702e-02		-49.884		7.195e-03		15.691
6		0.00		5.20		2.683e-02		-48.539		7.456e-03		14.346
6		0.00		4.80		2.643e-02		-49.893		7.466e-03		19.594
6		0.00		4.40		2.530e-02		-49.722		7.588e-03		17.755
6		0.00		4.00		2.474e-02		-48.457		7.459e-03		11.304
6		0.00		3.60		2.487e-02		-48.224		6.827e-03		10.528
6		0.00		3.20		2.478e-02		-48.533		6.393e-03		8.800
6		0.00		2.80		2.474e-02		-49.182		5.196e-03		9.104
6		0.00		2.40		2.504e-02		-48.405		4.589e-03		9.187
6		0.00		2.00		2.466e-02		-51.572		4.353e-03		9.522
6		0.00		1.60		2.449e-02		-49.595		4.173e-03		10.537
6		0.00		1.20		2.409e-02		-48.767		4.059e-03		10.328
6		0.00		0.80		2.328e-02		-47.721		4.327e-03		10.450
6		0.00		0.40		2.277e-02		-46.589		4.207e-03		11.511
6		0.00		0.00		2.172e-02		-48.324		4.511e-03		11.232
6		0.00		-0.40		2.107e-02		-45.083		4.651e-03		12.131
6		0.00		-0.80		1.996e-02		-47.767		4.643e-03		13.244
6		0.00		-1.20		1.726e-02		-49.845		4.463e-03		15.595
6		0.00		-1.60		1.507e-02		-49.461		4.293e-03		15.349
6		0.00		-2.00		1.215e-02		-46.873		3.477e-03		10.480
6		0.00		-2.40		1.001e-02		-50.766		2.844e-03		11.453
6		0.00		-2.80		7.240e-03		-46.154		2.508e-03		16.765
6		0.00		-3.20		3.598e-03		-21.663		1.809e-03		49.861
6		0.00		-3.60		3.016e-03		13.619		1.463e-03		70.348
6		0.00		-4.00		3.377e-03		61.297		1.578e-03		65.627
6		0.00		-4.40		5.680e-03		105.390		2.674e-03		43.164
6		0.00		-4.80		8.696e-03		120.974		3.255e-03		25.288
6		0.00		-5.20		1.064e-02		122.825		3.546e-03		14.998
6		0.00		-5.60		1.296e-02		123.757		3.968e-03		22.368
6		0.00		-6.00		1.492e-02		122.914		4.460e-03		19.072
6		0.00		-6.40		1.811e-02		123.623		5.288e-03		20.194
6		0.00		-6.80		1.968e-02		125.945		5.994e-03		15.176
6		0.00		-7.20		2.210e-02		128.061		6.280e-03		9.926
6		0.00		-7.60		2.397e-02		127.173		6.275e-03		8.690
6		0.00		-8.00		2.414e-02		128.778		5.860e-03		7.700
6		0.00		-8.40		2.625e-02		128.224		5.561e-03		7.331
6		0.00		-8.80		2.796e-02		126.741		6.126e-03		7.761
6		0.00		-9.20		2.935e-02		127.550		6.349e-03		8.686
6		0.00		-9.60		2.908e-02		128.299		6.505e-03		8.894
6		0.00		-10.00		2.969e-02		128.443		7.535e-03		8.447
6		0.00		-9.60		2.828e-02		128.325		7.701e-03		10.131
6		0.00		-9.20		2.712e-02		125.343		7.892e-03		15.804
6		0.00		-8.80		2.748e-02		125.448		7.965e-03		19.367
6		0.00		-8.40		2.612e-02		124.037		7.909e-03		19.611
6		0.00		-8.00		2.598e-02		128.278		8.085e-03		9.225
6		0.00		-7.60		2.761e-02		129.247		8.175e-03		7.579
6		0.00		-7.20		2.630e-02		128.419		6.804e-03		7.293
6		0.00		-6.80		2.594e-02		127.452		6.442e-03		7.002
6		0.00		-6.40		2.551e-02		127.024		5.308e-03		8.106
6		0.00		-6.00		2.429e-02		127.158		4.873e-03		9.553
6		0.00		-5.60		2.322e-02		128.990		4.782e-03		8.761
6		0.00		-5.20		2.134e-02		129.062		4.272e-03		10.015
6		0.00		-4.80		2.036e-02		129.883		4.270e-03		9.284
6		0.00		-4.40		1.918e-02		128.353		4.251e-03		13.371
6		0.00		-4.00		1.777e-02		126.904		4.220e-03		13.409
6		0.00		-3.60		1.696e-02		126.391		4.291e-03		14.876
6		0.00		-3.20		1.580e-02		125.818		4.104e-03		18.877
6		0.00		-2.80		1.529e-02		123.905		4.332e-03		21.297
6		0.00		-2.40		1.426e-02		127.789		4.337e-03		12.359
6		0.00		-2.00		1.312e-02		123.780		3.977e-03		21.138
6		0.00		-1.60		1.206e-02		126.976		3.432e-03		11.587
6		0.00		-1.20		1.098e-02		127.566		2.933e-03		11.359
6		0.00		-0.80		1.066e-02		128.074		2.856e-03		11.118
6		0.00		-0.40		9.591e-03		127.329		2.389e-03		12.415
7		0.00		0.00		9.031e-03		125.748		2.328e-03		12.200
7		0.00		0.40		7.879e-03		129.576		2.104e-03		12.759
7		0.00		0.80		7.073e-03		129.331		1.956e-03		11.963
7		0.00		1.20		6.693e-03		123.177		1.791e-03		15.203
7		0.00		1.60		5.710e-03		124.050		1.960e-03		19.445
7		0.00		2.00		5.322e-03		116.620		1.730e-03		24.942
7		0.00		2.40		4.157e-03		99.070		1.500e-03		43.936
7		0.00		2.80		3.612e-03		105.092		1.254e-03		45.474
7		0.00		3.20		2.591e-03		75.569		1.186e-03		50.626
7		0.00		3.60		2.254e-03		43.353		9.619e-04		69.484
7		0.00		4.00		2.167e-03		-26.977		8.875e-04		55.614
7		0.00		4.40		3.157e-03		-48.664		1.323e-03		37.641
7		0.00		4.80		5.257e-03		-47.477		1.970e-03		27.403
7		0.00		5.20		7.990e-03		-49.854		2.331e-03		14.227
7		0.00		5.60		9.953e-03		-51.602		2.908e-03		11.750
7		0.00		6.00		1.245e-02		-51.339		3.059e-03		13.333
7		0.00		6.40		1.546e-02		-50.619		3.749e-03		10.225
7		0.00		6.80		1.804e-02		-51.672		3.954e-03		11.004
7		0.00		7.20		2.153e-02		-49.417		4.940e-03		11.886
7		0.00		7.60		2.301e-02		-48.943		5.529e-03		11.748
7		0.00		8.00		2.590e-02		-48.736		6.165e-03		11.997
7		0.00		8.40		2.830e-02		-50.260		7.277e-03		11.368
7		0.00		8.80		3.049e-02		-47.423		7.798e-03		11.066
7		0.00		9.20		3.285e-02		-47.252		8.492e-03		10.770
7		0.00		9.60		3.380e-02		-48.927		8.894e-03		14.162
7		0.00		10.00		3.580e-02		-49.128		9.351e-03		14.657
7		0.00		9.60		3.569e-02		-50.154		9.850e-03		17.646
7		0.00		9.20		3.547e-02		-48.247		9.601e-03		13.926
7		0.00		8.80		3.445e-02		-49.671		9.500e-03		15.231
7		0.00		8.40		3.422e-02		-48.003		9.520e-03		11.193
7		0.00		8.00		3.274e-02		-48.142		9.142e-03		9.895
7		0.00		7.60		3.226e-02		-48.302		8.374e-03		8.852
7		0.00		7.20		3.143e-02		-48.923		7.861e-03		9.565
7		0.00		6.80		3.047e-02		-49.044		7.442e-03		9.301
7		0.00		6.40		3.041e-02		-49.481		7.355e-03		9.710
7		0.00		6.00		2.984e-02		-48.806		6.629e-03		8.866
7		0.00		5.60		2.928e-02		-48.924		6.250e-03		9.272
7		0.00		5.20		2.841e-02		-48.785		5.612e-03		9.204
7		0.00		4.80		2.815e-02		-49.447		5.695e-03		9.889
7		0.00		4.40		2.786e-02		-48.680		5.642e-03		10.544
7		0.00		4.00		2.735e-02		-51.486		5.533e-03		10.322
7		0.00		3.60		2.721e-02		-50.708		5.515e-03		10.306
7		0.00		3.20		2.582e-02		-49.862		5.380e-03		10.749
7		0.00		2.80		2.530e-02		-49.053		5.008e-03		10.746
7		0.00		2.40		2.474e-02		-48.652		4.986e-03		11.928
7		0.00		2.00		2.403e-02		-46.992		4.741e-03		11.687
7		0.00		1.60		2.407e-02		-47.992		4.968e-03		10.926
7		0.00		1.20		2.402e-02		-48.451		5.174e-03		10.967
7		0.00		0.80		2.378e-02		-48.378		5.276e-03		12.100
7		0.00		0.40		2.284e-02		-47.429		5.617e-03		13.691
7		0.00		0.00		2.271e-02		-48.141		5.740e-03		15.232
7		0.00		-0.40		2.153e-02		-50.247		5.677e-03		16.372
7		0.00		-0.80		2.024e-02		-52.893		5.492e-03		18.572
7		0.00		-1.20		1.822e-02		-50.459		4.956e-03		20.027
7		0.00		-1.60		1.577e-02		-48.444		4.607e-03		16.433
7		0.00		-2.00		1.346e-02		-48.407		4.170e-03		21.129
7		0.00		-2.40		9.845e-03		-42.956		3.329e-03		19.833
7		0.00		-2.80		6.471e-03		-51.415		2.730e-03		23.668
7		0.00		-3.20		3.951e-03		-31.250		1.915e-03		39.091
7		0.00		-3.60		3.065e-03		3.947		1.617e-03		56.710
7		0.00		-4.00		3.753e-03		75.276		1.545e-03		62.457
7		0.00		-4.40		5.470e-03		99.129		2.178e-03		38.932
7		0.00		-4.80		7.807e-03		112.435		3.143e-03		33.477
7		0.00		-5.20		1.048e-02		116.743		3.848e-03		32.483
7		0.00		-5.60		1.406e-02		122.257		4.694e-03		23.768
7		0.00		-6.00		1.695e-02		126.415		5.121e-03		21.802
7		0.00		-6.40		1.879e-02		126.603		5.404e-03		12.416
7		0.00		-6.80		2.033e-02		127.295		5.585e-03		9.361
7		0.00		-7.20		2.287e-02		127.464		6.206e-03		9.412
7		0.00		-7.60		2.460e-02		127.678		6.187e-03		9.549
7		0.00		-8.00		2.662e-02		127.592		6.374e-03		8.662
7		0.00		-8.40		2.905e-02		129.031		7.309e-03		9.744
7		0.00		-8.80		2.913e-02		127.907		7.437e-03		10.168
7		0.00		-9.20		2.920e-02		127.429		7.464e-03		9.843
7		0.00		-9.60		3.060e-02		128.444		7.765e-03		9.569
7		0.00		-10.00		2.899e-02		127.335		7.204e-03		9.514
7		0.00		-9.60		2.926e-02		128.436		6.975e-03		9.199
7		0.00		-9.20		3.023e-02		127.973		7.269e-03		9.524
7		0.00		-8.80		2.916e-02		128.894		7.511e-03		10.387
7		0.00		-8.40		2.900e-02		128.384		7.706e-03		9.467
7		0.00		-8.00		2.910e-02		128.061		7.857e-03		10.569
7		0.00		-7.60		2.704e-02		126.856		7.599e-03		15.825
7		0.00		-7.20		2.659e-02		125.556		7.573e-03		17.631
7		0.00		-6.80		2.538e-02		124.696		6.962e-03		20.313
7		0.00		-6.40		2.429e-02		126.528		6.224e-03		18.883
7		0.00		-6.00		2.399e-02		128.508		6.390e-03		20.516
7		0.00		-5.60		2.247e-02		125.708		6.071e-03		19.815
7		0.00		-5.20		2.138e-02		126.565		6.066e-03		20.659
7		0.00		-4.80		2.013e-02		128.418		5.595e-03		13.294
7		0.00		-4.40		1.956e-02		129.074		5.113e-03		10.848
7		0.00		-4.00		1.809e-02		128.494		4.656e-03		9.966
7		0.00		-3.60		1.761e-02		128.958		4.426e-03		8.424
7		0.00		-3.20		1.659e-02		128.526		4.137e-03		9.912
7		0.00		-2.80		1.559e-02		125.083		3.579e-03		8.508
7		0.00		-2.40		1.433e-02		125.728		3.553e-03		10.491
7		0.00		-2.00		1.334e-02		129.538		3.373e-03		10.429
7		0.00		-1.60		1.238e-02		125.266		3.279e-03		10.783
7		0.00		-1.20		1.198e-02		126.791		3.145e-03		10.902
7		0.00		-0.80		1.095e-02		127.087		2.946e-03		11.161
7		0.00		-0.40		1.027e-02		127.681		2.936e-03		11.459
8		0.00		0.00		9.468e-03		124.493		2.461e-03		10.788
8		0.00		0.40		8.587e-03		127.824		2.252e-03		11.964
8		0.00		0.80		8.242e-03		127.636		2.167e-03		13.111
8		0.00		1.20		7.523e-03		123.064		2.035e-03		14.165
8		0.00		1.60		6.589e-03		126.383		1.940e-03		15.880
8		0.00		2.00		5.754e-03		118.417		1.738e-03		18.128
8		0.00		2.40		4.852e-03		118.917		1.670e-03		21.638
8		0.00		2.80		4.177e-03		109.872		1.542e-03		26.347
8		0.00		3.20		3.496e-03		100.869		1.299e-03		44.299
8		0.00		3.60		2.835e-03		81.407		1.125e-03		62.019
8		0.00		4.00		2.014e-03		41.539		8.465e-04		72.702
8		0.00		4.40		2.076e-03		-17.448		9.909e-04		52.612
8		0.00		4.80		3.660e-03		-38.999		1.641e-03		33.293
8		0.00		5.20		5.511e-03		-49.176		1.782e-03		19.842
8		0.00		5.60		7.565e-03		-47.674		2.576e-03		15.956
8		0.00		6.00		1.049e-02		-50.037		3.313e-03		12.310
8		0.00		6.40		1.387e-02		-51.481		4.088e-03		12.143
8		0.00		6.80		1.680e-02		-47.835		4.548e-03		9.939
8		0.00		7.20		2.046e-02		-51.416		5.887e-03		9.346
8		0.00		7.60		2.369e-02		-50.180		6.638e-03		8.968
8		0.00		8.00		2.662e-02		-47.909		7.137e-03		8.600
8		0.00		8.40		2.997e-02		-49.347		7.836e-03		8.288
8		0.00		8.80		3.365e-02		-48.999		7.932e-03		8.036
8		0.00		9.20		3.578e-02		-49.411		8.516e-03		8.342
8		0.00		9.60		3.866e-02		-50.996		8.485e-03		7.926
8		0.00		10.00		3.914e-02		-50.545		8.643e-03		8.948
8		0.00		9.60		3.909e-02		-49.763		8.068e-03		9.507
8		0.00		9.20		3.856e-02		-50.418		7.891e-03		9.256
8		0.00		8.80		3.535e-02		-49.977		7.111e-03		10.630
8		0.00		8.40		3.458e-02		-49.344		6.494e-03		10.146
8		0.00		8.00		3.386e-02		-48.455		6.804e-03		11.307
8		0.00		7.60		3.300e-02		-49.326		6.855e-03		10.937
8		0.00		7.20		3.203e-02		-48.571		7.291e-03		10.943
8		0.00		6.80		3.034e-02		-49.628		7.549e-03		10.414
8		0.00		6.40		2.972e-02		-48.790		7.627e-03		11.043
8		0.00		6.00		2.920e-02		-48.521		7.614e-03		11.496
8		0.00		5.60		2.863e-02		-49.894		7.444e-03		12.928
8		0.00		5.20		2.748e-02		-49.498		7.630e-03		13.864
8		0.00		4.80		2.725e-02		-48.774		7.519e-03		14.560
8		0.00		4.40		2.699e-02		-50.993		7.639e-03		19.322
8		0.00		4.00		2.721e-02		-51.153		7.462e-03		18.998
8		0.00		3.60		2.789e-02		-48.672		7.444e-03		15.373
8		0.00		3.20		2.750e-02		-46.520		7.361e-03		11.928
8		0.00		2.80		2.782e-02		-48.315		7.289e-03		9.921
8		0.00		2.40		2.762e-02		-47.953		6.870e-03		8.645
8		0.00		2.00		2.745e-02		-47.897		6.713e-03		8.739
8		0.00		1.60		2.656e-02		-49.696		6.383e-03		8.939
8		0.00		1.20		2.698e-02		-48.088		5.983e-03		9.513
8		0.00		0.80		2.642e-02		-48.259		5.749e-03		9.449
8		0.00		0.40		2.591e-02		-47.827		5.307e-03		9.161
8		0.00		0.00		2.574e-02		-49.347		5.030e-03		8.986
8		0.00		-0.40		2.497e-02		-49.861		4.491e-03		8.188
8		0.00		-0.80		2.401e-02		-48.412		4.354e-03		9.180
8		0.00		-1.20		2.208e-02		-48.178		4.106e-03		9.391
8		0.00		-1.60		1.981e-02		-50.975		3.702e-03		10.326
8		0.00		-2.00		1.603e-02		-47.061		3.016e-03		11.056
8		0.00		-2.40		1.328e-02		-47.387		2.735e-03		13.256
8		0.00		-2.80		9.511e-03		-48.547		2.577e-03		14.153
8		0.00		-3.20		5.222e-03		-55.130		2.165e-03		24.267
8		0.00		-3.60		3.567e-03		-29.254		1.795e-03		43.505
8		0.00		-4.00		2.621e-03		36.169		1.231e-03		64.116
8		0.00		-4.40		4.297e-03		95.510		1.784e-03		42.068
8		0.00		-4.80		7.646e-03		115.739		2.746e-03		31.832
8		0.00		-5.20		1.063e-02		122.655		3.476e-03		25.433
8		0.00		-5.60		1.343e-02		125.712		4.196e-03		19.903
8		0.00		-6.00		1.617e-02		125.628		4.573e-03		14.665
8		0.00		-6.40		1.934e-02		127.518		5.037e-03		8.570
8		0.00		-6.80		2.154e-02		128.382		5.686e-03		8.283
8		0.00		-7.20		2.359e-02		128.476		5.604e-03		8.218
8		0.00		-7.60		2.604e-02		128.220		6.073e-03		7.546
8		0.00		-8.00		2.901e-02		128.325		6.355e-03		6.354
8		0.00		-8.40		2.901e-02		127.619		6.331e-03		7.615
8		0.00		-8.80		2.971e-02		127.883		6.701e-03		7.272
8		0.00		-9.20		3.077e-02		127.527		6.804e-03		8.509
8		0.00		-9.60		3.100e-02		126.504		7.114e-03		8.539
8		0.00		-10.00		3.197e-02		127.940		7.157e-03		8.858
8		0.00		-9.60		3.230e-02		128.912		7.200e-03		8.345
8		0.00		-9.20		3.160e-02		127.598		7.318e-03		8.996
8		0.00		-8.80		3.125e-02		129.012		7.176e-03		8.626
8		0.00		-8.40		3.041e-02		127.424		7.040e-03		8.491
8		0.00		-8.00		2.937e-02		129.004		6.909e-03		9.232
8		0.00		-7.60		2.984e-02		130.215		6.455e-03		8.337
8		0.00		-7.20		2.752e-02		128.065		6.636e-03		11.970
8		0.00		-6.80		2.646e-02		128.095		6.084e-03		13.041
8		0.00		-6.40		2.466e-02		128.393		5.988e-03		16.137
8		0.00		-6.00		2.414e-02		125.564		5.965e-03		17.611
8		0.00		-5.60		2.283e-02		126.483		5.998e-03		17.183
8		0.00		-5.20		2.128e-02		127.475		5.332e-03		16.686
8		0.00		-4.80		2.048e-02		127.817		5.358e-03		11.671
8		0.00		-4.40		1.987e-02		126.815		5.129e-03		10.886
8		0.00		-4.00		1.890e-02		127.280		4.850e-03		8.455
8		0.00		-3.60		1.761e-02		128.343		4.311e-03		7.395
8		0.00		-3.20		1.667e-02		129.226		4.085e-03		9.821
8		0.00		-2.80		1.532e-02		127.006		3.564e-03		9.197
8		0.00		-2.40		1.481e-02		126.652		3.436e-03		11.298
8		0.00		-2.00		1.428e-02		129.504		2.958e-03		8.444
8		0.00		-1.60		1.301e-02		126.566		2.668e-03		9.875
8		0.00		-1.20		1.230e-02		125.347		2.395e-03		10.292
8		0.00		-0.80		1.082e-02		128.501		2.375e-03		10.127
8		0.00		-0.40		1.029e-02		127.830		2.288e-03		13.038
