# Date of analysis: 2024-03-08 10;59
# Segment other properties: height: -62.6807853010371, diff height: 527.7629708580902, deflection: 33.15006164430802, deflection error: 2.917798761760048, adhesion: 44.63019528330533, phase offset: 0
# 
# Loop index	Read Volt (V)	Write Volt (V)	Amplitude (a.u)	Phase (deg)	Sigma Amp (a.u)	Sigma Pha (deg)	
1		0.00		0.00		2.450e-02		-50.400		5.496e-03		9.099
1		0.00		0.40		2.419e-02		-51.728		5.947e-03		11.439
1		0.00		0.80		2.383e-02		-51.915		6.279e-03		10.854
1		0.00		1.20		2.364e-02		-52.488		6.084e-03		12.840
1		0.00		1.60		2.349e-02		-51.449		6.207e-03		9.403
1		0.00		2.00		2.341e-02		-49.814		5.992e-03		11.576
1		0.00		2.40		2.400e-02		-50.903		6.161e-03		10.595
1		0.00		2.80		2.354e-02		-51.416		6.023e-03		9.395
1		0.00		3.20		2.346e-02		-51.780		6.006e-03		10.050
1		0.00		3.60		2.386e-02		-50.990		5.662e-03		9.082
1		0.00		4.00		2.481e-02		-53.519		5.758e-03		10.577
1		0.00		4.40		2.543e-02		-51.662		5.218e-03		7.235
1		0.00		4.80		2.614e-02		-51.498		4.858e-03		8.344
1		0.00		5.20		2.638e-02		-50.830		4.887e-03		7.834
1		0.00		5.60		2.697e-02		-50.614		4.710e-03		7.015
1		0.00		6.00		2.826e-02		-50.558		5.066e-03		8.253
1		0.00		6.40		2.907e-02		-50.629		4.921e-03		6.619
1		0.00		6.80		2.976e-02		-50.017		5.128e-03		7.657
1		0.00		7.20		3.086e-02		-50.006		5.401e-03		8.194
1		0.00		7.60		3.197e-02		-50.443		5.571e-03		7.305
1		0.00		8.00		3.369e-02		-50.885		6.249e-03		6.413
1		0.00		8.40		3.508e-02		-50.993		6.712e-03		7.739
1		0.00		8.80		3.918e-02		-49.776		8.468e-03		8.402
1		0.00		9.20		4.123e-02		-51.003		9.843e-03		8.466
1		0.00		9.60		4.441e-02		-51.159		1.145e-02		10.845
1		0.00		10.00		4.721e-02		-51.617		1.258e-02		14.694
1		0.00		9.60		4.853e-02		-52.225		1.386e-02		14.068
1		0.00		9.20		4.865e-02		-51.929		1.372e-02		13.614
1		0.00		8.80		4.889e-02		-52.959		1.391e-02		13.015
1		0.00		8.40		4.846e-02		-52.069		1.361e-02		10.117
1		0.00		8.00		4.988e-02		-51.604		1.234e-02		8.539
1		0.00		7.60		5.116e-02		-51.905		1.132e-02		7.606
1		0.00		7.20		4.945e-02		-51.038		9.449e-03		6.291
1		0.00		6.80		5.008e-02		-51.538		9.252e-03		6.793
1		0.00		6.40		4.998e-02		-51.086		9.121e-03		6.694
1		0.00		6.00		4.997e-02		-50.740		8.406e-03		5.825
1		0.00		5.60		4.927e-02		-49.492		8.579e-03		6.201
1		0.00		5.20		4.718e-02		-49.357		8.286e-03		7.213
1		0.00		4.80		4.883e-02		-49.477		8.875e-03		6.537
1		0.00		4.40		4.716e-02		-50.231		9.203e-03		9.464
1		0.00		4.00		4.746e-02		-50.017		9.441e-03		6.676
1		0.00		3.60		4.637e-02		-50.028		1.068e-02		9.064
1		0.00		3.20		4.575e-02		-51.881		1.141e-02		10.880
1		0.00		2.80		4.517e-02		-51.209		1.217e-02		11.934
1		0.00		2.40		4.483e-02		-52.791		1.211e-02		13.151
1		0.00		2.00		4.478e-02		-52.390		1.227e-02		12.760
1		0.00		1.60		4.437e-02		-50.966		1.225e-02		9.334
1		0.00		1.20		4.457e-02		-51.880		1.184e-02		9.051
1		0.00		0.80		4.392e-02		-52.304		1.068e-02		7.935
1		0.00		0.40		4.448e-02		-51.662		9.281e-03		5.980
1		0.00		0.00		4.550e-02		-52.060		8.701e-03		7.057
1		0.00		-0.40		4.569e-02		-51.241		8.240e-03		6.013
1		0.00		-0.80		4.424e-02		-50.786		7.850e-03		5.694
1		0.00		-1.20		4.333e-02		-50.796		7.689e-03		6.593
1		0.00		-1.60		4.431e-02		-49.868		7.887e-03		5.582
1		0.00		-2.00		4.128e-02		-50.053		7.835e-03		7.815
1		0.00		-2.40		4.001e-02		-49.831		8.303e-03		8.217
1		0.00		-2.80		3.883e-02		-49.988		8.479e-03		8.295
1		0.00		-3.20		3.542e-02		-49.341		7.781e-03		9.131
1		0.00		-3.60		3.330e-02		-50.520		7.599e-03		10.040
1		0.00		-4.00		2.942e-02		-49.791		7.094e-03		10.847
1		0.00		-4.40		2.343e-02		-49.968		6.225e-03		8.663
1		0.00		-4.80		1.938e-02		-48.722		5.005e-03		11.773
1		0.00		-5.20		1.540e-02		-49.985		3.927e-03		10.699
1		0.00		-5.60		1.084e-02		-45.510		2.590e-03		12.368
1		0.00		-6.00		6.374e-03		-46.106		2.045e-03		16.855
1		0.00		-6.40		2.069e-03		17.209		9.031e-04		70.578
1		0.00		-6.80		5.421e-03		115.548		1.713e-03		25.918
1		0.00		-7.20		8.275e-03		126.319		2.256e-03		12.462
1		0.00		-7.60		1.243e-02		126.803		2.882e-03		9.879
1		0.00		-8.00		1.506e-02		124.705		3.404e-03		9.947
1		0.00		-8.40		1.736e-02		125.558		3.763e-03		9.914
1		0.00		-8.80		1.954e-02		124.641		4.325e-03		11.230
1		0.00		-9.20		2.047e-02		126.863		4.798e-03		14.671
1		0.00		-9.60		2.224e-02		127.180		5.389e-03		10.988
1		0.00		-10.00		2.342e-02		125.188		5.676e-03		12.425
1		0.00		-9.60		2.449e-02		126.739		6.022e-03		10.934
1		0.00		-9.20		2.462e-02		126.996		5.767e-03		10.222
1		0.00		-8.80		2.413e-02		126.399		5.047e-03		8.804
1		0.00		-8.40		2.326e-02		123.843		4.731e-03		8.025
1		0.00		-8.00		2.434e-02		125.923		4.793e-03		6.566
1		0.00		-7.60		2.398e-02		127.678		4.729e-03		6.841
1		0.00		-7.20		2.388e-02		125.868		4.792e-03		7.108
1		0.00		-6.80		2.223e-02		126.976		4.920e-03		7.975
1		0.00		-6.40		2.141e-02		124.626		4.428e-03		7.679
1		0.00		-6.00		2.042e-02		128.348		4.340e-03		8.950
1		0.00		-5.60		1.968e-02		127.653		4.418e-03		8.734
1		0.00		-5.20		1.921e-02		127.033		4.492e-03		8.975
1		0.00		-4.80		1.851e-02		127.429		4.397e-03		11.082
1		0.00		-4.40		1.738e-02		125.248		4.488e-03		11.428
1		0.00		-4.00		1.735e-02		125.871		4.718e-03		15.779
1		0.00		-3.60		1.687e-02		127.376		4.354e-03		14.613
1		0.00		-3.20		1.629e-02		126.831		4.032e-03		11.514
1		0.00		-2.80		1.599e-02		127.249		3.754e-03		12.565
1		0.00		-2.40		1.587e-02		126.801		3.702e-03		11.306
1		0.00		-2.00		1.518e-02		125.031		3.611e-03		10.066
1		0.00		-1.60		1.511e-02		125.172		3.302e-03		9.449
1		0.00		-1.20		1.476e-02		127.657		3.009e-03		7.459
1		0.00		-0.80		1.458e-02		124.829		2.771e-03		9.620
1		0.00		-0.40		1.418e-02		126.442		2.682e-03		10.262
2		0.00		0.00		1.418e-02		128.245		2.563e-03		10.103
2		0.00		0.40		1.353e-02		127.640		2.402e-03		8.798
2		0.00		0.80		1.293e-02		128.832		2.482e-03		9.356
2		0.00		1.20		1.254e-02		123.965		2.542e-03		9.489
2		0.00		1.60		1.155e-02		131.169		2.622e-03		11.061
2		0.00		2.00		1.067e-02		128.926		2.296e-03		12.805
2		0.00		2.40		9.915e-03		129.708		2.235e-03		10.857
2		0.00		2.80		8.413e-03		126.615		2.071e-03		13.935
2		0.00		3.20		7.594e-03		130.563		2.159e-03		15.604
2		0.00		3.60		6.387e-03		124.192		1.726e-03		16.174
2		0.00		4.00		5.097e-03		122.733		1.639e-03		23.441
2		0.00		4.40		4.000e-03		110.851		1.341e-03		53.056
2		0.00		4.80		3.290e-03		115.718		1.125e-03		44.008
2		0.00		5.20		1.849e-03		-31.668		7.022e-04		76.769
2		0.00		5.60		2.460e-03		-58.759		9.124e-04		43.116
2		0.00		6.00		3.921e-03		-60.894		1.402e-03		24.551
2		0.00		6.40		5.650e-03		-56.756		1.603e-03		16.957
2		0.00		6.80		7.980e-03		-52.489		2.018e-03		12.601
2		0.00		7.20		1.167e-02		-52.419		2.655e-03		10.458
2		0.00		7.60		1.498e-02		-51.236		3.182e-03		10.933
2		0.00		8.00		1.878e-02		-52.346		3.802e-03		8.334
2		0.00		8.40		2.280e-02		-54.080		4.731e-03		7.289
2		0.00		8.80		3.017e-02		-52.851		6.282e-03		7.492
2		0.00		9.20		3.451e-02		-51.137		6.903e-03		6.057
2		0.00		9.60		4.012e-02		-51.551		7.825e-03		5.446
2		0.00		10.00		4.400e-02		-52.197		8.663e-03		5.865
2		0.00		9.60		4.737e-02		-52.529		9.600e-03		6.197
2		0.00		9.20		4.762e-02		-50.659		8.782e-03		5.688
2		0.00		8.80		4.724e-02		-50.858		8.423e-03		6.571
2		0.00		8.40		4.789e-02		-50.204		8.787e-03		6.145
2		0.00		8.00		4.822e-02		-49.498		8.307e-03		5.696
2		0.00		7.60		4.836e-02		-50.134		8.220e-03		7.003
2		0.00		7.20		4.802e-02		-49.004		8.259e-03		6.444
2		0.00		6.80		4.704e-02		-49.937		8.704e-03		5.544
2		0.00		6.40		4.626e-02		-49.173		9.239e-03		7.364
2		0.00		6.00		4.664e-02		-50.747		9.270e-03		6.414
2		0.00		5.60		4.523e-02		-49.394		9.253e-03		6.813
2		0.00		5.20		4.514e-02		-50.058		9.641e-03		7.010
2		0.00		4.80		4.469e-02		-50.296		9.815e-03		7.397
2		0.00		4.40		4.480e-02		-51.310		1.029e-02		6.448
2		0.00		4.00		4.419e-02		-50.044		1.041e-02		7.127
2		0.00		3.60		4.419e-02		-51.029		1.003e-02		9.224
2		0.00		3.20		4.272e-02		-50.762		1.097e-02		10.290
2		0.00		2.80		4.283e-02		-51.128		1.075e-02		10.531
2		0.00		2.40		4.241e-02		-51.262		1.049e-02		8.522
2		0.00		2.00		4.260e-02		-51.712		1.084e-02		9.816
2		0.00		1.60		4.190e-02		-49.809		1.050e-02		9.375
2		0.00		1.20		4.244e-02		-53.086		1.096e-02		10.002
2		0.00		0.80		4.305e-02		-51.978		1.033e-02		7.998
2		0.00		0.40		4.247e-02		-52.108		1.033e-02		9.197
2		0.00		0.00		4.238e-02		-51.168		9.650e-03		8.526
2		0.00		-0.40		4.295e-02		-51.790		9.878e-03		8.190
2		0.00		-0.80		4.312e-02		-51.130		9.652e-03		7.795
2		0.00		-1.20		4.283e-02		-51.667		9.259e-03		5.852
2		0.00		-1.60		4.255e-02		-51.990		8.940e-03		6.713
2		0.00		-2.00		4.256e-02		-52.111		8.728e-03		5.748
2		0.00		-2.40		4.181e-02		-52.374		8.707e-03		7.005
2		0.00		-2.80		4.023e-02		-52.180		8.276e-03		7.460
2		0.00		-3.20		3.825e-02		-52.633		7.372e-03		7.160
2		0.00		-3.60		3.556e-02		-51.721		7.313e-03		5.977
2		0.00		-4.00		3.237e-02		-51.457		6.915e-03		6.317
2		0.00		-4.40		2.782e-02		-50.028		5.920e-03		7.057
2		0.00		-4.80		2.330e-02		-51.695		5.164e-03		9.315
2		0.00		-5.20		1.791e-02		-50.652		4.041e-03		10.232
2		0.00		-5.60		1.366e-02		-52.040		3.023e-03		11.700
2		0.00		-6.00		8.284e-03		-43.577		2.142e-03		13.264
2		0.00		-6.40		4.451e-03		-42.421		1.688e-03		23.436
2		0.00		-6.80		2.168e-03		56.919		9.999e-04		62.080
2		0.00		-7.20		6.138e-03		111.401		1.949e-03		16.609
2		0.00		-7.60		9.039e-03		120.915		2.290e-03		13.001
2		0.00		-8.00		1.193e-02		123.404		2.206e-03		11.329
2		0.00		-8.40		1.390e-02		125.217		2.715e-03		10.051
2		0.00		-8.80		1.551e-02		125.999		3.148e-03		10.349
2		0.00		-9.20		1.695e-02		125.370		3.058e-03		7.619
2		0.00		-9.60		1.798e-02		125.643		3.594e-03		7.943
2		0.00		-10.00		1.975e-02		127.271		3.658e-03		8.795
2		0.00		-9.60		1.971e-02		126.322		3.695e-03		8.302
2		0.00		-9.20		2.007e-02		124.969		3.838e-03		9.578
2		0.00		-8.80		1.948e-02		128.032		3.873e-03		8.753
2		0.00		-8.40		1.938e-02		125.153		4.257e-03		11.716
2		0.00		-8.00		1.971e-02		126.379		4.505e-03		10.332
2		0.00		-7.60		1.851e-02		125.845		4.293e-03		12.189
2		0.00		-7.20		1.796e-02		125.279		4.525e-03		12.840
2		0.00		-6.80		1.751e-02		124.171		4.339e-03		13.367
2		0.00		-6.40		1.688e-02		124.375		4.313e-03		16.432
2		0.00		-6.00		1.629e-02		124.724		4.060e-03		15.993
2		0.00		-5.60		1.536e-02		125.154		4.040e-03		13.952
2		0.00		-5.20		1.525e-02		124.317		3.796e-03		14.466
2		0.00		-4.80		1.439e-02		124.709		3.783e-03		13.928
2		0.00		-4.40		1.374e-02		126.993		3.318e-03		13.385
2		0.00		-4.00		1.360e-02		125.865		3.381e-03		10.975
2		0.00		-3.60		1.273e-02		126.239		3.231e-03		13.064
2		0.00		-3.20		1.217e-02		126.492		2.716e-03		9.980
2		0.00		-2.80		1.149e-02		126.249		2.401e-03		11.553
2		0.00		-2.40		1.162e-02		123.921		2.745e-03		11.958
2		0.00		-2.00		1.108e-02		125.061		2.658e-03		12.010
2		0.00		-1.60		1.071e-02		125.192		2.428e-03		13.154
2		0.00		-1.20		1.035e-02		124.850		2.575e-03		10.542
2		0.00		-0.80		9.830e-03		126.827		2.350e-03		11.112
2		0.00		-0.40		9.774e-03		124.907		2.199e-03		11.356
3		0.00		0.00		9.234e-03		124.199		2.421e-03		10.738
3		0.00		0.40		8.687e-03		123.868		1.882e-03		10.561
3		0.00		0.80		8.811e-03		123.542		2.291e-03		12.972
3		0.00		1.20		7.779e-03		128.127		1.828e-03		12.489
3		0.00		1.60		7.113e-03		124.096		1.727e-03		16.316
3		0.00		2.00		6.607e-03		125.185		1.631e-03		13.859
3		0.00		2.40		5.787e-03		123.428		1.640e-03		15.410
3		0.00		2.80		4.955e-03		115.462		1.325e-03		46.432
3		0.00		3.20		4.433e-03		123.936		1.457e-03		31.265
3		0.00		3.60		3.185e-03		110.516		1.121e-03		54.727
3		0.00		4.00		2.075e-03		57.386		8.805e-04		79.277
3		0.00		4.40		1.823e-03		-23.582		7.313e-04		84.271
3		0.00		4.80		3.027e-03		-55.587		1.069e-03		29.895
3		0.00		5.20		6.422e-03		-52.486		1.612e-03		15.458
3		0.00		5.60		8.825e-03		-52.916		1.908e-03		17.262
3		0.00		6.00		1.075e-02		-52.985		2.378e-03		16.086
3		0.00		6.40		1.416e-02		-51.004		3.108e-03		12.536
3		0.00		6.80		1.567e-02		-48.361		3.534e-03		10.556
3		0.00		7.20		1.680e-02		-52.476		4.207e-03		10.853
3		0.00		7.60		1.833e-02		-53.196		4.540e-03		11.074
3		0.00		8.00		2.083e-02		-52.022		5.209e-03		11.322
3		0.00		8.40		2.267e-02		-52.893		5.683e-03		11.356
3		0.00		8.80		2.557e-02		-52.825		6.405e-03		9.480
3		0.00		9.20		3.004e-02		-51.358		7.534e-03		8.259
3		0.00		9.60		3.360e-02		-51.616		8.393e-03		9.621
3		0.00		10.00		3.796e-02		-51.746		9.323e-03		8.633
3		0.00		9.60		4.023e-02		-51.710		1.028e-02		10.148
3		0.00		9.20		4.134e-02		-51.256		1.008e-02		9.674
3		0.00		8.80		4.235e-02		-50.645		9.613e-03		8.145
3		0.00		8.40		4.255e-02		-51.916		1.026e-02		10.226
3		0.00		8.00		4.218e-02		-53.378		9.970e-03		8.725
3		0.00		7.60		4.174e-02		-52.443		9.744e-03		8.330
3		0.00		7.20		4.153e-02		-52.895		9.553e-03		9.551
3		0.00		6.80		4.115e-02		-51.839		9.282e-03		8.105
3		0.00		6.40		4.068e-02		-51.971		9.380e-03		7.202
3		0.00		6.00		3.991e-02		-52.065		8.688e-03		7.759
3		0.00		5.60		4.008e-02		-53.023		8.555e-03		6.917
3		0.00		5.20		3.963e-02		-52.598		8.566e-03		6.763
3		0.00		4.80		3.943e-02		-53.021		8.803e-03		6.499
3		0.00		4.40		3.772e-02		-52.670		8.053e-03		6.482
3		0.00		4.00		3.787e-02		-52.631		8.095e-03		6.961
3		0.00		3.60		3.739e-02		-52.064		7.492e-03		6.027
3		0.00		3.20		3.707e-02		-52.787		7.275e-03		5.611
3		0.00		2.80		3.714e-02		-52.085		7.385e-03		5.896
3		0.00		2.40		3.677e-02		-52.020		7.110e-03		6.186
3		0.00		2.00		3.721e-02		-51.696		7.213e-03		6.317
3		0.00		1.60		3.736e-02		-50.584		6.526e-03		5.890
3		0.00		1.20		3.769e-02		-50.240		6.253e-03		5.355
3		0.00		0.80		3.712e-02		-51.748		6.265e-03		6.718
3		0.00		0.40		3.773e-02		-49.922		5.978e-03		6.566
3		0.00		0.00		3.748e-02		-51.242		5.773e-03		6.400
3		0.00		-0.40		3.744e-02		-50.601		6.222e-03		6.357
3		0.00		-0.80		3.756e-02		-50.162		6.052e-03		6.139
3		0.00		-1.20		3.744e-02		-50.844		6.310e-03		6.075
3		0.00		-1.60		3.665e-02		-51.013		6.020e-03		6.646
3		0.00		-2.00		3.567e-02		-51.293		5.684e-03		5.911
3		0.00		-2.40		3.439e-02		-49.626		5.647e-03		7.168
3		0.00		-2.80		3.296e-02		-52.053		5.624e-03		6.849
3		0.00		-3.20		3.178e-02		-49.565		5.444e-03		6.915
3		0.00		-3.60		2.982e-02		-50.077		5.195e-03		7.751
3		0.00		-4.00		2.711e-02		-50.128		4.838e-03		7.814
3		0.00		-4.40		2.344e-02		-50.660		4.418e-03		6.995
3		0.00		-4.80		1.862e-02		-47.001		3.417e-03		8.686
3		0.00		-5.20		1.270e-02		-48.494		2.641e-03		10.814
3		0.00		-5.60		8.836e-03		-47.313		2.163e-03		16.035
3		0.00		-6.00		5.534e-03		-47.758		1.845e-03		19.477
3		0.00		-6.40		2.095e-03		-31.053		9.471e-04		51.557
3		0.00		-6.80		2.699e-03		75.509		1.215e-03		56.529
3		0.00		-7.20		4.899e-03		116.870		1.866e-03		28.681
3		0.00		-7.60		7.897e-03		127.643		2.109e-03		16.415
3		0.00		-8.00		1.078e-02		126.858		2.483e-03		13.047
3		0.00		-8.40		1.167e-02		125.847		2.534e-03		13.210
3		0.00		-8.80		1.425e-02		125.412		3.169e-03		12.602
3		0.00		-9.20		1.641e-02		125.066		3.507e-03		10.241
3		0.00		-9.60		1.767e-02		127.507		3.791e-03		9.042
3		0.00		-10.00		1.913e-02		124.850		4.321e-03		9.690
3		0.00		-9.60		1.923e-02		124.338		4.617e-03		12.420
3		0.00		-9.20		1.907e-02		124.865		4.792e-03		12.940
3		0.00		-8.80		1.917e-02		125.395		4.990e-03		11.524
3		0.00		-8.40		1.869e-02		126.011		4.894e-03		11.556
3		0.00		-8.00		1.786e-02		126.315		4.678e-03		16.261
3		0.00		-7.60		1.693e-02		125.699		4.263e-03		14.924
3		0.00		-7.20		1.663e-02		125.493		4.490e-03		16.127
3		0.00		-6.80		1.632e-02		124.802		4.300e-03		15.086
3		0.00		-6.40		1.564e-02		125.270		3.864e-03		16.489
3		0.00		-6.00		1.498e-02		125.772		3.822e-03		16.770
3		0.00		-5.60		1.440e-02		125.901		3.493e-03		15.856
3		0.00		-5.20		1.344e-02		123.766		3.245e-03		13.736
3		0.00		-4.80		1.318e-02		125.390		3.033e-03		13.949
3		0.00		-4.40		1.243e-02		124.967		3.067e-03		13.197
3		0.00		-4.00		1.156e-02		122.510		2.918e-03		16.331
3		0.00		-3.60		1.137e-02		122.560		2.715e-03		17.423
3		0.00		-3.20		1.062e-02		124.911		2.499e-03		14.797
3		0.00		-2.80		9.936e-03		124.426		2.442e-03		15.031
3		0.00		-2.40		9.740e-03		128.629		2.478e-03		15.945
3		0.00		-2.00		9.289e-03		125.531		2.517e-03		13.731
3		0.00		-1.60		8.560e-03		123.369		2.326e-03		15.581
3		0.00		-1.20		7.984e-03		125.557		2.228e-03		16.843
3		0.00		-0.80		8.145e-03		123.120		2.177e-03		14.641
3		0.00		-0.40		7.582e-03		125.297		2.247e-03		18.550
4		0.00		0.00		7.102e-03		122.608		1.996e-03		19.613
4		0.00		0.40		6.702e-03		123.800		2.134e-03		19.530
4		0.00		0.80		6.196e-03		117.364		1.754e-03		20.957
4		0.00		1.20		5.984e-03		124.847		1.886e-03		13.258
4		0.00		1.60		5.517e-03		118.903		1.524e-03		19.920
4		0.00		2.00		4.986e-03		116.715		1.544e-03		26.217
4		0.00		2.40		4.020e-03		120.160		1.554e-03		28.659
4		0.00		2.80		3.903e-03		119.699		1.287e-03		26.808
4		0.00		3.20		3.025e-03		96.483		1.014e-03		52.380
4		0.00		3.60		2.217e-03		59.138		9.777e-04		83.958
4		0.00		4.00		1.623e-03		-1.345		7.253e-04		74.418
4		0.00		4.40		2.021e-03		-47.219		8.739e-04		58.726
4		0.00		4.80		2.730e-03		-66.868		1.048e-03		43.857
4		0.00		5.20		4.360e-03		-42.627		1.214e-03		24.746
4		0.00		5.60		7.067e-03		-51.678		1.697e-03		16.690
4		0.00		6.00		8.302e-03		-53.198		2.138e-03		15.719
4		0.00		6.40		9.637e-03		-52.165		2.119e-03		13.904
4		0.00		6.80		1.106e-02		-52.653		2.341e-03		13.116
4		0.00		7.20		1.423e-02		-50.339		2.786e-03		12.298
4		0.00		7.60		1.572e-02		-51.666		2.967e-03		8.817
4		0.00		8.00		1.781e-02		-52.653		3.271e-03		10.007
4		0.00		8.40		2.080e-02		-50.780		3.457e-03		8.928
4		0.00		8.80		2.371e-02		-50.948		4.184e-03		9.386
4		0.00		9.20		2.847e-02		-50.656		4.786e-03		5.994
4		0.00		9.60		3.251e-02		-51.195		5.154e-03		7.880
4		0.00		10.00		3.658e-02		-51.584		5.601e-03		5.987
4		0.00		9.60		3.892e-02		-52.872		6.328e-03		6.333
4		0.00		9.20		3.908e-02		-51.042		6.254e-03		6.368
4		0.00		8.80		4.004e-02		-51.993		6.679e-03		6.447
4		0.00		8.40		3.955e-02		-51.427		6.565e-03		5.414
4		0.00		8.00		3.926e-02		-51.526		6.517e-03		6.439
4		0.00		7.60		3.869e-02		-51.683		6.629e-03		6.539
4		0.00		7.20		3.907e-02		-52.085		6.363e-03		6.669
4		0.00		6.80		3.890e-02		-51.020		6.808e-03		5.020
4		0.00		6.40		3.803e-02		-51.753		7.144e-03		6.028
4		0.00		6.00		3.751e-02		-51.894		7.030e-03		5.819
4		0.00		5.60		3.733e-02		-51.617		7.091e-03		5.983
4		0.00		5.20		3.709e-02		-52.549		7.281e-03		6.762
4		0.00		4.80		3.692e-02		-52.258		7.817e-03		6.511
4		0.00		4.40		3.609e-02		-52.125		7.920e-03		6.740
4		0.00		4.00		3.543e-02		-52.073		8.055e-03		7.755
4		0.00		3.60		3.588e-02		-51.482		8.327e-03		8.454
4		0.00		3.20		3.544e-02		-51.023		8.208e-03		8.806
4		0.00		2.80		3.576e-02		-51.913		8.322e-03		9.347
4		0.00		2.40		3.519e-02		-51.324		8.074e-03		8.472
4		0.00		2.00		3.509e-02		-52.753		7.946e-03		9.691
4		0.00		1.60		3.475e-02		-50.017		7.837e-03		8.970
4		0.00		1.20		3.465e-02		-50.703		7.675e-03		8.253
4		0.00		0.80		3.518e-02		-50.744		7.548e-03		9.645
4		0.00		0.40		3.514e-02		-50.665		6.963e-03		8.503
4		0.00		0.00		3.560e-02		-48.868		6.706e-03		7.770
4		0.00		-0.40		3.537e-02		-49.460		6.494e-03		6.417
4		0.00		-0.80		3.463e-02		-49.718		6.499e-03		6.858
4		0.00		-1.20		3.429e-02		-50.826		6.406e-03		6.224
4		0.00		-1.60		3.337e-02		-49.090		5.962e-03		7.064
4		0.00		-2.00		3.347e-02		-52.101		6.024e-03		7.330
4		0.00		-2.40		3.274e-02		-52.760		5.986e-03		7.130
4		0.00		-2.80		3.167e-02		-51.848		5.655e-03		6.711
4		0.00		-3.20		3.024e-02		-52.794		5.775e-03		7.285
4		0.00		-3.60		2.858e-02		-50.984		5.614e-03		6.986
4		0.00		-4.00		2.656e-02		-51.308		5.372e-03		7.107
4		0.00		-4.40		2.323e-02		-51.217		4.517e-03		8.144
4		0.00		-4.80		1.920e-02		-47.949		4.340e-03		9.007
4		0.00		-5.20		1.397e-02		-48.568		3.457e-03		11.208
4		0.00		-5.60		1.003e-02		-48.614		2.522e-03		14.554
4		0.00		-6.00		5.540e-03		-45.936		1.737e-03		22.882
4		0.00		-6.40		2.876e-03		-29.770		1.194e-03		41.904
4		0.00		-6.80		2.181e-03		58.729		9.506e-04		70.637
4		0.00		-7.20		4.384e-03		104.996		1.616e-03		29.025
4		0.00		-7.60		6.858e-03		119.713		1.964e-03		18.396
4		0.00		-8.00		8.568e-03		122.891		2.390e-03		17.634
4		0.00		-8.40		1.087e-02		125.958		2.536e-03		10.771
4		0.00		-8.80		1.265e-02		124.071		2.605e-03		10.152
4		0.00		-9.20		1.427e-02		124.296		2.700e-03		10.743
4		0.00		-9.60		1.601e-02		124.440		3.360e-03		9.486
4		0.00		-10.00		1.671e-02		126.362		3.175e-03		8.940
4		0.00		-9.60		1.762e-02		125.074		3.509e-03		9.194
4		0.00		-9.20		1.790e-02		122.655		3.403e-03		9.039
4		0.00		-8.80		1.741e-02		124.939		3.317e-03		8.950
4		0.00		-8.40		1.734e-02		124.748		3.260e-03		8.450
4		0.00		-8.00		1.719e-02		125.454		3.450e-03		9.239
4		0.00		-7.60		1.609e-02		124.462		3.349e-03		8.772
4		0.00		-7.20		1.560e-02		127.029		3.293e-03		11.064
4		0.00		-6.80		1.488e-02		127.660		3.377e-03		12.339
4		0.00		-6.40		1.389e-02		127.315		3.347e-03		11.922
4		0.00		-6.00		1.334e-02		125.636		3.285e-03		13.219
4		0.00		-5.60		1.232e-02		125.970		2.778e-03		15.161
4		0.00		-5.20		1.192e-02		124.654		2.974e-03		14.694
4		0.00		-4.80		1.136e-02		125.597		2.663e-03		15.476
4		0.00		-4.40		1.051e-02		126.295		2.494e-03		15.665
4		0.00		-4.00		9.473e-03		124.817		2.380e-03		15.216
4		0.00		-3.60		9.240e-03		126.176		2.292e-03		12.766
4		0.00		-3.20		8.749e-03		124.189		2.288e-03		14.094
4		0.00		-2.80		8.089e-03		122.856		1.969e-03		13.829
4		0.00		-2.40		8.041e-03		125.626		1.869e-03		11.563
4		0.00		-2.00		7.583e-03		125.287		1.858e-03		14.652
4		0.00		-1.60		7.205e-03		120.218		1.810e-03		16.590
4		0.00		-1.20		6.948e-03		123.328		1.857e-03		12.317
4		0.00		-0.80		6.808e-03		126.992		1.707e-03		13.219
4		0.00		-0.40		6.546e-03		124.195		1.680e-03		18.423
5		0.00		0.00		5.712e-03		118.880		1.604e-03		17.481
5		0.00		0.40		5.789e-03		125.256		1.595e-03		15.959
5		0.00		0.80		5.301e-03		121.832		1.455e-03		15.605
5		0.00		1.20		5.077e-03		117.981		1.302e-03		17.634
5		0.00		1.60		4.222e-03		122.911		1.462e-03		27.317
5		0.00		2.00		3.885e-03		110.893		1.392e-03		40.189
5		0.00		2.40		3.363e-03		105.791		1.175e-03		39.288
5		0.00		2.80		2.679e-03		96.274		1.098e-03		49.718
5		0.00		3.20		1.986e-03		54.096		8.739e-04		76.506
5		0.00		3.60		1.704e-03		-14.287		7.760e-04		67.232
5		0.00		4.00		1.918e-03		-39.183		8.565e-04		54.885
5		0.00		4.40		3.056e-03		-52.068		1.103e-03		33.287
5		0.00		4.80		3.833e-03		-58.392		1.328e-03		27.169
5		0.00		5.20		5.064e-03		-51.882		1.578e-03		24.772
5		0.00		5.60		6.131e-03		-54.322		1.492e-03		18.589
5		0.00		6.00		7.035e-03		-54.212		1.843e-03		17.462
5		0.00		6.40		8.748e-03		-50.615		2.313e-03		13.587
5		0.00		6.80		1.073e-02		-51.553		2.482e-03		12.286
5		0.00		7.20		1.283e-02		-52.894		3.034e-03		11.414
5		0.00		7.60		1.591e-02		-51.899		3.595e-03		10.380
5		0.00		8.00		1.822e-02		-50.243		4.129e-03		10.375
5		0.00		8.40		2.034e-02		-51.499		4.772e-03		9.085
5		0.00		8.80		2.341e-02		-51.113		5.306e-03		8.520
5		0.00		9.20		2.605e-02		-52.594		6.151e-03		7.887
5		0.00		9.60		3.155e-02		-52.107		7.059e-03		8.350
5		0.00		10.00		3.559e-02		-53.336		8.146e-03		8.121
5		0.00		9.60		3.639e-02		-51.336		8.084e-03		7.846
5		0.00		9.20		3.728e-02		-51.788		8.498e-03		7.248
5		0.00		8.80		3.700e-02		-53.201		8.806e-03		7.168
5		0.00		8.40		3.736e-02		-52.390		8.464e-03		5.824
5		0.00		8.00		3.687e-02		-53.211		8.009e-03		6.949
5		0.00		7.60		3.661e-02		-53.387		7.706e-03		6.744
5		0.00		7.20		3.620e-02		-52.166		7.065e-03		5.491
5		0.00		6.80		3.573e-02		-52.358		6.994e-03		6.336
5		0.00		6.40		3.555e-02		-51.977		6.898e-03		6.666
5		0.00		6.00		3.533e-02		-52.310		6.277e-03		6.480
5		0.00		5.60		3.534e-02		-51.544		5.821e-03		5.139
5		0.00		5.20		3.601e-02		-50.540		5.803e-03		6.242
5		0.00		4.80		3.499e-02		-51.206		5.436e-03		5.809
5		0.00		4.40		3.485e-02		-51.468		5.465e-03		6.457
5		0.00		4.00		3.474e-02		-51.465		5.067e-03		6.982
5		0.00		3.60		3.428e-02		-50.113		5.370e-03		6.931
5		0.00		3.20		3.424e-02		-49.255		5.639e-03		7.223
5		0.00		2.80		3.347e-02		-50.945		6.157e-03		7.285
5		0.00		2.40		3.335e-02		-50.600		6.143e-03		7.589
5		0.00		2.00		3.329e-02		-49.516		6.188e-03		7.578
5		0.00		1.60		3.313e-02		-49.499		6.580e-03		8.128
5		0.00		1.20		3.234e-02		-52.063		7.252e-03		8.900
5		0.00		0.80		3.216e-02		-49.628		7.711e-03		9.059
5		0.00		0.40		3.206e-02		-51.485		7.732e-03		8.860
5		0.00		0.00		3.177e-02		-50.710		7.938e-03		9.205
5		0.00		-0.40		3.146e-02		-52.330		7.897e-03		9.451
5		0.00		-0.80		3.163e-02		-51.481		7.899e-03		8.917
5		0.00		-1.20		3.171e-02		-52.722		7.703e-03		9.302
5		0.00		-1.60		3.180e-02		-52.016		7.383e-03		6.721
5		0.00		-2.00		3.183e-02		-51.731		6.588e-03		6.898
5		0.00		-2.40		3.159e-02		-51.609		5.978e-03		7.086
5		0.00		-2.80		3.095e-02		-51.113		5.300e-03		6.551
5		0.00		-3.20		2.898e-02		-52.765		4.970e-03		6.040
5		0.00		-3.60		2.666e-02		-51.120		4.060e-03		7.557
5		0.00		-4.00		2.404e-02		-50.312		4.027e-03		7.502
5		0.00		-4.40		2.016e-02		-46.861		3.253e-03		8.216
5		0.00		-4.80		1.588e-02		-47.197		2.638e-03		10.343
5		0.00		-5.20		1.282e-02		-48.954		2.331e-03		9.834
5		0.00		-5.60		9.383e-03		-46.911		2.163e-03		16.190
5		0.00		-6.00		7.422e-03		-44.473		1.623e-03		16.141
5		0.00		-6.40		4.011e-03		-62.192		1.724e-03		27.128
5		0.00		-6.80		2.155e-03		-13.638		8.996e-04		58.739
5		0.00		-7.20		2.582e-03		68.186		1.210e-03		67.503
5		0.00		-7.60		5.673e-03		109.894		1.933e-03		25.276
5		0.00		-8.00		7.618e-03		122.019		2.324e-03		25.244
5		0.00		-8.40		8.820e-03		115.812		2.632e-03		22.162
5		0.00		-8.80		1.104e-02		121.146		3.312e-03		15.695
5		0.00		-9.20		1.293e-02		121.358		3.747e-03		14.682
5		0.00		-9.60		1.386e-02		123.541		3.944e-03		14.193
5		0.00		-10.00		1.557e-02		124.897		4.062e-03		10.721
5		0.00		-9.60		1.623e-02		124.897		4.023e-03		10.228
5		0.00		-9.20		1.623e-02		122.243		3.758e-03		8.234
5		0.00		-8.80		1.654e-02		124.897		3.400e-03		8.473
5		0.00		-8.40		1.598e-02		126.086		3.198e-03		9.044
5		0.00		-8.00		1.529e-02		124.805		2.905e-03		9.634
5		0.00		-7.60		1.457e-02		126.065		2.793e-03		8.500
5		0.00		-7.20		1.440e-02		125.985		2.718e-03		9.968
5		0.00		-6.80		1.396e-02		126.658		2.847e-03		9.325
5		0.00		-6.40		1.357e-02		124.511		2.882e-03		10.279
5		0.00		-6.00		1.257e-02		126.174		2.565e-03		11.169
5		0.00		-5.60		1.192e-02		125.754		2.628e-03		10.140
5		0.00		-5.20		1.059e-02		122.770		2.546e-03		15.947
5		0.00		-4.80		1.017e-02		127.405		2.630e-03		15.045
5		0.00		-4.40		9.527e-03		123.305		2.583e-03		14.287
5		0.00		-4.00		8.630e-03		124.185		2.597e-03		14.093
5		0.00		-3.60		8.566e-03		122.036		2.231e-03		15.916
5		0.00		-3.20		7.451e-03		119.629		1.901e-03		16.181
5		0.00		-2.80		7.064e-03		121.087		1.980e-03		14.964
5		0.00		-2.40		6.773e-03		128.704		1.761e-03		12.363
5		0.00		-2.00		6.415e-03		121.017		1.607e-03		15.001
5		0.00		-1.60		5.757e-03		120.315		1.595e-03		13.891
5		0.00		-1.20		5.428e-03		124.825		1.682e-03		16.709
5		0.00		-0.80		5.022e-03		126.477		1.405e-03		15.829
5		0.00		-0.40		5.123e-03		123.243		1.542e-03		25.831
6		0.00		0.00		4.412e-03		121.224		1.340e-03		20.097
6		0.00		0.40		4.364e-03		115.485		1.402e-03		32.634
6		0.00		0.80		4.125e-03		109.444		1.442e-03		33.234
6		0.00		1.20		3.559e-03		112.238		1.305e-03		45.086
6		0.00		1.60		3.331e-03		106.761		1.234e-03		52.447
6		0.00		2.00		2.831e-03		104.797		1.224e-03		44.010
6		0.00		2.40		2.317e-03		81.336		9.448e-04		58.461
6		0.00		2.80		1.930e-03		56.362		8.435e-04		71.652
6		0.00		3.20		1.701e-03		15.572		6.974e-04		70.620
6		0.00		3.60		1.888e-03		-32.507		7.658e-04		57.330
6		0.00		4.00		2.639e-03		-61.558		9.248e-04		39.994
6		0.00		4.40		3.562e-03		-51.243		1.307e-03		28.348
6		0.00		4.80		4.355e-03		-54.092		1.443e-03		28.211
6		0.00		5.20		5.548e-03		-59.899		1.673e-03		16.715
6		0.00		5.60		6.728e-03		-52.858		1.908e-03		17.222
6		0.00		6.00		8.107e-03		-55.683		2.235e-03		15.310
6		0.00		6.40		1.030e-02		-51.490		2.500e-03		12.058
6		0.00		6.80		1.332e-02		-49.800		2.956e-03		11.223
6		0.00		7.20		1.724e-02		-51.335		3.863e-03		9.633
6		0.00		7.60		1.934e-02		-51.909		3.844e-03		8.027
6		0.00		8.00		2.491e-02		-52.336		4.508e-03		7.889
6		0.00		8.40		2.630e-02		-50.007		4.370e-03		7.185
6		0.00		8.80		2.732e-02		-49.903		4.352e-03		6.524
6		0.00		9.20		2.883e-02		-50.618		4.657e-03		8.089
6		0.00		9.60		3.081e-02		-50.388		5.389e-03		7.543
6		0.00		10.00		3.333e-02		-49.960		6.454e-03		6.636
6		0.00		9.60		3.457e-02		-49.953		6.946e-03		7.860
6		0.00		9.20		3.432e-02		-50.358		8.363e-03		9.282
6		0.00		8.80		3.461e-02		-52.334		8.746e-03		10.029
6		0.00		8.40		3.480e-02		-51.516		9.062e-03		9.550
6		0.00		8.00		3.467e-02		-52.053		8.212e-03		8.792
6		0.00		7.60		3.465e-02		-52.735		7.483e-03		6.498
6		0.00		7.20		3.456e-02		-52.351		6.629e-03		5.757
6		0.00		6.80		3.470e-02		-50.857		5.923e-03		5.824
6		0.00		6.40		3.470e-02		-51.648		5.684e-03		6.628
6		0.00		6.00		3.446e-02		-51.050		5.689e-03		7.012
6		0.00		5.60		3.365e-02		-49.482		5.683e-03		7.591
6		0.00		5.20		3.333e-02		-49.334		6.107e-03		7.794
6		0.00		4.80		3.274e-02		-49.438		6.637e-03		9.584
6		0.00		4.40		3.199e-02		-48.584		6.921e-03		9.799
6		0.00		4.00		3.167e-02		-49.165		7.401e-03		8.740
6		0.00		3.60		3.174e-02		-50.467		7.278e-03		7.026
6		0.00		3.20		3.197e-02		-50.518		6.554e-03		7.043
6		0.00		2.80		3.222e-02		-51.500		5.811e-03		7.162
6		0.00		2.40		3.183e-02		-51.422		5.217e-03		6.261
6		0.00		2.00		3.176e-02		-51.105		5.040e-03		6.740
6		0.00		1.60		3.155e-02		-50.838		5.534e-03		7.330
6		0.00		1.20		3.039e-02		-49.326		5.848e-03		7.235
6		0.00		0.80		3.006e-02		-49.336		6.915e-03		6.980
6		0.00		0.40		2.992e-02		-49.990		7.283e-03		8.033
6		0.00		0.00		2.936e-02		-51.759		7.752e-03		11.331
6		0.00		-0.40		2.892e-02		-51.726		7.796e-03		9.767
6		0.00		-0.80		2.949e-02		-50.912		7.301e-03		6.737
6		0.00		-1.20		2.936e-02		-51.083		6.520e-03		6.306
6		0.00		-1.60		2.915e-02		-50.088		5.499e-03		7.573
6		0.00		-2.00		2.928e-02		-51.098		5.374e-03		7.164
6		0.00		-2.40		2.787e-02		-49.447		5.046e-03		8.528
6		0.00		-2.80		2.674e-02		-49.290		5.397e-03		8.781
6		0.00		-3.20		2.498e-02		-49.054		5.289e-03		8.744
6		0.00		-3.60		2.300e-02		-49.987		5.503e-03		9.889
6		0.00		-4.00		2.121e-02		-48.978		5.161e-03		9.628
6		0.00		-4.40		1.857e-02		-52.780		4.153e-03		9.263
6		0.00		-4.80		1.532e-02		-50.060		3.201e-03		9.825
6		0.00		-5.20		1.144e-02		-53.172		2.455e-03		12.309
6		0.00		-5.60		8.766e-03		-51.069		1.935e-03		11.844
6		0.00		-6.00		6.971e-03		-49.807		2.013e-03		14.961
6		0.00		-6.40		3.286e-03		-50.359		1.507e-03		31.826
6		0.00		-6.80		2.265e-03		-11.827		9.642e-04		67.116
6		0.00		-7.20		2.953e-03		80.821		1.510e-03		61.583
6		0.00		-7.60		5.529e-03		114.994		2.078e-03		22.240
6		0.00		-8.00		8.078e-03		119.105		2.501e-03		11.934
6		0.00		-8.40		9.577e-03		126.338		2.520e-03		11.457
6		0.00		-8.80		1.027e-02		120.610		2.534e-03		9.682
6		0.00		-9.20		1.243e-02		125.715		2.865e-03		8.388
6		0.00		-9.60		1.321e-02		125.992		3.337e-03		12.301
6		0.00		-10.00		1.408e-02		126.627		3.892e-03		15.808
6		0.00		-9.60		1.463e-02		128.814		4.296e-03		15.139
6		0.00		-9.20		1.504e-02		125.967		3.839e-03		10.619
6		0.00		-8.80		1.490e-02		125.591		3.470e-03		10.052
6		0.00		-8.40		1.521e-02		125.474		2.998e-03		8.600
6		0.00		-8.00		1.449e-02		123.063		3.041e-03		8.235
6		0.00		-7.60		1.357e-02		124.666		2.722e-03		9.507
6		0.00		-7.20		1.260e-02		127.064		2.781e-03		9.346
6		0.00		-6.80		1.176e-02		123.976		2.900e-03		12.994
6		0.00		-6.40		1.165e-02		126.220		3.240e-03		18.381
6		0.00		-6.00		1.089e-02		123.388		2.864e-03		13.702
6		0.00		-5.60		9.994e-03		122.378		2.489e-03		11.663
6		0.00		-5.20		9.427e-03		123.119		2.170e-03		10.865
6		0.00		-4.80		8.471e-03		123.085		1.939e-03		13.030
6		0.00		-4.40		7.317e-03		125.525		1.824e-03		13.573
6		0.00		-4.00		7.153e-03		122.794		2.042e-03		14.522
6		0.00		-3.60		5.905e-03		116.253		2.002e-03		28.786
6		0.00		-3.20		6.101e-03		120.968		1.786e-03		19.984
6		0.00		-2.80		5.242e-03		118.361		1.796e-03		28.491
6		0.00		-2.40		4.900e-03		120.085		1.708e-03		19.536
6		0.00		-2.00		4.584e-03		117.596		1.334e-03		17.583
6		0.00		-1.60		4.598e-03		118.868		1.416e-03		30.575
6		0.00		-1.20		4.053e-03		110.863		1.193e-03		30.317
6		0.00		-0.80		3.549e-03		110.600		1.239e-03		28.377
6		0.00		-0.40		3.511e-03		113.920		1.272e-03		41.066
7		0.00		0.00		3.484e-03		103.609		1.410e-03		42.753
7		0.00		0.40		3.393e-03		98.218		1.264e-03		34.079
7		0.00		0.80		2.954e-03		102.447		1.270e-03		45.864
7		0.00		1.20		2.440e-03		72.165		1.106e-03		58.661
7		0.00		1.60		2.255e-03		57.616		9.816e-04		70.387
7		0.00		2.00		1.835e-03		24.292		6.828e-04		84.143
7		0.00		2.40		1.763e-03		14.178		6.851e-04		79.891
7		0.00		2.80		1.883e-03		-27.340		7.882e-04		57.805
7		0.00		3.20		2.186e-03		-46.788		9.615e-04		43.964
7		0.00		3.60		2.670e-03		-49.587		1.080e-03		47.524
7		0.00		4.00		3.444e-03		-45.597		1.106e-03		24.641
7		0.00		4.40		4.328e-03		-46.558		1.516e-03		23.242
7		0.00		4.80		5.788e-03		-56.475		1.492e-03		18.984
7		0.00		5.20		6.798e-03		-51.463		1.684e-03		17.742
7		0.00		5.60		7.971e-03		-56.708		1.716e-03		14.266
7		0.00		6.00		9.392e-03		-48.833		1.863e-03		13.217
7		0.00		6.40		1.061e-02		-53.601		2.288e-03		11.106
7		0.00		6.80		1.158e-02		-51.821		2.873e-03		12.131
7		0.00		7.20		1.281e-02		-49.421		3.553e-03		14.656
7		0.00		7.60		1.471e-02		-50.741		3.620e-03		11.551
7		0.00		8.00		1.714e-02		-49.883		4.011e-03		7.475
7		0.00		8.40		2.008e-02		-50.997		4.058e-03		8.482
7		0.00		8.80		2.196e-02		-51.822		3.955e-03		7.874
7		0.00		9.20		2.500e-02		-50.445		4.541e-03		7.985
7		0.00		9.60		2.763e-02		-51.494		5.257e-03		7.891
7		0.00		10.00		3.282e-02		-48.382		6.499e-03		8.739
7		0.00		9.60		3.280e-02		-50.250		7.423e-03		9.682
7		0.00		9.20		3.430e-02		-51.446		8.290e-03		8.978
7		0.00		8.80		3.384e-02		-52.524		8.097e-03		9.583
7		0.00		8.40		3.429e-02		-52.775		8.005e-03		8.358
7		0.00		8.00		3.468e-02		-51.737		7.269e-03		6.674
7		0.00		7.60		3.414e-02		-51.981		6.271e-03		5.827
7		0.00		7.20		3.304e-02		-50.728		6.130e-03		6.857
7		0.00		6.80		3.277e-02		-51.434		6.496e-03		7.022
7		0.00		6.40		3.193e-02		-50.150		6.802e-03		8.218
7		0.00		6.00		3.169e-02		-50.874		7.716e-03		9.632
7		0.00		5.60		3.037e-02		-50.644		8.077e-03		10.306
7		0.00		5.20		3.049e-02		-50.769		8.356e-03		10.638
7		0.00		4.80		3.079e-02		-51.927		7.851e-03		8.770
7		0.00		4.40		3.049e-02		-52.521		6.443e-03		7.306
7		0.00		4.00		3.059e-02		-51.771		5.446e-03		6.729
7		0.00		3.60		3.031e-02		-50.933		4.954e-03		6.283
7		0.00		3.20		3.051e-02		-50.475		5.221e-03		6.904
7		0.00		2.80		3.033e-02		-48.794		5.534e-03		7.313
7		0.00		2.40		2.999e-02		-50.835		6.311e-03		8.979
7		0.00		2.00		2.968e-02		-49.707		6.735e-03		9.077
7		0.00		1.60		2.951e-02		-51.750		7.027e-03		9.147
7		0.00		1.20		2.939e-02		-51.436		6.492e-03		7.330
7		0.00		0.80		2.951e-02		-51.655		5.998e-03		7.523
7		0.00		0.40		2.932e-02		-51.964		5.197e-03		7.957
7		0.00		0.00		2.946e-02		-49.746		4.651e-03		7.216
7		0.00		-0.40		2.916e-02		-49.885		5.276e-03		6.548
7		0.00		-0.80		2.859e-02		-48.380		5.440e-03		7.112
7		0.00		-1.20		2.792e-02		-50.469		6.551e-03		8.997
7		0.00		-1.60		2.686e-02		-51.557		6.839e-03		10.319
7		0.00		-2.00		2.647e-02		-50.947		6.974e-03		10.484
7		0.00		-2.40		2.646e-02		-53.151		6.542e-03		8.893
7		0.00		-2.80		2.549e-02		-51.806		5.577e-03		7.553
7		0.00		-3.20		2.433e-02		-51.394		4.591e-03		7.033
7		0.00		-3.60		2.230e-02		-51.298		3.838e-03		8.159
7		0.00		-4.00		1.987e-02		-50.664		3.621e-03		8.596
7		0.00		-4.40		1.796e-02		-49.742		3.443e-03		9.564
7		0.00		-4.80		1.509e-02		-50.984		2.909e-03		9.751
7		0.00		-5.20		1.088e-02		-51.149		2.790e-03		11.903
7		0.00		-5.60		8.856e-03		-51.639		2.221e-03		16.242
7		0.00		-6.00		6.146e-03		-49.749		2.026e-03		17.807
7		0.00		-6.40		4.099e-03		-35.610		1.562e-03		24.450
7		0.00		-6.80		2.124e-03		26.055		8.479e-04		68.718
7		0.00		-7.20		3.136e-03		96.019		1.478e-03		48.615
7		0.00		-7.60		5.483e-03		119.290		1.829e-03		21.721
7		0.00		-8.00		7.287e-03		121.021		1.926e-03		16.799
7		0.00		-8.40		9.276e-03		126.374		2.285e-03		12.701
7		0.00		-8.80		1.046e-02		126.567		2.532e-03		10.924
7		0.00		-9.20		1.110e-02		122.962		3.346e-03		15.929
7		0.00		-9.60		1.212e-02		120.931		3.556e-03		18.030
7		0.00		-10.00		1.357e-02		123.358		3.809e-03		12.163
7		0.00		-9.60		1.426e-02		123.057		3.608e-03		9.477
7		0.00		-9.20		1.440e-02		123.456		3.394e-03		9.961
7		0.00		-8.80		1.438e-02		123.122		3.386e-03		8.493
7		0.00		-8.40		1.410e-02		124.084		2.984e-03		10.709
7		0.00		-8.00		1.425e-02		126.665		3.168e-03		10.475
7		0.00		-7.60		1.384e-02		122.870		3.251e-03		11.108
7		0.00		-7.20		1.316e-02		123.539		3.496e-03		16.651
7		0.00		-6.80		1.278e-02		126.984		3.281e-03		14.487
7		0.00		-6.40		1.218e-02		127.613		3.110e-03		10.872
7		0.00		-6.00		1.107e-02		126.124		2.697e-03		11.575
7		0.00		-5.60		1.042e-02		124.650		2.462e-03		10.567
7		0.00		-5.20		9.530e-03		124.120		2.230e-03		12.432
7		0.00		-4.80		8.537e-03		126.609		1.863e-03		11.236
7		0.00		-4.40		7.862e-03		123.600		1.886e-03		12.421
7		0.00		-4.00		7.208e-03		127.235		1.830e-03		16.866
7		0.00		-3.60		6.011e-03		122.526		1.689e-03		16.916
7		0.00		-3.20		6.021e-03		120.856		2.082e-03		21.617
7		0.00		-2.80		5.508e-03		118.411		1.559e-03		29.539
7		0.00		-2.40		4.800e-03		115.378		1.535e-03		23.642
7		0.00		-2.00		4.585e-03		113.690		1.546e-03		15.867
7		0.00		-1.60		3.982e-03		116.254		1.425e-03		33.518
7		0.00		-1.20		4.176e-03		113.725		1.514e-03		36.753
7		0.00		-0.80		3.941e-03		109.823		1.292e-03		24.618
7		0.00		-0.40		3.420e-03		109.872		1.184e-03		31.655
8		0.00		0.00		2.866e-03		92.926		1.115e-03		58.203
8		0.00		0.40		2.792e-03		98.849		9.999e-04		44.046
8		0.00		0.80		2.492e-03		85.960		1.053e-03		61.554
8		0.00		1.20		2.341e-03		83.350		8.253e-04		60.571
8		0.00		1.60		1.898e-03		42.237		8.296e-04		80.985
8		0.00		2.00		1.798e-03		33.052		6.987e-04		82.575
8		0.00		2.40		1.808e-03		5.119		6.820e-04		68.168
8		0.00		2.80		1.816e-03		-18.819		6.695e-04		56.710
8		0.00		3.20		2.217e-03		-43.182		9.944e-04		51.533
8		0.00		3.60		3.040e-03		-35.167		1.189e-03		36.427
8		0.00		4.00		3.541e-03		-55.794		1.328e-03		30.030
8		0.00		4.40		4.445e-03		-55.809		1.392e-03		21.611
8		0.00		4.80		5.558e-03		-48.406		1.438e-03		18.814
8		0.00		5.20		6.968e-03		-46.348		1.527e-03		14.418
8		0.00		5.60		7.712e-03		-49.393		1.911e-03		16.642
8		0.00		6.00		8.926e-03		-51.569		2.118e-03		12.710
8		0.00		6.40		1.004e-02		-54.260		2.633e-03		13.892
8		0.00		6.80		1.119e-02		-52.142		3.158e-03		12.013
8		0.00		7.20		1.291e-02		-53.051		3.476e-03		10.669
8		0.00		7.60		1.489e-02		-52.255		3.432e-03		8.178
8		0.00		8.00		1.693e-02		-52.826		3.580e-03		9.295
8		0.00		8.40		1.866e-02		-51.755		3.487e-03		10.363
8		0.00		8.80		2.145e-02		-50.662		3.747e-03		9.386
8		0.00		9.20		2.356e-02		-49.504		4.599e-03		8.980
8		0.00		9.60		2.625e-02		-50.101		5.591e-03		9.429
8		0.00		10.00		2.874e-02		-49.728		6.495e-03		9.152
8		0.00		9.60		3.062e-02		-51.121		7.332e-03		10.346
8		0.00		9.20		3.127e-02		-51.727		7.529e-03		10.946
8		0.00		8.80		3.221e-02		-54.184		6.972e-03		6.748
8		0.00		8.40		3.235e-02		-52.133		5.962e-03		6.724
8		0.00		8.00		3.229e-02		-49.726		5.679e-03		6.562
8		0.00		7.60		3.214e-02		-50.402		5.359e-03		7.054
8		0.00		7.20		3.112e-02		-50.749		5.681e-03		6.619
8		0.00		6.80		2.936e-02		-49.298		6.026e-03		9.567
8		0.00		6.40		2.952e-02		-51.946		6.866e-03		9.553
8		0.00		6.00		2.895e-02		-49.337		7.406e-03		9.050
8		0.00		5.60		2.854e-02		-50.947		7.633e-03		9.256
8		0.00		5.20		2.820e-02		-52.710		7.564e-03		10.114
8		0.00		4.80		2.834e-02		-50.961		7.044e-03		8.168
8		0.00		4.40		2.829e-02		-52.557		6.262e-03		6.541
8		0.00		4.00		2.832e-02		-50.344		5.624e-03		6.667
8		0.00		3.60		2.805e-02		-51.990		4.986e-03		7.416
8		0.00		3.20		2.797e-02		-49.425		5.335e-03		7.732
8		0.00		2.80		2.787e-02		-51.198		5.263e-03		7.303
8		0.00		2.40		2.719e-02		-49.003		5.650e-03		7.353
8		0.00		2.00		2.746e-02		-50.202		6.024e-03		9.004
8		0.00		1.60		2.701e-02		-49.658		6.536e-03		10.406
8		0.00		1.20		2.727e-02		-51.087		6.747e-03		10.936
8		0.00		0.80		2.720e-02		-49.795		6.538e-03		7.106
8		0.00		0.40		2.748e-02		-51.894		6.219e-03		6.861
8		0.00		0.00		2.769e-02		-51.305		5.366e-03		7.628
8		0.00		-0.40		2.730e-02		-52.982		5.139e-03		5.996
8		0.00		-0.80		2.703e-02		-50.643		4.751e-03		7.340
8		0.00		-1.20		2.672e-02		-48.970		5.322e-03		7.655
8		0.00		-1.60		2.610e-02		-49.583		5.892e-03		9.296
8		0.00		-2.00		2.528e-02		-50.249		6.441e-03		9.569
8		0.00		-2.40		2.485e-02		-51.826		6.602e-03		9.516
8		0.00		-2.80		2.355e-02		-51.275		6.515e-03		10.943
8		0.00		-3.20		2.257e-02		-51.546		6.011e-03		8.408
8		0.00		-3.60		2.137e-02		-53.020		5.366e-03		7.013
8		0.00		-4.00		1.952e-02		-53.474		4.498e-03		8.859
8		0.00		-4.40		1.724e-02		-54.475		3.909e-03		10.441
8		0.00		-4.80		1.461e-02		-51.982		2.920e-03		9.380
8		0.00		-5.20		1.141e-02		-50.004		2.461e-03		11.380
8		0.00		-5.60		7.685e-03		-46.192		2.123e-03		16.170
8		0.00		-6.00		4.843e-03		-46.331		1.791e-03		17.490
8		0.00		-6.40		3.047e-03		-40.996		1.406e-03		43.630
8		0.00		-6.80		2.336e-03		36.393		9.417e-04		69.870
8		0.00		-7.20		2.895e-03		80.123		1.357e-03		62.710
8		0.00		-7.60		5.400e-03		116.704		1.756e-03		24.532
8		0.00		-8.00		7.444e-03		123.503		2.223e-03		13.997
8		0.00		-8.40		8.495e-03		126.239		2.191e-03		13.722
8		0.00		-8.80		1.033e-02		123.276		2.567e-03		10.469
8		0.00		-9.20		1.201e-02		123.816		2.832e-03		10.567
8		0.00		-9.60		1.286e-02		124.501		2.723e-03		8.319
8		0.00		-10.00		1.329e-02		127.501		2.887e-03		9.924
8		0.00		-9.60		1.412e-02		126.531		2.980e-03		10.065
8		0.00		-9.20		1.467e-02		125.926		3.249e-03		9.114
8		0.00		-8.80		1.478e-02		128.106		3.488e-03		9.396
8		0.00		-8.40		1.379e-02		129.044		3.511e-03		13.276
8		0.00		-8.00		1.353e-02		125.739		3.668e-03		13.409
8		0.00		-7.60		1.362e-02		123.075		3.915e-03		18.552
8		0.00		-7.20		1.330e-02		123.368		3.752e-03		18.161
8		0.00		-6.80		1.228e-02		123.216		3.241e-03		16.913
8		0.00		-6.40		1.188e-02		121.989		2.983e-03		10.584
8		0.00		-6.00		1.132e-02		121.579		2.954e-03		12.444
8		0.00		-5.60		1.060e-02		121.003		2.478e-03		11.794
8		0.00		-5.20		9.876e-03		123.021		2.435e-03		10.717
8		0.00		-4.80		9.138e-03		125.543		2.088e-03		12.535
8		0.00		-4.40		8.344e-03		127.090		2.000e-03		10.657
8		0.00		-4.00		7.509e-03		127.247		1.883e-03		13.350
8		0.00		-3.60		7.002e-03		125.915		1.852e-03		13.989
8		0.00		-3.20		6.331e-03		122.987		1.723e-03		18.311
8		0.00		-2.80		6.257e-03		120.830		1.800e-03		19.415
8		0.00		-2.40		5.503e-03		120.746		1.820e-03		22.625
8		0.00		-2.00		5.504e-03		116.176		1.954e-03		28.113
8		0.00		-1.60		4.663e-03		106.548		1.627e-03		42.180
8		0.00		-1.20		4.407e-03		116.356		1.658e-03		35.550
8		0.00		-0.80		3.978e-03		116.567		1.500e-03		28.502
8		0.00		-0.40		3.637e-03		114.552		1.280e-03		29.556
