# Date of analysis: 2023-11-20 16;16
# 
# Loop index	Read Volt (V)	Write Volt (V)	Amplitude (a.u)	Phase (deg)	Sigma Amp (a.u)	Sigma Pha (deg)	
1		0.00		0.00		1.152e-02		-55.919		3.280e-03		15.930
1		0.00		0.40		1.147e-02		-53.688		3.281e-03		19.039
1		0.00		0.80		1.112e-02		-53.650		3.579e-03		17.239
1		0.00		1.20		1.087e-02		-52.135		3.686e-03		16.375
1		0.00		1.60		1.126e-02		-51.759		3.534e-03		15.531
1		0.00		2.00		1.141e-02		-55.112		3.397e-03		16.466
1		0.00		2.40		1.096e-02		-57.175		3.612e-03		21.772
1		0.00		2.80		1.119e-02		-54.478		3.766e-03		19.239
1		0.00		3.20		1.174e-02		-47.513		4.130e-03		18.124
1		0.00		3.60		1.224e-02		-54.856		4.115e-03		13.706
1		0.00		4.00		1.234e-02		-53.967		3.720e-03		18.853
1		0.00		4.40		1.282e-02		-55.366		4.098e-03		17.094
1		0.00		4.80		1.201e-02		-53.577		4.199e-03		21.655
1		0.00		5.20		1.329e-02		-48.954		4.752e-03		20.435
1		0.00		5.60		1.421e-02		-53.563		4.741e-03		12.922
1		0.00		6.00		1.461e-02		-53.242		4.231e-03		18.007
1		0.00		6.40		1.535e-02		-57.777		4.500e-03		16.645
1		0.00		6.80		1.599e-02		-55.196		5.090e-03		20.100
1		0.00		7.20		1.658e-02		-53.323		5.573e-03		17.949
1		0.00		7.60		1.777e-02		-55.627		5.310e-03		14.433
1		0.00		8.00		1.912e-02		-56.213		5.563e-03		16.841
1		0.00		8.40		2.018e-02		-57.483		5.989e-03		15.400
1		0.00		8.80		2.183e-02		-54.632		6.967e-03		17.906
1		0.00		9.20		2.389e-02		-53.308		8.170e-03		14.055
1		0.00		9.60		2.743e-02		-55.916		8.419e-03		12.189
1		0.00		10.00		2.933e-02		-54.931		9.147e-03		13.682
1		0.00		9.60		3.045e-02		-55.289		9.665e-03		14.892
1		0.00		9.20		3.043e-02		-53.445		1.133e-02		27.320
1		0.00		8.80		3.205e-02		-53.760		1.118e-02		12.152
1		0.00		8.40		3.213e-02		-54.823		9.311e-03		12.211
1		0.00		8.00		3.101e-02		-55.638		9.654e-03		15.419
1		0.00		7.60		3.112e-02		-56.688		1.021e-02		15.555
1		0.00		7.20		3.071e-02		-51.388		1.111e-02		16.715
1		0.00		6.80		3.176e-02		-54.908		1.023e-02		10.187
1		0.00		6.40		3.028e-02		-55.193		9.082e-03		12.559
1		0.00		6.00		2.904e-02		-55.244		9.669e-03		13.670
1		0.00		5.60		2.877e-02		-53.828		9.677e-03		21.121
1		0.00		5.20		2.934e-02		-52.763		9.545e-03		12.259
1		0.00		4.80		3.023e-02		-54.531		8.108e-03		10.411
1		0.00		4.40		2.862e-02		-56.255		7.988e-03		12.429
1		0.00		4.00		2.853e-02		-54.514		8.715e-03		14.474
1		0.00		3.60		2.831e-02		-51.653		9.137e-03		14.815
1		0.00		3.20		2.885e-02		-54.782		8.782e-03		11.017
1		0.00		2.80		2.943e-02		-53.705		7.506e-03		10.807
1		0.00		2.40		2.752e-02		-55.054		8.489e-03		14.088
1		0.00		2.00		2.782e-02		-54.383		8.512e-03		18.135
1		0.00		1.60		2.825e-02		-52.529		8.977e-03		14.803
1		0.00		1.20		2.863e-02		-55.374		8.279e-03		11.147
1		0.00		0.80		2.779e-02		-55.453		7.848e-03		12.852
1		0.00		0.40		2.670e-02		-54.663		8.813e-03		15.965
1		0.00		0.00		2.656e-02		-51.745		9.598e-03		16.804
1		0.00		-0.40		2.706e-02		-53.468		9.408e-03		10.551
1		0.00		-0.80		2.691e-02		-55.519		7.966e-03		11.882
1		0.00		-1.20		2.563e-02		-56.404		8.353e-03		14.766
1		0.00		-1.60		2.475e-02		-54.260		8.910e-03		18.391
1		0.00		-2.00		2.498e-02		-52.517		8.958e-03		17.218
1		0.00		-2.40		2.416e-02		-54.459		7.884e-03		13.483
1		0.00		-2.80		2.333e-02		-57.705		7.062e-03		14.417
1		0.00		-3.20		2.222e-02		-57.874		7.438e-03		15.238
1		0.00		-3.60		2.065e-02		-53.722		6.564e-03		16.363
1		0.00		-4.00		2.010e-02		-53.988		6.531e-03		12.673
1		0.00		-4.40		1.828e-02		-53.226		5.180e-03		12.896
1		0.00		-4.80		1.619e-02		-52.618		4.537e-03		13.706
1		0.00		-5.20		1.318e-02		-51.489		4.117e-03		14.353
1		0.00		-5.60		9.786e-03		-50.308		2.985e-03		18.325
1		0.00		-6.00		6.708e-03		-52.013		2.389e-03		19.740
1		0.00		-6.40		3.517e-03		-42.677		1.621e-03		39.343
1		0.00		-6.80		2.452e-03		39.575		9.809e-04		66.552
1		0.00		-7.20		4.005e-03		86.234		1.995e-03		59.904
1		0.00		-7.60		6.192e-03		110.039		2.494e-03		36.273
1		0.00		-8.00		8.712e-03		118.869		3.430e-03		19.598
1		0.00		-8.40		1.003e-02		121.185		3.578e-03		18.709
1		0.00		-8.80		1.148e-02		122.761		3.971e-03		14.191
1		0.00		-9.20		1.330e-02		122.902		4.710e-03		15.397
1		0.00		-9.60		1.407e-02		117.681		5.281e-03		23.783
1		0.00		-10.00		1.563e-02		124.843		5.367e-03		11.775
1		0.00		-9.60		1.650e-02		123.625		5.138e-03		11.024
1		0.00		-9.20		1.626e-02		123.294		4.966e-03		12.816
1		0.00		-8.80		1.598e-02		123.201		5.644e-03		16.189
1		0.00		-8.40		1.505e-02		118.468		5.153e-03		29.936
1		0.00		-8.00		1.540e-02		125.077		5.472e-03		14.976
1		0.00		-7.60		1.563e-02		123.684		4.651e-03		12.727
1		0.00		-7.20		1.543e-02		119.910		4.255e-03		11.221
1		0.00		-6.80		1.479e-02		125.478		4.047e-03		11.903
1		0.00		-6.40		1.425e-02		122.383		4.275e-03		23.903
1		0.00		-6.00		1.416e-02		127.809		4.633e-03		15.750
1		0.00		-5.60		1.406e-02		124.405		4.089e-03		10.998
1		0.00		-5.20		1.373e-02		122.934		3.984e-03		10.198
1		0.00		-4.80		1.290e-02		125.816		3.632e-03		15.085
1		0.00		-4.40		1.219e-02		120.363		3.909e-03		23.466
1		0.00		-4.00		1.219e-02		124.084		4.002e-03		22.743
1		0.00		-3.60		1.198e-02		124.290		3.508e-03		12.617
1		0.00		-3.20		1.108e-02		122.163		3.384e-03		12.796
1		0.00		-2.80		1.024e-02		123.391		3.351e-03		18.347
1		0.00		-2.40		9.929e-03		119.405		3.558e-03		30.947
1		0.00		-2.00		1.009e-02		124.470		3.522e-03		20.905
1		0.00		-1.60		9.777e-03		122.381		3.210e-03		13.204
1		0.00		-1.20		9.297e-03		123.460		3.333e-03		16.638
1		0.00		-0.80		9.454e-03		120.425		3.211e-03		14.793
1		0.00		-0.40		8.487e-03		118.141		3.043e-03		26.023
2		0.00		0.00		8.992e-03		123.617		3.155e-03		18.325
2		0.00		0.40		8.622e-03		123.068		2.863e-03		16.959
2		0.00		0.80		8.195e-03		122.313		2.787e-03		17.127
2		0.00		1.20		7.866e-03		124.487		2.577e-03		16.993
2		0.00		1.60		7.247e-03		120.435		2.251e-03		21.368
2		0.00		2.00		6.720e-03		122.188		2.371e-03		26.140
2		0.00		2.40		6.113e-03		126.603		2.099e-03		18.287
2		0.00		2.80		5.179e-03		121.226		1.736e-03		21.738
2		0.00		3.20		4.348e-03		113.148		1.588e-03		34.846
2		0.00		3.60		3.762e-03		119.154		1.444e-03		32.479
2		0.00		4.00		2.680e-03		80.279		1.096e-03		64.604
2		0.00		4.40		2.463e-03		64.696		1.066e-03		76.799
2		0.00		4.80		1.770e-03		-3.530		6.769e-04		88.753
2		0.00		5.20		1.870e-03		-17.939		7.679e-04		80.689
2		0.00		5.60		2.244e-03		-44.266		1.039e-03		50.411
2		0.00		6.00		2.812e-03		-41.060		1.255e-03		38.966
2		0.00		6.40		4.104e-03		-46.103		1.599e-03		31.297
2		0.00		6.80		5.264e-03		-59.348		1.986e-03		25.775
2		0.00		7.20		6.788e-03		-61.225		1.949e-03		19.435
2		0.00		7.60		8.612e-03		-55.288		2.433e-03		21.857
2		0.00		8.00		9.966e-03		-57.287		3.164e-03		17.028
2		0.00		8.40		1.205e-02		-61.431		4.062e-03		17.241
2		0.00		8.80		1.492e-02		-52.835		5.111e-03		19.025
2		0.00		9.20		1.819e-02		-53.639		5.895e-03		11.052
2		0.00		9.60		2.222e-02		-56.151		6.400e-03		9.927
2		0.00		10.00		2.494e-02		-55.859		6.943e-03		12.983
2		0.00		9.60		2.799e-02		-54.427		7.450e-03		12.857
2		0.00		9.20		2.817e-02		-53.483		8.045e-03		15.166
2		0.00		8.80		2.763e-02		-50.826		8.071e-03		15.524
2		0.00		8.40		2.878e-02		-54.371		8.581e-03		10.445
2		0.00		8.00		2.971e-02		-54.458		7.504e-03		9.036
2		0.00		7.60		2.962e-02		-54.779		7.082e-03		9.816
2		0.00		7.20		2.876e-02		-54.491		7.609e-03		12.641
2		0.00		6.80		2.810e-02		-53.266		7.768e-03		13.598
2		0.00		6.40		2.758e-02		-54.730		8.397e-03		13.818
2		0.00		6.00		2.758e-02		-52.797		8.771e-03		14.739
2		0.00		5.60		2.768e-02		-51.673		8.740e-03		8.625
2		0.00		5.20		2.679e-02		-54.848		7.669e-03		9.838
2		0.00		4.80		2.667e-02		-55.385		7.292e-03		11.686
2		0.00		4.40		2.618e-02		-54.714		7.273e-03		13.017
2		0.00		4.00		2.588e-02		-54.625		7.775e-03		13.890
2		0.00		3.60		2.532e-02		-52.662		8.303e-03		17.521
2		0.00		3.20		2.474e-02		-53.760		8.308e-03		15.401
2		0.00		2.80		2.537e-02		-53.909		8.245e-03		11.184
2		0.00		2.40		2.524e-02		-54.365		7.476e-03		10.569
2		0.00		2.00		2.491e-02		-54.060		6.645e-03		11.870
2		0.00		1.60		2.487e-02		-53.942		6.711e-03		13.766
2		0.00		1.20		2.466e-02		-52.909		6.593e-03		13.016
2		0.00		0.80		2.512e-02		-54.237		6.605e-03		11.462
2		0.00		0.40		2.413e-02		-51.898		6.947e-03		16.752
2		0.00		0.00		2.471e-02		-52.563		7.320e-03		14.192
2		0.00		-0.40		2.486e-02		-53.616		7.065e-03		10.911
2		0.00		-0.80		2.528e-02		-54.158		6.120e-03		9.478
2		0.00		-1.20		2.506e-02		-56.306		5.952e-03		9.959
2		0.00		-1.60		2.480e-02		-53.153		6.193e-03		12.106
2		0.00		-2.00		2.417e-02		-51.683		6.048e-03		10.840
2		0.00		-2.40		2.312e-02		-53.288		6.559e-03		13.727
2		0.00		-2.80		2.174e-02		-53.277		6.579e-03		15.969
2		0.00		-3.20		2.114e-02		-54.716		6.627e-03		13.966
2		0.00		-3.60		1.956e-02		-51.578		5.888e-03		10.847
2		0.00		-4.00		1.839e-02		-52.528		4.779e-03		10.572
2		0.00		-4.40		1.651e-02		-53.533		4.102e-03		9.742
2		0.00		-4.80		1.461e-02		-52.131		3.613e-03		12.447
2		0.00		-5.20		1.226e-02		-50.767		3.094e-03		14.001
2		0.00		-5.60		1.013e-02		-49.614		2.992e-03		13.168
2		0.00		-6.00		7.341e-03		-44.542		2.144e-03		17.029
2		0.00		-6.40		4.138e-03		-51.491		1.572e-03		21.453
2		0.00		-6.80		1.972e-03		-15.470		7.809e-04		57.875
2		0.00		-7.20		3.882e-03		99.460		1.530e-03		38.075
2		0.00		-7.60		6.102e-03		113.354		2.088e-03		27.833
2		0.00		-8.00		8.438e-03		118.083		2.411e-03		23.441
2		0.00		-8.40		1.065e-02		122.271		2.985e-03		14.143
2		0.00		-8.80		1.245e-02		122.167		3.395e-03		12.191
2		0.00		-9.20		1.306e-02		125.626		3.411e-03		14.123
2		0.00		-9.60		1.472e-02		122.962		4.164e-03		16.820
2		0.00		-10.00		1.587e-02		121.999		4.611e-03		20.621
2		0.00		-9.60		1.686e-02		122.608		4.919e-03		22.637
2		0.00		-9.20		1.668e-02		124.629		5.470e-03		18.468
2		0.00		-8.80		1.717e-02		123.817		5.000e-03		10.749
2		0.00		-8.40		1.727e-02		124.108		5.108e-03		9.017
2		0.00		-8.00		1.711e-02		126.449		4.552e-03		9.731
2		0.00		-7.60		1.697e-02		122.839		4.662e-03		11.337
2		0.00		-7.20		1.608e-02		121.853		4.403e-03		11.976
2		0.00		-6.80		1.557e-02		123.712		4.586e-03		13.068
2		0.00		-6.40		1.469e-02		124.813		4.439e-03		14.976
2		0.00		-6.00		1.441e-02		121.196		4.382e-03		20.563
2		0.00		-5.60		1.393e-02		124.361		4.622e-03		25.741
2		0.00		-5.20		1.332e-02		123.904		4.073e-03		19.858
2		0.00		-4.80		1.348e-02		126.669		4.348e-03		11.485
2		0.00		-4.40		1.329e-02		126.566		3.796e-03		11.355
2		0.00		-4.00		1.241e-02		123.635		3.094e-03		11.286
2		0.00		-3.60		1.263e-02		124.458		3.407e-03		10.952
2		0.00		-3.20		1.187e-02		125.481		3.080e-03		12.426
2		0.00		-2.80		1.175e-02		123.343		3.083e-03		9.745
2		0.00		-2.40		1.164e-02		129.874		2.956e-03		14.775
2		0.00		-2.00		1.135e-02		125.152		2.824e-03		14.735
2		0.00		-1.60		1.062e-02		122.831		3.002e-03		14.693
2		0.00		-1.20		1.058e-02		124.623		3.064e-03		20.950
2		0.00		-0.80		1.045e-02		120.898		3.132e-03		21.707
2		0.00		-0.40		1.036e-02		121.397		3.185e-03		23.274
3		0.00		0.00		9.900e-03		124.824		3.107e-03		22.633
3		0.00		0.40		9.959e-03		124.712		3.081e-03		12.730
3		0.00		0.80		1.001e-02		128.737		2.828e-03		11.569
3		0.00		1.20		9.115e-03		127.942		2.714e-03		11.799
3		0.00		1.60		8.856e-03		129.830		2.236e-03		10.948
3		0.00		2.00		8.318e-03		124.089		2.393e-03		13.493
3		0.00		2.40		6.900e-03		126.565		2.047e-03		14.355
3		0.00		2.80		6.442e-03		122.386		1.881e-03		16.995
3		0.00		3.20		5.743e-03		125.294		1.678e-03		17.441
3		0.00		3.60		4.682e-03		122.363		1.331e-03		29.095
3		0.00		4.00		3.883e-03		105.060		1.409e-03		42.076
3		0.00		4.40		3.369e-03		110.017		1.127e-03		44.029
3		0.00		4.80		2.534e-03		84.743		1.132e-03		73.175
3		0.00		5.20		1.829e-03		33.342		7.854e-04		80.495
3		0.00		5.60		2.011e-03		-34.801		8.295e-04		67.316
3		0.00		6.00		2.365e-03		-27.796		9.669e-04		56.695
3		0.00		6.40		3.272e-03		-51.760		1.479e-03		38.951
3		0.00		6.80		4.468e-03		-61.019		1.832e-03		25.608
3		0.00		7.20		6.135e-03		-48.946		2.060e-03		19.188
3		0.00		7.60		7.875e-03		-60.638		2.543e-03		16.500
3		0.00		8.00		9.355e-03		-54.645		2.747e-03		15.323
3		0.00		8.40		1.145e-02		-49.093		3.114e-03		13.193
3		0.00		8.80		1.391e-02		-57.278		3.656e-03		14.871
3		0.00		9.20		1.715e-02		-57.384		5.048e-03		14.481
3		0.00		9.60		2.037e-02		-55.011		5.837e-03		13.535
3		0.00		10.00		2.315e-02		-54.553		6.738e-03		12.095
3		0.00		9.60		2.484e-02		-55.594		7.507e-03		13.352
3		0.00		9.20		2.587e-02		-54.503		7.809e-03		12.743
3		0.00		8.80		2.689e-02		-53.588		7.549e-03		13.357
3		0.00		8.40		2.606e-02		-53.878		7.512e-03		14.722
3		0.00		8.00		2.632e-02		-52.627		7.492e-03		13.801
3		0.00		7.60		2.686e-02		-51.245		7.562e-03		11.793
3		0.00		7.20		2.632e-02		-51.675		7.419e-03		16.603
3		0.00		6.80		2.562e-02		-52.795		7.707e-03		13.032
3		0.00		6.40		2.605e-02		-50.814		7.669e-03		10.751
3		0.00		6.00		2.592e-02		-53.027		7.271e-03		10.920
3		0.00		5.60		2.586e-02		-51.763		6.954e-03		9.808
3		0.00		5.20		2.547e-02		-52.736		6.948e-03		10.214
3		0.00		4.80		2.546e-02		-54.244		6.632e-03		9.650
3		0.00		4.40		2.502e-02		-53.509		6.186e-03		9.645
3		0.00		4.00		2.502e-02		-53.558		5.700e-03		10.454
3		0.00		3.60		2.536e-02		-54.200		5.745e-03		9.299
3		0.00		3.20		2.541e-02		-54.068		5.785e-03		10.284
3		0.00		2.80		2.469e-02		-53.323		5.812e-03		10.934
3		0.00		2.40		2.445e-02		-55.117		5.988e-03		11.083
3		0.00		2.00		2.404e-02		-54.993		5.719e-03		10.718
3		0.00		1.60		2.410e-02		-52.559		6.016e-03		11.843
3		0.00		1.20		2.430e-02		-54.438		5.812e-03		11.350
3		0.00		0.80		2.311e-02		-52.414		5.655e-03		12.021
3		0.00		0.40		2.393e-02		-51.347		6.106e-03		12.323
3		0.00		0.00		2.364e-02		-51.633		5.936e-03		13.127
3		0.00		-0.40		2.359e-02		-53.546		6.485e-03		15.601
3		0.00		-0.80		2.303e-02		-53.339		6.354e-03		14.392
3		0.00		-1.20		2.279e-02		-53.344		6.295e-03		17.314
3		0.00		-1.60		2.239e-02		-52.234		6.420e-03		16.669
3		0.00		-2.00		2.222e-02		-51.548		6.301e-03		16.552
3		0.00		-2.40		2.217e-02		-51.393		6.412e-03		18.550
3		0.00		-2.80		2.135e-02		-49.374		6.481e-03		14.311
3		0.00		-3.20		2.064e-02		-53.275		6.729e-03		16.968
3		0.00		-3.60		1.932e-02		-53.155		6.394e-03		11.376
3		0.00		-4.00		1.787e-02		-51.458		5.775e-03		11.383
3		0.00		-4.40		1.643e-02		-52.032		5.220e-03		12.424
3		0.00		-4.80		1.487e-02		-49.776		4.736e-03		12.415
3		0.00		-5.20		1.315e-02		-52.757		3.936e-03		15.649
3		0.00		-5.60		1.048e-02		-51.570		3.101e-03		13.543
3		0.00		-6.00		8.665e-03		-53.362		2.488e-03		15.552
3		0.00		-6.40		6.183e-03		-44.938		1.990e-03		20.145
3		0.00		-6.80		3.273e-03		-52.900		1.304e-03		32.942
3		0.00		-7.20		1.834e-03		25.500		6.678e-04		59.090
3		0.00		-7.60		4.214e-03		111.058		1.635e-03		32.631
3		0.00		-8.00		7.488e-03		120.401		2.489e-03		14.061
3		0.00		-8.40		1.004e-02		121.450		3.168e-03		17.009
3		0.00		-8.80		1.215e-02		120.869		3.271e-03		12.491
3		0.00		-9.20		1.343e-02		123.290		3.439e-03		11.298
3		0.00		-9.60		1.473e-02		124.696		3.961e-03		10.414
3		0.00		-10.00		1.633e-02		123.376		4.332e-03		9.848
3		0.00		-9.60		1.689e-02		126.103		4.062e-03		8.866
3		0.00		-9.20		1.706e-02		125.383		4.238e-03		10.643
3		0.00		-8.80		1.711e-02		123.987		4.121e-03		10.590
3		0.00		-8.40		1.696e-02		123.760		4.188e-03		10.161
3		0.00		-8.00		1.651e-02		125.596		4.243e-03		11.409
3		0.00		-7.60		1.668e-02		126.099		4.035e-03		9.604
3		0.00		-7.20		1.652e-02		124.967		4.220e-03		9.306
3		0.00		-6.80		1.583e-02		124.048		3.822e-03		10.406
3		0.00		-6.40		1.541e-02		123.700		3.425e-03		10.132
3		0.00		-6.00		1.493e-02		125.709		3.364e-03		10.266
3		0.00		-5.60		1.481e-02		126.319		3.221e-03		10.584
3		0.00		-5.20		1.501e-02		124.760		3.172e-03		8.828
3		0.00		-4.80		1.443e-02		125.006		3.320e-03		9.545
3		0.00		-4.40		1.357e-02		123.649		3.126e-03		10.061
3		0.00		-4.00		1.311e-02		126.456		3.027e-03		11.050
3		0.00		-3.60		1.263e-02		125.290		3.033e-03		12.292
3		0.00		-3.20		1.254e-02		124.735		2.747e-03		10.937
3		0.00		-2.80		1.257e-02		126.752		2.631e-03		9.945
3		0.00		-2.40		1.225e-02		127.011		2.902e-03		13.233
3		0.00		-2.00		1.184e-02		127.020		3.107e-03		10.460
3		0.00		-1.60		1.167e-02		121.914		3.105e-03		12.294
3		0.00		-1.20		1.159e-02		124.914		3.157e-03		13.214
3		0.00		-0.80		1.122e-02		126.885		2.978e-03		14.806
3		0.00		-0.40		1.083e-02		124.124		2.973e-03		14.059
4		0.00		0.00		1.033e-02		126.424		3.046e-03		17.952
4		0.00		0.40		1.033e-02		125.692		3.006e-03		17.707
4		0.00		0.80		9.669e-03		120.920		2.878e-03		19.601
4		0.00		1.20		9.333e-03		119.853		2.787e-03		19.939
4		0.00		1.60		8.736e-03		123.218		2.681e-03		23.198
4		0.00		2.00		8.074e-03		122.354		2.518e-03		22.771
4		0.00		2.40		7.418e-03		123.545		2.371e-03		19.117
4		0.00		2.80		6.464e-03		122.780		1.991e-03		29.695
4		0.00		3.20		6.075e-03		122.701		1.739e-03		20.336
4		0.00		3.60		5.176e-03		125.070		1.844e-03		23.892
4		0.00		4.00		4.318e-03		121.540		1.451e-03		28.898
4		0.00		4.40		3.573e-03		117.665		1.234e-03		43.158
4		0.00		4.80		2.326e-03		80.710		9.049e-04		71.866
4		0.00		5.20		1.887e-03		27.675		8.690e-04		90.197
4		0.00		5.60		1.797e-03		-10.455		8.857e-04		78.659
4		0.00		6.00		2.422e-03		-55.991		9.635e-04		49.436
4		0.00		6.40		2.848e-03		-51.597		1.116e-03		37.544
4		0.00		6.80		4.042e-03		-55.962		1.376e-03		24.567
4		0.00		7.20		5.647e-03		-54.012		1.674e-03		22.616
4		0.00		7.60		7.193e-03		-51.222		2.024e-03		20.562
4		0.00		8.00		8.317e-03		-54.423		2.349e-03		17.034
4		0.00		8.40		1.033e-02		-52.820		2.993e-03		14.698
4		0.00		8.80		1.247e-02		-51.621		3.900e-03		15.604
4		0.00		9.20		1.534e-02		-51.072		4.846e-03		15.553
4		0.00		9.60		1.875e-02		-54.840		5.750e-03		16.884
4		0.00		10.00		2.191e-02		-52.504		7.005e-03		12.141
4		0.00		9.60		2.438e-02		-54.415		6.785e-03		10.036
4		0.00		9.20		2.572e-02		-54.098		6.736e-03		9.463
4		0.00		8.80		2.611e-02		-53.845		5.972e-03		9.156
4		0.00		8.40		2.644e-02		-53.395		5.999e-03		10.008
4		0.00		8.00		2.658e-02		-53.470		6.122e-03		9.135
4		0.00		7.60		2.567e-02		-51.891		6.142e-03		11.056
4		0.00		7.20		2.624e-02		-53.031		6.260e-03		10.151
4		0.00		6.80		2.602e-02		-52.203		6.696e-03		11.613
4		0.00		6.40		2.578e-02		-51.956		6.876e-03		14.460
4		0.00		6.00		2.480e-02		-53.271		7.201e-03		12.619
4		0.00		5.60		2.485e-02		-51.072		7.831e-03		12.540
4		0.00		5.20		2.492e-02		-52.729		7.843e-03		9.008
4		0.00		4.80		2.476e-02		-54.155		6.977e-03		9.633
4		0.00		4.40		2.448e-02		-53.108		6.219e-03		9.187
4		0.00		4.00		2.463e-02		-53.475		6.092e-03		9.714
4		0.00		3.60		2.409e-02		-53.833		5.681e-03		9.612
4		0.00		3.20		2.383e-02		-54.987		6.094e-03		10.849
4		0.00		2.80		2.320e-02		-53.519		6.270e-03		12.031
4		0.00		2.40		2.319e-02		-51.783		6.277e-03		13.536
4		0.00		2.00		2.242e-02		-51.851		6.656e-03		18.116
4		0.00		1.60		2.271e-02		-52.283		6.465e-03		11.652
4		0.00		1.20		2.378e-02		-52.669		6.428e-03		9.298
4		0.00		0.80		2.355e-02		-54.813		5.487e-03		8.373
4		0.00		0.40		2.432e-02		-52.390		5.032e-03		9.309
4		0.00		0.00		2.338e-02		-54.344		5.208e-03		10.754
4		0.00		-0.40		2.400e-02		-52.682		5.223e-03		10.729
4		0.00		-0.80		2.271e-02		-51.053		5.995e-03		12.835
4		0.00		-1.20		2.252e-02		-50.032		6.092e-03		13.420
4		0.00		-1.60		2.249e-02		-50.268		6.368e-03		14.421
4		0.00		-2.00		2.181e-02		-52.368		5.785e-03		9.629
4		0.00		-2.40		2.199e-02		-52.163		5.191e-03		10.023
4		0.00		-2.80		2.077e-02		-53.538		4.819e-03		10.833
4		0.00		-3.20		2.035e-02		-52.465		5.030e-03		11.504
4		0.00		-3.60		1.860e-02		-53.359		5.223e-03		13.156
4		0.00		-4.00		1.714e-02		-49.835		4.972e-03		13.511
4		0.00		-4.40		1.647e-02		-52.641		4.962e-03		12.685
4		0.00		-4.80		1.465e-02		-50.030		3.781e-03		10.355
4		0.00		-5.20		1.303e-02		-53.271		3.340e-03		10.729
4		0.00		-5.60		1.092e-02		-48.890		2.675e-03		13.687
4		0.00		-6.00		8.224e-03		-52.585		2.377e-03		14.289
4		0.00		-6.40		5.570e-03		-43.564		1.993e-03		19.736
4		0.00		-6.80		3.880e-03		-42.772		1.383e-03		29.423
4		0.00		-7.20		1.887e-03		-10.822		7.128e-04		73.019
4		0.00		-7.60		3.281e-03		96.004		1.359e-03		43.753
4		0.00		-8.00		6.098e-03		120.745		1.844e-03		13.588
4		0.00		-8.40		8.780e-03		125.104		2.532e-03		18.994
4		0.00		-8.80		1.075e-02		120.513		3.309e-03		22.820
4		0.00		-9.20		1.238e-02		121.551		4.023e-03		19.743
4		0.00		-9.60		1.467e-02		123.654		4.222e-03		15.490
4		0.00		-10.00		1.613e-02		123.019		3.725e-03		9.974
4		0.00		-9.60		1.626e-02		125.586		3.775e-03		10.141
4		0.00		-9.20		1.630e-02		125.761		4.276e-03		11.462
4		0.00		-8.80		1.607e-02		122.590		4.798e-03		23.420
4		0.00		-8.40		1.643e-02		123.474		5.276e-03		12.793
4		0.00		-8.00		1.666e-02		123.493		4.598e-03		8.578
4		0.00		-7.60		1.631e-02		124.489		4.145e-03		9.305
4		0.00		-7.20		1.582e-02		126.871		4.013e-03		11.637
4		0.00		-6.80		1.484e-02		123.188		4.329e-03		18.491
4		0.00		-6.40		1.452e-02		124.235		4.686e-03		19.765
4		0.00		-6.00		1.494e-02		124.564		4.213e-03		10.445
4		0.00		-5.60		1.449e-02		128.021		3.505e-03		9.313
4		0.00		-5.20		1.472e-02		123.015		3.858e-03		10.821
4		0.00		-4.80		1.370e-02		124.223		3.522e-03		12.632
4		0.00		-4.40		1.303e-02		126.026		3.413e-03		15.147
4		0.00		-4.00		1.294e-02		123.390		3.316e-03		14.856
4		0.00		-3.60		1.283e-02		124.349		3.293e-03		9.706
4		0.00		-3.20		1.275e-02		124.467		3.074e-03		11.823
4		0.00		-2.80		1.221e-02		125.806		2.956e-03		11.120
4		0.00		-2.40		1.168e-02		124.824		3.003e-03		14.056
4		0.00		-2.00		1.162e-02		125.210		3.187e-03		20.090
4		0.00		-1.60		1.126e-02		124.855		2.862e-03		13.347
4		0.00		-1.20		1.138e-02		125.077		2.657e-03		10.389
4		0.00		-0.80		1.165e-02		125.155		2.629e-03		11.554
4		0.00		-0.40		1.092e-02		127.845		2.646e-03		14.632
5		0.00		0.00		1.028e-02		124.426		2.951e-03		20.959
5		0.00		0.40		1.014e-02		126.801		2.947e-03		14.786
5		0.00		0.80		1.007e-02		126.236		2.637e-03		9.502
5		0.00		1.20		9.563e-03		126.073		2.280e-03		11.189
5		0.00		1.60		9.416e-03		125.802		2.108e-03		11.378
5		0.00		2.00		7.958e-03		121.938		2.300e-03		15.527
5		0.00		2.40		7.607e-03		124.045		2.288e-03		29.387
5		0.00		2.80		6.807e-03		124.039		2.101e-03		30.207
5		0.00		3.20		6.096e-03		124.999		1.751e-03		16.033
5		0.00		3.60		5.295e-03		120.345		1.495e-03		17.717
5		0.00		4.00		4.477e-03		121.318		1.570e-03		28.467
5		0.00		4.40		3.603e-03		106.032		1.127e-03		42.195
5		0.00		4.80		2.783e-03		89.460		9.869e-04		56.142
5		0.00		5.20		2.391e-03		69.583		1.073e-03		68.907
5		0.00		5.60		1.696e-03		0.197		6.266e-04		81.589
5		0.00		6.00		1.751e-03		-15.191		6.857e-04		70.304
5		0.00		6.40		2.491e-03		-41.364		1.053e-03		39.841
5		0.00		6.80		4.095e-03		-44.792		1.245e-03		26.536
5		0.00		7.20		4.949e-03		-49.405		1.618e-03		19.036
5		0.00		7.60		6.329e-03		-52.738		2.038e-03		18.913
5		0.00		8.00		8.376e-03		-49.376		2.175e-03		14.893
5		0.00		8.40		1.019e-02		-53.327		2.625e-03		14.532
5		0.00		8.80		1.203e-02		-53.917		3.258e-03		14.606
5		0.00		9.20		1.444e-02		-52.420		4.424e-03		15.091
5		0.00		9.60		1.708e-02		-56.095		5.339e-03		18.596
5		0.00		10.00		2.047e-02		-53.288		6.290e-03		12.558
5		0.00		9.60		2.299e-02		-53.029		6.065e-03		8.619
5		0.00		9.20		2.342e-02		-54.084		5.925e-03		10.087
5		0.00		8.80		2.365e-02		-54.207		6.642e-03		12.929
5		0.00		8.40		2.364e-02		-54.044		7.092e-03		15.690
5		0.00		8.00		2.321e-02		-53.923		7.793e-03		16.751
5		0.00		7.60		2.349e-02		-53.376		7.466e-03		9.616
5		0.00		7.20		2.450e-02		-52.986		6.158e-03		9.789
5		0.00		6.80		2.431e-02		-54.246		5.566e-03		10.376
5		0.00		6.40		2.361e-02		-51.988		5.815e-03		11.465
5		0.00		6.00		2.277e-02		-50.641		6.033e-03		12.157
5		0.00		5.60		2.298e-02		-50.701		6.529e-03		14.029
5		0.00		5.20		2.337e-02		-51.863		6.309e-03		9.915
5		0.00		4.80		2.354e-02		-50.478		5.344e-03		8.911
5		0.00		4.40		2.300e-02		-53.232		4.915e-03		11.149
5		0.00		4.00		2.302e-02		-50.976		5.345e-03		11.580
5		0.00		3.60		2.234e-02		-51.834		5.897e-03		14.338
5		0.00		3.20		2.240e-02		-53.522		6.425e-03		14.468
5		0.00		2.80		2.195e-02		-52.016		6.118e-03		9.937
5		0.00		2.40		2.301e-02		-53.246		5.414e-03		9.150
5		0.00		2.00		2.259e-02		-50.972		5.136e-03		9.172
5		0.00		1.60		2.251e-02		-50.345		5.187e-03		10.760
5		0.00		1.20		2.214e-02		-51.997		5.788e-03		13.464
5		0.00		0.80		2.222e-02		-50.983		6.314e-03		11.544
5		0.00		0.40		2.207e-02		-51.933		5.978e-03		8.491
5		0.00		0.00		2.326e-02		-50.375		5.034e-03		9.410
5		0.00		-0.40		2.272e-02		-52.854		4.884e-03		11.168
5		0.00		-0.80		2.187e-02		-51.506		4.992e-03		10.619
5		0.00		-1.20		2.153e-02		-51.850		5.868e-03		15.631
5		0.00		-1.60		2.176e-02		-50.534		5.597e-03		11.112
5		0.00		-2.00		2.199e-02		-53.117		4.991e-03		9.720
5		0.00		-2.40		2.187e-02		-52.398		4.201e-03		9.321
5		0.00		-2.80		2.054e-02		-53.955		4.225e-03		11.007
5		0.00		-3.20		1.961e-02		-50.282		4.395e-03		10.418
5		0.00		-3.60		1.920e-02		-52.301		4.960e-03		14.392
5		0.00		-4.00		1.800e-02		-51.566		4.981e-03		8.603
5		0.00		-4.40		1.764e-02		-53.254		3.651e-03		9.747
5		0.00		-4.80		1.611e-02		-50.430		3.181e-03		11.471
5		0.00		-5.20		1.407e-02		-50.034		3.007e-03		10.429
5		0.00		-5.60		1.158e-02		-50.383		2.901e-03		13.158
5		0.00		-6.00		7.948e-03		-43.793		2.478e-03		16.058
5		0.00		-6.40		5.925e-03		-47.210		1.879e-03		19.771
5		0.00		-6.80		3.480e-03		-51.621		1.367e-03		33.852
5		0.00		-7.20		1.924e-03		-7.661		7.866e-04		66.604
5		0.00		-7.60		3.709e-03		93.082		1.429e-03		49.533
5		0.00		-8.00		6.465e-03		123.921		2.237e-03		20.354
5		0.00		-8.40		8.705e-03		120.426		2.697e-03		27.110
5		0.00		-8.80		1.071e-02		122.512		3.387e-03		16.385
5		0.00		-9.20		1.325e-02		121.756		3.806e-03		9.744
5		0.00		-9.60		1.468e-02		124.094		3.756e-03		16.391
5		0.00		-10.00		1.607e-02		123.900		3.796e-03		10.314
5		0.00		-9.60		1.662e-02		123.440		3.777e-03		10.051
5		0.00		-9.20		1.649e-02		126.611		4.054e-03		13.443
5		0.00		-8.80		1.644e-02		125.485		4.534e-03		16.312
5		0.00		-8.40		1.678e-02		127.064		4.239e-03		11.677
5		0.00		-8.00		1.677e-02		125.951		3.977e-03		8.591
5		0.00		-7.60		1.631e-02		125.337		3.329e-03		9.326
5		0.00		-7.20		1.631e-02		124.268		3.281e-03		9.328
5		0.00		-6.80		1.536e-02		126.621		3.465e-03		11.460
5		0.00		-6.40		1.502e-02		125.836		3.851e-03		17.757
5		0.00		-6.00		1.453e-02		127.131		3.772e-03		12.783
5		0.00		-5.60		1.440e-02		124.430		3.612e-03		9.338
5		0.00		-5.20		1.462e-02		126.631		3.165e-03		9.066
5		0.00		-4.80		1.405e-02		127.072		2.849e-03		9.925
5		0.00		-4.40		1.390e-02		127.296		2.841e-03		10.057
5		0.00		-4.00		1.310e-02		125.165		3.208e-03		11.274
5		0.00		-3.60		1.263e-02		128.423		3.424e-03		15.097
5		0.00		-3.20		1.210e-02		123.040		3.138e-03		12.223
5		0.00		-2.80		1.204e-02		124.915		2.995e-03		10.479
5		0.00		-2.40		1.214e-02		126.188		2.485e-03		9.470
5		0.00		-2.00		1.202e-02		123.509		2.550e-03		9.841
5		0.00		-1.60		1.157e-02		126.618		2.600e-03		12.225
5		0.00		-1.20		1.129e-02		125.433		2.802e-03		17.581
5		0.00		-0.80		1.110e-02		124.515		2.824e-03		13.370
5		0.00		-0.40		1.119e-02		126.508		2.653e-03		11.670
6		0.00		0.00		1.081e-02		124.577		2.225e-03		11.628
6		0.00		0.40		1.060e-02		122.995		2.062e-03		10.013
6		0.00		0.80		1.032e-02		127.466		2.191e-03		11.146
6		0.00		1.20		1.003e-02		121.845		2.358e-03		15.980
6		0.00		1.60		9.478e-03		124.066		2.420e-03		14.806
6		0.00		2.00		8.577e-03		125.843		2.031e-03		13.022
6		0.00		2.40		8.219e-03		130.642		1.913e-03		10.439
6		0.00		2.80		7.306e-03		130.306		1.569e-03		14.917
6		0.00		3.20		6.188e-03		124.726		1.599e-03		12.218
6		0.00		3.60		5.363e-03		123.697		1.572e-03		27.989
6		0.00		4.00		4.449e-03		122.231		1.488e-03		20.759
6		0.00		4.40		3.745e-03		113.801		1.278e-03		53.206
6		0.00		4.80		2.664e-03		92.006		1.134e-03		69.798
6		0.00		5.20		2.051e-03		77.564		7.519e-04		73.899
6		0.00		5.60		1.904e-03		15.296		8.518e-04		88.731
6		0.00		6.00		1.760e-03		-19.586		6.802e-04		73.296
6		0.00		6.40		2.650e-03		-44.959		1.156e-03		41.492
6		0.00		6.80		3.398e-03		-48.036		1.198e-03		27.777
6		0.00		7.20		5.067e-03		-55.241		1.460e-03		20.005
6		0.00		7.60		6.511e-03		-49.177		1.658e-03		17.834
6		0.00		8.00		8.339e-03		-47.563		1.989e-03		13.473
6		0.00		8.40		9.922e-03		-49.194		2.600e-03		12.939
6		0.00		8.80		1.243e-02		-54.463		3.504e-03		14.391
6		0.00		9.20		1.485e-02		-53.789		3.909e-03		11.655
6		0.00		9.60		1.855e-02		-51.688		4.265e-03		10.098
6		0.00		10.00		2.173e-02		-54.751		4.388e-03		8.799
6		0.00		9.60		2.318e-02		-51.778		5.283e-03		10.640
6		0.00		9.20		2.403e-02		-51.178		5.980e-03		12.924
6		0.00		8.80		2.397e-02		-53.029		6.544e-03		11.807
6		0.00		8.40		2.472e-02		-51.788		6.344e-03		9.526
6		0.00		8.00		2.512e-02		-54.094		5.203e-03		7.646
6		0.00		7.60		2.560e-02		-51.495		5.013e-03		8.508
6		0.00		7.20		2.545e-02		-52.097		4.799e-03		9.388
6		0.00		6.80		2.445e-02		-51.940		5.916e-03		11.730
6		0.00		6.40		2.423e-02		-53.052		6.357e-03		13.136
6		0.00		6.00		2.341e-02		-50.368		6.635e-03		8.700
6		0.00		5.60		2.381e-02		-53.664		5.972e-03		8.887
6		0.00		5.20		2.449e-02		-53.321		4.790e-03		7.553
6		0.00		4.80		2.414e-02		-53.258		4.569e-03		8.954
6		0.00		4.40		2.348e-02		-51.391		5.042e-03		9.737
6		0.00		4.00		2.303e-02		-50.336		5.281e-03		11.928
6		0.00		3.60		2.338e-02		-49.978		5.615e-03		13.448
6		0.00		3.20		2.290e-02		-49.976		5.628e-03		8.977
6		0.00		2.80		2.312e-02		-51.738		5.122e-03		8.447
6		0.00		2.40		2.358e-02		-50.076		4.221e-03		7.538
6		0.00		2.00		2.327e-02		-50.971		4.541e-03		10.512
6		0.00		1.60		2.312e-02		-49.708		4.918e-03		11.198
6		0.00		1.20		2.236e-02		-52.866		5.501e-03		13.935
6		0.00		0.80		2.265e-02		-51.290		5.910e-03		9.785
6		0.00		0.40		2.248e-02		-50.211		5.170e-03		8.224
6		0.00		0.00		2.293e-02		-51.586		4.741e-03		9.674
6		0.00		-0.40		2.246e-02		-50.968		5.202e-03		10.381
6		0.00		-0.80		2.200e-02		-52.703		5.524e-03		10.785
6		0.00		-1.20		2.166e-02		-49.977		5.725e-03		14.674
6		0.00		-1.60		2.124e-02		-52.833		6.053e-03		13.609
6		0.00		-2.00		2.151e-02		-50.042		5.539e-03		9.284
6		0.00		-2.40		2.205e-02		-51.465		4.870e-03		8.328
6		0.00		-2.80		2.123e-02		-52.698		4.833e-03		10.131
6		0.00		-3.20		2.022e-02		-49.374		4.524e-03		10.414
6		0.00		-3.60		1.857e-02		-51.885		4.777e-03		16.468
6		0.00		-4.00		1.773e-02		-51.716		4.858e-03		10.144
6		0.00		-4.40		1.712e-02		-50.953		3.855e-03		9.899
6		0.00		-4.80		1.530e-02		-49.352		3.278e-03		10.534
6		0.00		-5.20		1.409e-02		-51.430		2.847e-03		11.762
6		0.00		-5.60		1.152e-02		-48.259		2.581e-03		13.065
6		0.00		-6.00		8.863e-03		-46.605		2.394e-03		15.087
6		0.00		-6.40		6.546e-03		-47.834		1.915e-03		15.656
6		0.00		-6.80		4.222e-03		-44.922		1.455e-03		24.267
6		0.00		-7.20		1.927e-03		-10.919		7.547e-04		60.016
6		0.00		-7.60		3.113e-03		92.217		1.378e-03		54.142
6		0.00		-8.00		6.388e-03		123.389		1.831e-03		22.434
6		0.00		-8.40		9.063e-03		121.674		2.489e-03		21.130
6		0.00		-8.80		1.106e-02		123.611		2.997e-03		13.531
6		0.00		-9.20		1.293e-02		122.761		3.243e-03		10.661
6		0.00		-9.60		1.390e-02		125.612		3.113e-03		11.050
6		0.00		-10.00		1.568e-02		126.713		3.525e-03		10.500
6		0.00		-9.60		1.630e-02		125.828		4.117e-03		14.790
6		0.00		-9.20		1.605e-02		121.533		4.280e-03		19.772
6		0.00		-8.80		1.653e-02		126.369		4.224e-03		10.125
6		0.00		-8.40		1.617e-02		126.012		3.337e-03		8.493
6		0.00		-8.00		1.600e-02		124.754		3.377e-03		10.184
6		0.00		-7.60		1.560e-02		127.696		3.547e-03		10.085
6		0.00		-7.20		1.505e-02		125.872		3.936e-03		15.152
6		0.00		-6.80		1.464e-02		127.493		3.753e-03		11.949
6		0.00		-6.40		1.494e-02		125.034		3.405e-03		8.147
6		0.00		-6.00		1.454e-02		125.044		2.827e-03		8.742
6		0.00		-5.60		1.416e-02		127.316		2.839e-03		9.240
6		0.00		-5.20		1.398e-02		126.494		3.193e-03		13.264
6		0.00		-4.80		1.288e-02		120.515		3.213e-03		19.981
6		0.00		-4.40		1.307e-02		124.043		3.326e-03		16.685
6		0.00		-4.00		1.300e-02		126.666		2.676e-03		10.419
6		0.00		-3.60		1.284e-02		126.101		2.559e-03		10.596
6		0.00		-3.20		1.264e-02		125.637		2.980e-03		10.887
6		0.00		-2.80		1.142e-02		121.948		3.272e-03		17.815
6		0.00		-2.40		1.132e-02		122.614		3.486e-03		15.765
6		0.00		-2.00		1.117e-02		124.220		2.943e-03		9.694
6		0.00		-1.60		1.120e-02		125.371		2.562e-03		10.515
6		0.00		-1.20		1.096e-02		125.261		2.592e-03		10.029
6		0.00		-0.80		1.056e-02		123.655		2.757e-03		14.418
6		0.00		-0.40		1.025e-02		122.998		2.922e-03		20.142
7		0.00		0.00		1.007e-02		122.725		2.849e-03		11.599
7		0.00		0.40		9.861e-03		126.358		2.339e-03		11.312
7		0.00		0.80		1.001e-02		127.045		2.379e-03		12.170
7		0.00		1.20		9.561e-03		123.657		2.233e-03		13.423
7		0.00		1.60		8.572e-03		123.910		2.262e-03		18.884
7		0.00		2.00		8.039e-03		122.005		2.367e-03		17.369
7		0.00		2.40		7.386e-03		126.539		1.907e-03		12.310
7		0.00		2.80		6.856e-03		126.471		1.482e-03		13.813
7		0.00		3.20		5.754e-03		128.242		1.490e-03		15.742
7		0.00		3.60		5.095e-03		123.575		1.543e-03		20.012
7		0.00		4.00		4.423e-03		113.354		1.422e-03		44.285
7		0.00		4.40		3.529e-03		112.218		1.197e-03		34.776
7		0.00		4.80		2.650e-03		95.426		1.118e-03		65.499
7		0.00		5.20		2.124e-03		47.213		8.865e-04		74.917
7		0.00		5.60		1.992e-03		29.927		6.970e-04		81.063
7		0.00		6.00		1.817e-03		-32.841		7.719e-04		64.020
7		0.00		6.40		2.512e-03		-57.836		9.060e-04		56.148
7		0.00		6.80		3.453e-03		-45.521		1.270e-03		36.077
7		0.00		7.20		5.129e-03		-55.376		1.620e-03		18.079
7		0.00		7.60		6.543e-03		-56.838		1.662e-03		16.017
7		0.00		8.00		7.654e-03		-52.758		1.952e-03		14.032
7		0.00		8.40		9.525e-03		-50.128		2.589e-03		14.582
7		0.00		8.80		1.104e-02		-48.903		3.368e-03		16.161
7		0.00		9.20		1.379e-02		-52.114		4.053e-03		10.104
7		0.00		9.60		1.658e-02		-52.883		4.224e-03		10.392
7		0.00		10.00		1.975e-02		-51.299		4.524e-03		10.379
7		0.00		9.60		2.128e-02		-52.020		4.528e-03		10.734
7		0.00		9.20		2.148e-02		-49.441		5.506e-03		10.878
7		0.00		8.80		2.124e-02		-51.760		5.564e-03		15.141
7		0.00		8.40		2.197e-02		-53.714		5.988e-03		14.551
7		0.00		8.00		2.228e-02		-50.353		6.028e-03		9.058
7		0.00		7.60		2.256e-02		-53.172		5.286e-03		9.395
7		0.00		7.20		2.201e-02		-52.624		5.003e-03		10.647
7		0.00		6.80		2.159e-02		-49.428		5.084e-03		12.028
7		0.00		6.40		2.072e-02		-52.118		5.607e-03		13.644
7		0.00		6.00		2.091e-02		-54.726		6.183e-03		17.540
7		0.00		5.60		2.084e-02		-49.698		6.735e-03		9.378
7		0.00		5.20		2.073e-02		-52.725		5.893e-03		8.301
7		0.00		4.80		2.111e-02		-51.440		5.327e-03		8.828
7		0.00		4.40		2.047e-02		-52.215		5.352e-03		11.024
7		0.00		4.00		2.045e-02		-53.948		5.510e-03		12.254
7		0.00		3.60		1.992e-02		-53.749		5.797e-03		14.236
7		0.00		3.20		1.979e-02		-49.858		6.522e-03		15.870
7		0.00		2.80		1.994e-02		-51.007		6.105e-03		10.165
7		0.00		2.40		2.015e-02		-51.879		5.396e-03		7.819
7		0.00		2.00		2.037e-02		-55.049		4.887e-03		9.740
7		0.00		1.60		2.020e-02		-51.907		4.655e-03		10.580
7		0.00		1.20		2.067e-02		-51.399		4.892e-03		11.067
7		0.00		0.80		1.996e-02		-51.167		5.043e-03		15.172
7		0.00		0.40		1.991e-02		-50.638		5.394e-03		15.989
7		0.00		0.00		2.040e-02		-52.034		5.291e-03		10.283
7		0.00		-0.40		2.065e-02		-51.610		4.810e-03		9.785
7		0.00		-0.80		2.006e-02		-53.803		4.283e-03		10.028
7		0.00		-1.20		1.983e-02		-52.767		4.750e-03		10.478
7		0.00		-1.60		1.908e-02		-51.089		5.023e-03		12.382
7		0.00		-2.00		1.812e-02		-51.142		5.358e-03		15.222
7		0.00		-2.40		1.797e-02		-49.513		5.502e-03		12.452
7		0.00		-2.80		1.834e-02		-52.622		5.028e-03		9.713
7		0.00		-3.20		1.778e-02		-52.246		4.538e-03		8.600
7		0.00		-3.60		1.719e-02		-51.851		4.189e-03		10.875
7		0.00		-4.00		1.626e-02		-50.016		4.230e-03		13.101
7		0.00		-4.40		1.480e-02		-49.343		4.245e-03		13.794
7		0.00		-4.80		1.353e-02		-48.573		4.188e-03		15.290
7		0.00		-5.20		1.215e-02		-51.343		3.834e-03		11.152
7		0.00		-5.60		1.039e-02		-52.333		2.773e-03		11.801
7		0.00		-6.00		7.804e-03		-53.792		2.086e-03		12.659
7		0.00		-6.40		6.195e-03		-46.611		1.920e-03		18.171
7		0.00		-6.80		3.224e-03		-47.114		1.482e-03		29.989
7		0.00		-7.20		1.788e-03		1.360		7.078e-04		76.670
7		0.00		-7.60		3.627e-03		100.271		1.441e-03		38.772
7		0.00		-8.00		6.432e-03		118.926		2.092e-03		20.794
7		0.00		-8.40		8.983e-03		125.174		2.301e-03		12.218
7		0.00		-8.80		1.123e-02		124.355		2.729e-03		12.025
7		0.00		-9.20		1.236e-02		122.471		3.299e-03		16.183
7		0.00		-9.60		1.439e-02		123.886		3.915e-03		16.924
7		0.00		-10.00		1.581e-02		122.682		4.579e-03		17.642
7		0.00		-9.60		1.665e-02		125.771		4.466e-03		7.904
7		0.00		-9.20		1.675e-02		124.428		4.189e-03		9.200
7		0.00		-8.80		1.701e-02		125.435		4.101e-03		9.309
7		0.00		-8.40		1.588e-02		125.591		3.939e-03		10.833
7		0.00		-8.00		1.612e-02		125.984		4.427e-03		13.340
7		0.00		-7.60		1.527e-02		123.496		4.420e-03		23.458
7		0.00		-7.20		1.498e-02		124.638		4.654e-03		18.477
7		0.00		-6.80		1.501e-02		126.352		4.457e-03		10.444
7		0.00		-6.40		1.472e-02		124.941		4.053e-03		9.569
7		0.00		-6.00		1.452e-02		125.977		3.577e-03		8.574
7		0.00		-5.60		1.401e-02		125.923		3.529e-03		10.699
7		0.00		-5.20		1.392e-02		123.602		3.757e-03		10.381
7		0.00		-4.80		1.339e-02		125.275		3.261e-03		10.430
7		0.00		-4.40		1.317e-02		125.480		3.505e-03		19.201
7		0.00		-4.00		1.273e-02		125.041		3.671e-03		20.577
7		0.00		-3.60		1.269e-02		127.324		3.300e-03		12.029
7		0.00		-3.20		1.268e-02		126.351		3.086e-03		9.831
7		0.00		-2.80		1.203e-02		126.549		2.858e-03		9.425
7		0.00		-2.40		1.231e-02		129.690		2.545e-03		10.312
7		0.00		-2.00		1.212e-02		125.876		2.450e-03		10.423
7		0.00		-1.60		1.137e-02		126.442		2.435e-03		10.933
7		0.00		-1.20		1.131e-02		126.999		2.818e-03		12.312
7		0.00		-0.80		1.104e-02		125.013		3.027e-03		18.450
7		0.00		-0.40		1.079e-02		121.227		3.031e-03		19.434
8		0.00		0.00		1.072e-02		129.451		3.022e-03		14.335
8		0.00		0.40		1.042e-02		128.430		2.583e-03		9.649
8		0.00		0.80		1.042e-02		125.491		2.504e-03		12.422
8		0.00		1.20		1.018e-02		125.642		2.022e-03		12.003
8		0.00		1.60		9.963e-03		129.288		2.348e-03		11.533
8		0.00		2.00		9.007e-03		126.840		2.196e-03		11.872
8		0.00		2.40		8.291e-03		125.516		1.879e-03		17.062
8		0.00		2.80		7.345e-03		122.502		2.152e-03		25.925
8		0.00		3.20		6.852e-03		124.917		2.089e-03		19.819
8		0.00		3.60		6.113e-03		125.450		1.796e-03		17.787
8		0.00		4.00		5.461e-03		125.985		1.630e-03		19.811
8		0.00		4.40		4.145e-03		117.581		1.370e-03		33.388
8		0.00		4.80		3.679e-03		122.529		1.292e-03		32.662
8		0.00		5.20		2.721e-03		91.119		1.072e-03		66.885
8		0.00		5.60		2.277e-03		65.202		9.762e-04		76.640
8		0.00		6.00		1.710e-03		12.516		7.617e-04		78.846
8		0.00		6.40		1.742e-03		-32.074		8.540e-04		59.747
8		0.00		6.80		3.170e-03		-57.327		1.171e-03		34.833
8		0.00		7.20		3.984e-03		-54.364		1.321e-03		24.524
8		0.00		7.60		6.178e-03		-54.581		1.558e-03		15.860
8		0.00		8.00		7.755e-03		-56.396		1.932e-03		14.384
8		0.00		8.40		8.978e-03		-53.809		2.445e-03		17.571
8		0.00		8.80		1.139e-02		-47.497		3.103e-03		13.711
8		0.00		9.20		1.257e-02		-53.173		3.802e-03		15.116
8		0.00		9.60		1.593e-02		-50.738		4.635e-03		11.439
8		0.00		10.00		1.910e-02		-51.853		5.012e-03		9.455
8		0.00		9.60		2.163e-02		-50.686		4.730e-03		8.122
8		0.00		9.20		2.214e-02		-54.185		4.980e-03		7.088
8		0.00		8.80		2.264e-02		-52.226		5.454e-03		10.110
8		0.00		8.40		2.221e-02		-51.928		5.272e-03		11.893
8		0.00		8.00		2.201e-02		-52.472		5.623e-03		14.447
8		0.00		7.60		2.251e-02		-51.393		5.719e-03		12.021
8		0.00		7.20		2.247e-02		-49.983		5.430e-03		8.849
8		0.00		6.80		2.229e-02		-53.086		4.918e-03		9.303
8		0.00		6.40		2.299e-02		-52.215		4.146e-03		8.054
8		0.00		6.00		2.241e-02		-52.376		4.199e-03		8.814
8		0.00		5.60		2.227e-02		-50.315		4.368e-03		9.583
8		0.00		5.20		2.187e-02		-50.810		4.950e-03		11.022
8		0.00		4.80		2.145e-02		-51.266		5.259e-03		12.385
8		0.00		4.40		2.112e-02		-49.332		5.239e-03		10.066
8		0.00		4.00		2.149e-02		-51.297		4.734e-03		9.205
8		0.00		3.60		2.168e-02		-50.072		4.199e-03		9.561
8		0.00		3.20		2.190e-02		-50.576		3.933e-03		8.814
8		0.00		2.80		2.182e-02		-49.468		4.007e-03		8.749
8		0.00		2.40		2.165e-02		-51.142		4.097e-03		8.601
8		0.00		2.00		2.124e-02		-51.159		5.008e-03		11.037
8		0.00		1.60		2.078e-02		-49.168		5.242e-03		8.850
8		0.00		1.20		2.116e-02		-51.688		5.179e-03		9.140
8		0.00		0.80		2.142e-02		-51.948		4.359e-03		8.984
8		0.00		0.40		2.172e-02		-50.163		3.844e-03		8.833
8		0.00		0.00		2.191e-02		-50.985		4.069e-03		8.176
8		0.00		-0.40		2.206e-02		-50.480		3.718e-03		8.905
8		0.00		-0.80		2.136e-02		-49.815		3.966e-03		8.873
8		0.00		-1.20		2.084e-02		-48.038		4.309e-03		11.758
8		0.00		-1.60		2.027e-02		-49.680		4.683e-03		9.051
8		0.00		-2.00		2.017e-02		-48.105		4.552e-03		10.952
8		0.00		-2.40		2.046e-02		-50.643		4.189e-03		8.492
8		0.00		-2.80		2.049e-02		-51.015		3.671e-03		7.998
8		0.00		-3.20		2.005e-02		-50.993		3.394e-03		8.260
8		0.00		-3.60		1.899e-02		-49.953		3.381e-03		10.555
8		0.00		-4.00		1.792e-02		-52.157		3.254e-03		11.017
8		0.00		-4.40		1.643e-02		-51.063		3.704e-03		12.192
8		0.00		-4.80		1.478e-02		-49.759		3.986e-03		12.135
8		0.00		-5.20		1.331e-02		-50.281		3.645e-03		11.161
8		0.00		-5.60		1.128e-02		-49.954		2.837e-03		12.566
8		0.00		-6.00		9.160e-03		-48.722		2.356e-03		14.051
8		0.00		-6.40		5.872e-03		-47.193		1.577e-03		19.268
8		0.00		-6.80		3.193e-03		-48.514		1.137e-03		37.932
8		0.00		-7.20		1.718e-03		19.481		7.315e-04		74.281
8		0.00		-7.60		4.502e-03		115.212		1.501e-03		45.691
8		0.00		-8.00		6.745e-03		121.910		2.346e-03		21.558
8		0.00		-8.40		8.591e-03		118.771		2.895e-03		25.892
8		0.00		-8.80		1.134e-02		124.965		3.105e-03		12.312
8		0.00		-9.20		1.278e-02		123.471		3.070e-03		9.725
8		0.00		-9.60		1.448e-02		124.922		3.353e-03		10.404
8		0.00		-10.00		1.564e-02		123.720		3.322e-03		8.346
8		0.00		-9.60		1.662e-02		126.868		3.359e-03		10.816
8		0.00		-9.20		1.659e-02		124.375		3.611e-03		9.324
8		0.00		-8.80		1.619e-02		127.160		3.720e-03		11.176
8		0.00		-8.40		1.558e-02		125.478		3.965e-03		16.946
8		0.00		-8.00		1.563e-02		124.189		4.175e-03		16.916
8		0.00		-7.60		1.509e-02		126.480		3.849e-03		12.181
8		0.00		-7.20		1.485e-02		124.479		3.618e-03		8.678
8		0.00		-6.80		1.447e-02		125.851		3.590e-03		8.664
8		0.00		-6.40		1.444e-02		124.805		3.235e-03		8.638
8		0.00		-6.00		1.406e-02		127.165		3.114e-03		10.961
8		0.00		-5.60		1.368e-02		128.678		3.206e-03		10.598
8		0.00		-5.20		1.339e-02		129.516		3.207e-03		13.773
8		0.00		-4.80		1.340e-02		126.603		3.520e-03		19.168
8		0.00		-4.40		1.246e-02		124.799		3.595e-03		19.310
8		0.00		-4.00		1.266e-02		124.280		3.519e-03		13.864
8		0.00		-3.60		1.238e-02		123.242		3.199e-03		11.552
8		0.00		-3.20		1.227e-02		124.921		2.935e-03		10.954
8		0.00		-2.80		1.238e-02		126.270		2.753e-03		9.239
8		0.00		-2.40		1.215e-02		127.081		2.431e-03		9.723
8		0.00		-2.00		1.178e-02		125.359		2.328e-03		9.667
8		0.00		-1.60		1.134e-02		127.124		2.650e-03		12.206
8		0.00		-1.20		1.145e-02		125.545		2.710e-03		16.930
8		0.00		-0.80		1.079e-02		125.887		2.809e-03		20.226
8		0.00		-0.40		1.044e-02		125.074		2.742e-03		15.795
