# Date of analysis: 2024-03-08 10;59
# Segment other properties: height: -59.638796603083435, diff height: 528.9818714310746, deflection: 33.423176025161105, deflection error: 2.800043919069719, adhesion: 41.87710230589617, phase offset: 0
# 
# Loop index	Read Volt (V)	Write Volt (V)	Amplitude (a.u)	Phase (deg)	Sigma Amp (a.u)	Sigma Pha (deg)	
1		0.00		0.00		2.897e-02		-52.822		5.402e-03		7.772
1		0.00		0.40		2.913e-02		-53.013		5.507e-03		8.901
1		0.00		0.80		2.905e-02		-51.647		5.472e-03		8.640
1		0.00		1.20		2.872e-02		-53.475		5.243e-03		8.027
1		0.00		1.60		2.839e-02		-52.276		5.343e-03		9.707
1		0.00		2.00		2.813e-02		-51.301		5.525e-03		8.436
1		0.00		2.40		2.819e-02		-53.100		5.785e-03		9.099
1		0.00		2.80		2.794e-02		-51.017		5.409e-03		8.660
1		0.00		3.20		2.774e-02		-49.521		5.689e-03		8.834
1		0.00		3.60		2.791e-02		-51.099		6.076e-03		9.153
1		0.00		4.00		2.779e-02		-52.654		6.747e-03		10.675
1		0.00		4.40		2.744e-02		-52.044		7.077e-03		11.231
1		0.00		4.80		2.815e-02		-53.101		7.414e-03		10.876
1		0.00		5.20		2.836e-02		-53.282		7.735e-03		11.795
1		0.00		5.60		2.918e-02		-50.142		7.928e-03		12.810
1		0.00		6.00		2.931e-02		-52.425		8.025e-03		12.806
1		0.00		6.40		2.822e-02		-51.991		8.338e-03		12.405
1		0.00		6.80		2.952e-02		-51.973		8.607e-03		13.409
1		0.00		7.20		3.090e-02		-53.442		8.470e-03		12.791
1		0.00		7.60		3.159e-02		-53.598		8.197e-03		9.873
1		0.00		8.00		3.351e-02		-52.251		8.701e-03		9.710
1		0.00		8.40		3.368e-02		-52.288		8.674e-03		8.024
1		0.00		8.80		3.770e-02		-52.427		9.569e-03		7.145
1		0.00		9.20		4.009e-02		-52.511		9.299e-03		7.211
1		0.00		9.60		4.196e-02		-53.115		9.489e-03		7.307
1		0.00		10.00		4.416e-02		-53.746		9.662e-03		7.023
1		0.00		9.60		4.569e-02		-52.706		9.199e-03		7.164
1		0.00		9.20		4.651e-02		-52.314		9.480e-03		7.832
1		0.00		8.80		4.756e-02		-54.222		9.674e-03		5.359
1		0.00		8.40		4.713e-02		-52.362		9.293e-03		5.886
1		0.00		8.00		4.631e-02		-52.919		9.547e-03		6.674
1		0.00		7.60		4.605e-02		-52.068		8.845e-03		6.528
1		0.00		7.20		4.646e-02		-52.682		8.780e-03		5.645
1		0.00		6.80		4.456e-02		-51.688		9.045e-03		7.126
1		0.00		6.40		4.445e-02		-52.028		8.524e-03		7.073
1		0.00		6.00		4.348e-02		-52.207		8.314e-03		6.892
1		0.00		5.60		4.337e-02		-51.966		8.677e-03		7.881
1		0.00		5.20		4.288e-02		-52.560		9.303e-03		9.001
1		0.00		4.80		4.224e-02		-51.875		8.601e-03		8.913
1		0.00		4.40		4.203e-02		-51.358		8.658e-03		8.492
1		0.00		4.00		4.250e-02		-52.084		8.848e-03		8.672
1		0.00		3.60		4.236e-02		-51.343		9.235e-03		8.657
1		0.00		3.20		4.142e-02		-50.668		9.632e-03		9.818
1		0.00		2.80		4.136e-02		-50.989		9.380e-03		10.304
1		0.00		2.40		4.104e-02		-50.845		9.586e-03		10.616
1		0.00		2.00		4.140e-02		-50.713		1.049e-02		9.202
1		0.00		1.60		4.126e-02		-51.749		1.036e-02		12.313
1		0.00		1.20		4.194e-02		-51.485		1.077e-02		11.890
1		0.00		0.80		4.186e-02		-51.426		1.096e-02		8.374
1		0.00		0.40		4.132e-02		-51.309		1.155e-02		9.381
1		0.00		0.00		4.012e-02		-52.821		1.112e-02		8.605
1		0.00		-0.40		4.054e-02		-52.053		1.048e-02		8.075
1		0.00		-0.80		4.051e-02		-51.319		1.033e-02		7.271
1		0.00		-1.20		4.009e-02		-52.393		9.482e-03		6.765
1		0.00		-1.60		4.020e-02		-52.417		8.644e-03		6.175
1		0.00		-2.00		3.939e-02		-53.328		8.518e-03		6.509
1		0.00		-2.40		3.766e-02		-51.469		8.106e-03		7.400
1		0.00		-2.80		3.560e-02		-52.213		6.914e-03		7.738
1		0.00		-3.20		3.208e-02		-52.617		6.461e-03		8.764
1		0.00		-3.60		2.932e-02		-53.006		5.612e-03		9.384
1		0.00		-4.00		2.617e-02		-50.071		5.034e-03		7.694
1		0.00		-4.40		2.349e-02		-50.716		4.889e-03		9.804
1		0.00		-4.80		1.985e-02		-50.034		4.026e-03		10.362
1		0.00		-5.20		1.496e-02		-50.999		3.316e-03		13.074
1		0.00		-5.60		1.139e-02		-49.270		2.893e-03		11.754
1		0.00		-6.00		7.113e-03		-41.335		2.174e-03		24.123
1		0.00		-6.40		3.436e-03		-58.850		1.565e-03		38.968
1		0.00		-6.80		2.272e-03		21.227		9.547e-04		68.322
1		0.00		-7.20		3.342e-03		87.145		1.750e-03		61.834
1		0.00		-7.60		6.779e-03		119.009		2.459e-03		39.127
1		0.00		-8.00		9.493e-03		119.999		3.152e-03		23.732
1		0.00		-8.40		1.069e-02		118.901		3.284e-03		15.853
1		0.00		-8.80		1.348e-02		122.601		3.842e-03		12.204
1		0.00		-9.20		1.423e-02		125.349		3.876e-03		9.334
1		0.00		-9.60		1.499e-02		124.434		4.125e-03		11.145
1		0.00		-10.00		1.680e-02		123.366		4.515e-03		10.713
1		0.00		-9.60		1.648e-02		125.919		4.106e-03		9.404
1		0.00		-9.20		1.705e-02		125.176		4.208e-03		8.603
1		0.00		-8.80		1.701e-02		124.076		3.696e-03		8.730
1		0.00		-8.40		1.738e-02		123.745		3.807e-03		8.940
1		0.00		-8.00		1.720e-02		126.610		3.767e-03		10.377
1		0.00		-7.60		1.631e-02		125.011		3.378e-03		8.459
1		0.00		-7.20		1.574e-02		124.010		3.277e-03		10.723
1		0.00		-6.80		1.469e-02		126.284		2.689e-03		9.241
1		0.00		-6.40		1.421e-02		125.841		2.834e-03		9.481
1		0.00		-6.00		1.308e-02		125.476		2.687e-03		10.708
1		0.00		-5.60		1.250e-02		124.445		2.855e-03		9.504
1		0.00		-5.20		1.199e-02		126.357		2.633e-03		10.047
1		0.00		-4.80		1.081e-02		124.412		2.511e-03		11.629
1		0.00		-4.40		1.027e-02		128.069		2.672e-03		11.625
1		0.00		-4.00		9.451e-03		123.205		2.692e-03		19.371
1		0.00		-3.60		8.911e-03		119.409		2.744e-03		18.628
1		0.00		-3.20		8.337e-03		122.200		2.476e-03		17.734
1		0.00		-2.80		7.297e-03		124.006		2.369e-03		21.130
1		0.00		-2.40		6.864e-03		117.989		2.348e-03		31.156
1		0.00		-2.00		6.476e-03		120.417		2.134e-03		35.614
1		0.00		-1.60		6.314e-03		120.641		2.209e-03		25.771
1		0.00		-1.20		5.974e-03		124.600		2.147e-03		21.751
1		0.00		-0.80		5.498e-03		116.447		1.946e-03		34.177
1		0.00		-0.40		5.490e-03		120.537		1.794e-03		19.846
2		0.00		0.00		5.550e-03		122.650		1.897e-03		17.644
2		0.00		0.40		4.713e-03		124.596		1.729e-03		23.495
2		0.00		0.80		4.648e-03		124.564		1.383e-03		17.347
2		0.00		1.20		3.912e-03		114.763		1.445e-03		52.021
2		0.00		1.60		3.648e-03		107.323		1.395e-03		49.087
2		0.00		2.00		2.796e-03		85.467		1.227e-03		60.764
2		0.00		2.40		2.889e-03		86.587		1.129e-03		68.688
2		0.00		2.80		2.091e-03		38.267		8.296e-04		81.072
2		0.00		3.20		1.945e-03		-30.278		7.936e-04		80.967
2		0.00		3.60		1.928e-03		-16.480		8.202e-04		73.841
2		0.00		4.00		2.721e-03		-51.510		1.176e-03		39.966
2		0.00		4.40		3.905e-03		-44.396		1.162e-03		23.322
2		0.00		4.80		4.507e-03		-56.901		1.455e-03		23.625
2		0.00		5.20		6.165e-03		-48.988		1.773e-03		23.168
2		0.00		5.60		6.877e-03		-56.597		1.705e-03		14.526
2		0.00		6.00		8.175e-03		-55.149		2.114e-03		13.875
2		0.00		6.40		9.460e-03		-56.769		2.081e-03		13.681
2		0.00		6.80		1.148e-02		-55.475		2.396e-03		12.403
2		0.00		7.20		1.306e-02		-58.531		2.511e-03		10.211
2		0.00		7.60		1.542e-02		-53.912		2.756e-03		11.412
2		0.00		8.00		1.701e-02		-52.746		3.101e-03		10.847
2		0.00		8.40		1.837e-02		-52.236		3.613e-03		10.462
2		0.00		8.80		2.114e-02		-54.020		4.393e-03		11.332
2		0.00		9.20		2.440e-02		-51.673		5.291e-03		12.134
2		0.00		9.60		2.798e-02		-52.489		6.382e-03		11.990
2		0.00		10.00		3.171e-02		-51.991		7.752e-03		10.235
2		0.00		9.60		3.432e-02		-53.924		7.882e-03		7.302
2		0.00		9.20		3.559e-02		-53.145		7.150e-03		7.360
2		0.00		8.80		3.606e-02		-52.977		6.893e-03		7.111
2		0.00		8.40		3.580e-02		-53.447		6.349e-03		6.689
2		0.00		8.00		3.556e-02		-53.053		6.632e-03		8.291
2		0.00		7.60		3.601e-02		-53.581		6.704e-03		7.005
2		0.00		7.20		3.473e-02		-51.713		7.391e-03		8.046
2		0.00		6.80		3.390e-02		-51.704		8.103e-03		10.756
2		0.00		6.40		3.343e-02		-51.979		8.229e-03		10.479
2		0.00		6.00		3.296e-02		-52.881		8.902e-03		12.978
2		0.00		5.60		3.261e-02		-51.487		8.642e-03		10.262
2		0.00		5.20		3.235e-02		-51.699		8.384e-03		9.566
2		0.00		4.80		3.236e-02		-52.969		7.249e-03		8.729
2		0.00		4.40		3.207e-02		-53.768		6.136e-03		7.898
2		0.00		4.00		3.212e-02		-54.259		5.306e-03		8.044
2		0.00		3.60		3.196e-02		-52.756		5.554e-03		7.276
2		0.00		3.20		3.161e-02		-52.030		5.420e-03		6.932
2		0.00		2.80		3.142e-02		-53.350		5.498e-03		7.750
2		0.00		2.40		3.111e-02		-51.589		5.633e-03		8.499
2		0.00		2.00		3.074e-02		-51.115		6.214e-03		8.567
2		0.00		1.60		3.072e-02		-52.916		6.580e-03		9.574
2		0.00		1.20		3.044e-02		-51.703		7.114e-03		11.975
2		0.00		0.80		3.017e-02		-50.937		7.301e-03		10.784
2		0.00		0.40		3.021e-02		-50.783		7.715e-03		9.369
2		0.00		0.00		2.974e-02		-51.740		7.240e-03		10.506
2		0.00		-0.40		3.013e-02		-53.060		6.580e-03		8.679
2		0.00		-0.80		2.982e-02		-53.340		6.049e-03		7.680
2		0.00		-1.20		3.020e-02		-52.300		5.758e-03		7.400
2		0.00		-1.60		3.013e-02		-52.283		5.280e-03		7.501
2		0.00		-2.00		2.992e-02		-52.996		5.013e-03		7.746
2		0.00		-2.40		2.950e-02		-52.039		5.136e-03		7.421
2		0.00		-2.80		2.836e-02		-52.326		5.254e-03		9.020
2		0.00		-3.20		2.728e-02		-51.517		5.151e-03		8.434
2		0.00		-3.60		2.586e-02		-52.595		5.105e-03		10.464
2		0.00		-4.00		2.350e-02		-50.719		5.022e-03		10.357
2		0.00		-4.40		2.192e-02		-52.374		4.787e-03		11.689
2		0.00		-4.80		1.883e-02		-51.637		4.440e-03		10.990
2		0.00		-5.20		1.504e-02		-49.722		3.353e-03		10.233
2		0.00		-5.60		1.087e-02		-46.975		2.803e-03		12.599
2		0.00		-6.00		7.504e-03		-54.062		1.817e-03		15.187
2		0.00		-6.40		3.479e-03		-42.466		1.336e-03		33.951
2		0.00		-6.80		2.069e-03		40.250		9.582e-04		72.034
2		0.00		-7.20		4.387e-03		109.999		1.413e-03		32.738
2		0.00		-7.60		7.148e-03		120.444		2.086e-03		13.774
2		0.00		-8.00		9.383e-03		122.490		2.374e-03		13.254
2		0.00		-8.40		1.165e-02		126.642		2.974e-03		11.122
2		0.00		-8.80		1.267e-02		124.970		3.330e-03		11.573
2		0.00		-9.20		1.377e-02		124.053		3.661e-03		13.549
2		0.00		-9.60		1.602e-02		126.166		4.561e-03		17.260
2		0.00		-10.00		1.725e-02		126.129		5.111e-03		13.218
2		0.00		-9.60		1.668e-02		124.995		4.579e-03		11.766
2		0.00		-9.20		1.702e-02		126.511		4.180e-03		10.177
2		0.00		-8.80		1.681e-02		126.358		3.882e-03		9.599
2		0.00		-8.40		1.632e-02		125.461		3.540e-03		8.529
2		0.00		-8.00		1.706e-02		126.005		3.307e-03		9.884
2		0.00		-7.60		1.579e-02		126.493		3.475e-03		9.815
2		0.00		-7.20		1.477e-02		126.659		3.467e-03		12.642
2		0.00		-6.80		1.408e-02		127.013		3.423e-03		14.263
2		0.00		-6.40		1.391e-02		125.607		3.836e-03		17.777
2		0.00		-6.00		1.329e-02		127.874		3.609e-03		11.506
2		0.00		-5.60		1.246e-02		126.026		3.215e-03		9.158
2		0.00		-5.20		1.245e-02		126.285		2.605e-03		10.197
2		0.00		-4.80		1.139e-02		123.624		2.507e-03		10.850
2		0.00		-4.40		1.081e-02		124.007		2.505e-03		10.387
2		0.00		-4.00		1.048e-02		126.009		2.370e-03		9.991
2		0.00		-3.60		9.899e-03		121.828		2.510e-03		13.994
2		0.00		-3.20		9.243e-03		123.820		2.504e-03		21.240
2		0.00		-2.80		8.850e-03		122.650		2.748e-03		25.938
2		0.00		-2.40		8.309e-03		121.966		2.499e-03		17.972
2		0.00		-2.00		8.201e-03		128.681		2.296e-03		13.025
2		0.00		-1.60		7.759e-03		127.736		2.114e-03		12.145
2		0.00		-1.20		7.492e-03		123.316		1.563e-03		11.656
2		0.00		-0.80		7.303e-03		122.309		1.727e-03		14.033
2		0.00		-0.40		7.048e-03		123.786		1.786e-03		16.133
3		0.00		0.00		6.771e-03		122.800		1.753e-03		16.280
3		0.00		0.40		6.665e-03		127.599		1.996e-03		21.777
3		0.00		0.80		6.061e-03		118.838		1.648e-03		19.503
3		0.00		1.20		5.997e-03		125.791		1.842e-03		20.028
3		0.00		1.60		4.805e-03		120.754		1.558e-03		27.299
3		0.00		2.00		4.049e-03		123.633		1.321e-03		21.008
3		0.00		2.40		3.331e-03		102.467		1.227e-03		48.869
3		0.00		2.80		2.857e-03		108.274		9.780e-04		54.411
3		0.00		3.20		2.016e-03		35.278		8.976e-04		91.672
3		0.00		3.60		1.755e-03		23.385		7.776e-04		66.461
3		0.00		4.00		1.991e-03		-31.657		8.759e-04		70.478
3		0.00		4.40		2.737e-03		-43.340		1.193e-03		40.559
3		0.00		4.80		3.380e-03		-61.790		1.267e-03		33.027
3		0.00		5.20		4.724e-03		-54.540		1.578e-03		23.892
3		0.00		5.60		5.986e-03		-56.510		1.493e-03		17.504
3		0.00		6.00		7.020e-03		-51.453		1.477e-03		15.093
3		0.00		6.40		7.867e-03		-55.752		1.771e-03		15.240
3		0.00		6.80		9.568e-03		-53.504		1.996e-03		13.526
3		0.00		7.20		1.073e-02		-52.503		2.623e-03		13.092
3		0.00		7.60		1.219e-02		-55.915		2.953e-03		16.027
3		0.00		8.00		1.378e-02		-52.233		3.362e-03		12.455
3		0.00		8.40		1.624e-02		-54.276		3.900e-03		12.628
3		0.00		8.80		1.905e-02		-56.480		3.484e-03		8.631
3		0.00		9.20		2.269e-02		-55.408		4.022e-03		8.427
3		0.00		9.60		2.566e-02		-54.897		4.528e-03		8.613
3		0.00		10.00		2.895e-02		-52.272		5.180e-03		8.432
3		0.00		9.60		3.093e-02		-52.222		5.864e-03		8.987
3		0.00		9.20		3.121e-02		-50.957		6.525e-03		8.790
3		0.00		8.80		3.163e-02		-51.620		7.687e-03		10.942
3		0.00		8.40		3.189e-02		-53.305		8.026e-03		11.607
3		0.00		8.00		3.151e-02		-52.654		7.683e-03		8.799
3		0.00		7.60		3.186e-02		-54.619		6.851e-03		6.193
3		0.00		7.20		3.190e-02		-52.058		5.951e-03		6.971
3		0.00		6.80		3.140e-02		-52.853		5.824e-03		8.031
3		0.00		6.40		3.142e-02		-52.114		5.641e-03		7.880
3		0.00		6.00		3.076e-02		-53.589		6.131e-03		8.187
3		0.00		5.60		2.980e-02		-52.512		7.317e-03		9.937
3		0.00		5.20		2.957e-02		-52.505		7.621e-03		10.587
3		0.00		4.80		2.915e-02		-53.162		7.593e-03		10.569
3		0.00		4.40		2.900e-02		-52.556		7.156e-03		8.530
3		0.00		4.00		2.949e-02		-53.197		5.949e-03		7.644
3		0.00		3.60		3.051e-02		-54.356		5.477e-03		7.652
3		0.00		3.20		2.973e-02		-53.154		5.453e-03		8.343
3		0.00		2.80		2.931e-02		-52.259		5.426e-03		8.984
3		0.00		2.40		2.894e-02		-50.464		5.941e-03		10.541
3		0.00		2.00		2.879e-02		-51.111		6.127e-03		13.369
3		0.00		1.60		2.860e-02		-51.389		6.390e-03		10.866
3		0.00		1.20		2.844e-02		-53.390		6.989e-03		10.391
3		0.00		0.80		2.831e-02		-52.946		6.015e-03		8.712
3		0.00		0.40		2.882e-02		-51.128		5.260e-03		7.232
3		0.00		0.00		2.867e-02		-52.396		4.765e-03		7.889
3		0.00		-0.40		2.833e-02		-53.306		5.198e-03		7.630
3		0.00		-0.80		2.725e-02		-52.934		5.385e-03		8.869
3		0.00		-1.20		2.664e-02		-51.705		5.948e-03		9.476
3		0.00		-1.60		2.604e-02		-52.208		6.248e-03		12.044
3		0.00		-2.00		2.542e-02		-53.898		6.998e-03		13.101
3		0.00		-2.40		2.502e-02		-51.898		6.691e-03		10.379
3		0.00		-2.80		2.435e-02		-53.229		5.911e-03		10.073
3		0.00		-3.20		2.433e-02		-52.827		4.751e-03		6.866
3		0.00		-3.60		2.340e-02		-51.769		4.209e-03		8.679
3		0.00		-4.00		2.222e-02		-53.509		4.185e-03		9.069
3		0.00		-4.40		2.048e-02		-52.208		4.081e-03		9.241
3		0.00		-4.80		1.754e-02		-51.963		3.739e-03		10.973
3		0.00		-5.20		1.569e-02		-48.931		3.730e-03		11.072
3		0.00		-5.60		1.221e-02		-48.904		2.981e-03		11.323
3		0.00		-6.00		7.418e-03		-51.324		1.875e-03		15.222
3		0.00		-6.40		3.518e-03		-51.197		1.264e-03		32.827
3		0.00		-6.80		2.021e-03		14.591		8.678e-04		73.893
3		0.00		-7.20		3.404e-03		105.895		1.416e-03		50.045
3		0.00		-7.60		5.413e-03		118.596		1.756e-03		23.579
3		0.00		-8.00		8.892e-03		127.822		2.207e-03		16.867
3		0.00		-8.40		1.137e-02		124.749		2.764e-03		14.334
3		0.00		-8.80		1.336e-02		125.919		3.328e-03		15.088
3		0.00		-9.20		1.385e-02		126.242		3.582e-03		15.467
3		0.00		-9.60		1.502e-02		125.214		4.302e-03		13.357
3		0.00		-10.00		1.654e-02		123.115		4.123e-03		10.598
3		0.00		-9.60		1.743e-02		125.484		3.992e-03		9.751
3		0.00		-9.20		1.695e-02		123.623		3.912e-03		9.126
3		0.00		-8.80		1.710e-02		125.778		3.392e-03		8.383
3		0.00		-8.40		1.682e-02		123.742		3.365e-03		8.581
3		0.00		-8.00		1.610e-02		127.821		3.010e-03		8.380
3		0.00		-7.60		1.575e-02		126.434		3.035e-03		10.313
3		0.00		-7.20		1.510e-02		128.790		3.078e-03		9.921
3		0.00		-6.80		1.413e-02		126.815		3.323e-03		15.437
3		0.00		-6.40		1.373e-02		126.638		3.474e-03		15.599
3		0.00		-6.00		1.324e-02		126.040		3.490e-03		20.576
3		0.00		-5.60		1.231e-02		125.674		3.167e-03		15.252
3		0.00		-5.20		1.171e-02		130.748		2.851e-03		11.537
3		0.00		-4.80		1.185e-02		124.474		2.605e-03		10.046
3		0.00		-4.40		1.094e-02		127.753		2.481e-03		10.848
3		0.00		-4.00		1.061e-02		126.904		2.132e-03		9.754
3		0.00		-3.60		1.017e-02		126.611		2.245e-03		10.103
3		0.00		-3.20		9.809e-03		123.029		2.249e-03		10.681
3		0.00		-2.80		9.266e-03		124.523		2.234e-03		12.919
3		0.00		-2.40		8.684e-03		124.741		2.122e-03		13.439
3		0.00		-2.00		7.928e-03		125.840		2.098e-03		20.138
3		0.00		-1.60		7.885e-03		124.173		2.489e-03		25.036
3		0.00		-1.20		7.398e-03		125.593		2.386e-03		24.819
3		0.00		-0.80		7.326e-03		124.591		2.291e-03		17.846
3		0.00		-0.40		7.372e-03		125.218		2.027e-03		13.956
4		0.00		0.00		6.632e-03		122.043		1.920e-03		16.978
4		0.00		0.40		6.057e-03		122.408		1.631e-03		15.755
4		0.00		0.80		6.048e-03		123.091		1.710e-03		16.714
4		0.00		1.20		5.603e-03		129.199		1.564e-03		13.980
4		0.00		1.60		5.079e-03		125.598		1.431e-03		18.041
4		0.00		2.00		4.664e-03		120.309		1.319e-03		33.742
4		0.00		2.40		3.596e-03		112.155		1.168e-03		42.930
4		0.00		2.80		2.811e-03		85.229		1.225e-03		67.844
4		0.00		3.20		2.161e-03		69.981		8.916e-04		63.575
4		0.00		3.60		1.678e-03		7.462		5.850e-04		74.573
4		0.00		4.00		1.738e-03		-17.489		6.777e-04		80.154
4		0.00		4.40		2.400e-03		-52.605		1.103e-03		46.562
4		0.00		4.80		3.182e-03		-58.461		1.214e-03		30.310
4		0.00		5.20		4.303e-03		-55.709		1.394e-03		22.946
4		0.00		5.60		5.395e-03		-59.971		1.229e-03		18.376
4		0.00		6.00		7.022e-03		-49.240		1.444e-03		17.014
4		0.00		6.40		8.388e-03		-54.310		1.693e-03		15.344
4		0.00		6.80		1.003e-02		-51.871		1.600e-03		13.379
4		0.00		7.20		1.136e-02		-49.278		2.260e-03		11.280
4		0.00		7.60		1.237e-02		-52.805		2.533e-03		10.142
4		0.00		8.00		1.383e-02		-53.617		3.140e-03		14.427
4		0.00		8.40		1.599e-02		-49.819		3.607e-03		12.021
4		0.00		8.80		1.772e-02		-51.705		4.349e-03		10.772
4		0.00		9.20		2.059e-02		-51.545		4.726e-03		8.444
4		0.00		9.60		2.438e-02		-54.042		4.975e-03		8.365
4		0.00		10.00		2.726e-02		-53.771		5.248e-03		7.649
4		0.00		9.60		2.902e-02		-54.238		4.476e-03		6.415
4		0.00		9.20		2.975e-02		-52.284		4.627e-03		8.702
4		0.00		8.80		2.978e-02		-51.126		5.160e-03		7.878
4		0.00		8.40		2.960e-02		-51.929		6.027e-03		8.703
4		0.00		8.00		2.877e-02		-50.617		6.514e-03		10.499
4		0.00		7.60		2.928e-02		-51.589		6.834e-03		11.534
4		0.00		7.20		2.867e-02		-51.688		7.508e-03		9.487
4		0.00		6.80		2.865e-02		-52.674		6.973e-03		8.953
4		0.00		6.40		2.904e-02		-52.069		6.350e-03		7.602
4		0.00		6.00		2.883e-02		-52.850		5.474e-03		7.921
4		0.00		5.60		2.854e-02		-53.130		5.355e-03		8.085
4		0.00		5.20		2.801e-02		-51.651		5.748e-03		8.993
4		0.00		4.80		2.700e-02		-52.236		5.565e-03		9.790
4		0.00		4.40		2.716e-02		-52.843		6.351e-03		12.308
4		0.00		4.00		2.655e-02		-51.726		6.718e-03		12.731
4		0.00		3.60		2.632e-02		-52.157		6.564e-03		11.131
4		0.00		3.20		2.651e-02		-52.744		5.538e-03		8.026
4		0.00		2.80		2.724e-02		-52.615		4.646e-03		7.644
4		0.00		2.40		2.705e-02		-52.959		3.890e-03		7.640
4		0.00		2.00		2.760e-02		-53.063		3.731e-03		8.406
4		0.00		1.60		2.698e-02		-51.019		4.061e-03		7.702
4		0.00		1.20		2.683e-02		-50.375		4.366e-03		7.846
4		0.00		0.80		2.631e-02		-50.517		5.153e-03		12.230
4		0.00		0.40		2.605e-02		-50.922		5.657e-03		11.579
4		0.00		0.00		2.629e-02		-51.238		5.637e-03		10.168
4		0.00		-0.40		2.603e-02		-51.554		5.565e-03		9.202
4		0.00		-0.80		2.610e-02		-52.423		4.750e-03		8.189
4		0.00		-1.20		2.599e-02		-54.738		4.110e-03		7.878
4		0.00		-1.60		2.584e-02		-51.490		3.755e-03		7.972
4		0.00		-2.00		2.623e-02		-52.756		3.643e-03		7.647
4		0.00		-2.40		2.567e-02		-52.153		3.929e-03		7.486
4		0.00		-2.80		2.516e-02		-50.657		4.232e-03		7.595
4		0.00		-3.20		2.363e-02		-53.073		4.782e-03		9.614
4		0.00		-3.60		2.225e-02		-51.736		4.702e-03		11.602
4		0.00		-4.00		2.069e-02		-51.805		5.143e-03		9.738
4		0.00		-4.40		1.844e-02		-51.287		4.526e-03		12.911
4		0.00		-4.80		1.637e-02		-50.195		3.689e-03		9.608
4		0.00		-5.20		1.436e-02		-51.185		2.695e-03		9.564
4		0.00		-5.60		1.207e-02		-55.637		2.046e-03		10.818
4		0.00		-6.00		8.917e-03		-50.339		1.540e-03		12.398
4		0.00		-6.40		5.405e-03		-51.123		1.390e-03		16.395
4		0.00		-6.80		2.154e-03		-46.054		7.855e-04		63.200
4		0.00		-7.20		2.902e-03		93.602		1.210e-03		58.715
4		0.00		-7.60		5.625e-03		123.479		1.831e-03		23.245
4		0.00		-8.00		8.386e-03		119.001		2.202e-03		19.622
4		0.00		-8.40		1.059e-02		124.001		2.716e-03		16.512
4		0.00		-8.80		1.168e-02		122.345		3.035e-03		14.890
4		0.00		-9.20		1.301e-02		124.016		3.366e-03		12.209
4		0.00		-9.60		1.473e-02		124.337		3.929e-03		10.062
4		0.00		-10.00		1.542e-02		125.245		3.649e-03		7.743
4		0.00		-9.60		1.660e-02		124.546		3.397e-03		9.168
4		0.00		-9.20		1.660e-02		126.441		3.516e-03		8.081
4		0.00		-8.80		1.636e-02		126.320		3.516e-03		9.804
4		0.00		-8.40		1.660e-02		125.662		3.617e-03		8.963
4		0.00		-8.00		1.549e-02		125.395		3.681e-03		12.312
4		0.00		-7.60		1.586e-02		128.307		3.829e-03		12.133
4		0.00		-7.20		1.532e-02		123.800		4.185e-03		17.471
4		0.00		-6.80		1.430e-02		124.156		3.789e-03		17.860
4		0.00		-6.40		1.362e-02		126.150		3.563e-03		9.846
4		0.00		-6.00		1.348e-02		124.001		3.071e-03		10.818
4		0.00		-5.60		1.303e-02		123.851		2.987e-03		7.919
4		0.00		-5.20		1.251e-02		127.206		2.515e-03		9.670
4		0.00		-4.80		1.201e-02		125.085		2.550e-03		8.349
4		0.00		-4.40		1.139e-02		123.392		2.467e-03		10.458
4		0.00		-4.00		1.073e-02		123.240		2.242e-03		11.150
4		0.00		-3.60		1.005e-02		125.689		2.574e-03		13.878
4		0.00		-3.20		9.427e-03		127.619		2.585e-03		17.498
4		0.00		-2.80		9.636e-03		124.551		2.518e-03		16.765
4		0.00		-2.40		8.749e-03		125.543		2.316e-03		15.439
4		0.00		-2.00		9.019e-03		124.611		2.217e-03		13.218
4		0.00		-1.60		8.452e-03		127.935		1.656e-03		10.602
4		0.00		-1.20		8.232e-03		127.064		1.860e-03		12.060
4		0.00		-0.80		8.297e-03		128.295		1.624e-03		13.223
4		0.00		-0.40		7.459e-03		125.022		1.583e-03		14.287
5		0.00		0.00		7.282e-03		127.126		1.956e-03		16.541
5		0.00		0.40		6.879e-03		122.989		1.967e-03		19.924
5		0.00		0.80		6.409e-03		127.379		1.844e-03		22.859
5		0.00		1.20		5.971e-03		124.448		1.895e-03		24.262
5		0.00		1.60		5.324e-03		131.886		1.520e-03		18.843
5		0.00		2.00		5.328e-03		126.749		1.617e-03		18.856
5		0.00		2.40		4.778e-03		125.127		1.425e-03		29.088
5		0.00		2.80		3.436e-03		113.899		1.053e-03		45.495
5		0.00		3.20		3.015e-03		106.254		1.089e-03		56.329
5		0.00		3.60		2.242e-03		66.045		9.660e-04		81.678
5		0.00		4.00		1.968e-03		7.637		8.114e-04		76.490
5		0.00		4.40		2.047e-03		-54.055		8.850e-04		50.296
5		0.00		4.80		2.904e-03		-58.971		1.042e-03		41.059
5		0.00		5.20		3.859e-03		-61.735		1.248e-03		24.546
5		0.00		5.60		5.359e-03		-57.060		1.437e-03		20.050
5		0.00		6.00		5.936e-03		-52.798		1.501e-03		17.196
5		0.00		6.40		7.238e-03		-57.758		1.773e-03		15.019
5		0.00		6.80		8.442e-03		-50.354		1.841e-03		14.567
5		0.00		7.20		1.027e-02		-56.129		2.338e-03		11.452
5		0.00		7.60		1.129e-02		-53.481		2.596e-03		14.183
5		0.00		8.00		1.327e-02		-55.154		3.187e-03		15.073
5		0.00		8.40		1.497e-02		-51.168		3.777e-03		12.619
5		0.00		8.80		1.629e-02		-53.233		4.093e-03		11.291
5		0.00		9.20		1.862e-02		-52.858		4.311e-03		10.601
5		0.00		9.60		2.244e-02		-53.371		4.418e-03		8.715
5		0.00		10.00		2.565e-02		-52.320		4.612e-03		7.157
5		0.00		9.60		2.673e-02		-54.065		4.333e-03		7.789
5		0.00		9.20		2.801e-02		-51.440		4.504e-03		7.282
5		0.00		8.80		2.777e-02		-51.882		4.857e-03		8.153
5		0.00		8.40		2.795e-02		-51.459		4.726e-03		8.100
5		0.00		8.00		2.744e-02		-52.329		5.074e-03		9.570
5		0.00		7.60		2.688e-02		-50.191		5.507e-03		10.145
5		0.00		7.20		2.686e-02		-50.700		5.962e-03		10.651
5		0.00		6.80		2.682e-02		-51.434		6.377e-03		11.787
5		0.00		6.40		2.626e-02		-52.690		6.233e-03		10.670
5		0.00		6.00		2.575e-02		-52.864		6.544e-03		10.137
5		0.00		5.60		2.514e-02		-55.295		5.790e-03		8.872
5		0.00		5.20		2.549e-02		-53.615		5.206e-03		7.102
5		0.00		4.80		2.563e-02		-50.690		4.716e-03		8.104
5		0.00		4.40		2.531e-02		-52.528		4.335e-03		7.098
5		0.00		4.00		2.490e-02		-52.126		4.280e-03		8.018
5		0.00		3.60		2.461e-02		-50.651		4.553e-03		9.486
5		0.00		3.20		2.387e-02		-50.948		4.732e-03		10.333
5		0.00		2.80		2.343e-02		-52.114		5.233e-03		10.995
5		0.00		2.40		2.357e-02		-49.999		5.100e-03		10.450
5		0.00		2.00		2.382e-02		-50.391		5.406e-03		12.118
5		0.00		1.60		2.365e-02		-51.130		5.856e-03		12.261
5		0.00		1.20		2.330e-02		-48.522		5.202e-03		8.782
5		0.00		0.80		2.379e-02		-52.651		4.753e-03		8.661
5		0.00		0.40		2.384e-02		-52.379		4.258e-03		8.898
5		0.00		0.00		2.488e-02		-53.669		4.083e-03		6.910
5		0.00		-0.40		2.450e-02		-52.706		3.927e-03		7.514
5		0.00		-0.80		2.435e-02		-51.955		3.969e-03		7.733
5		0.00		-1.20		2.393e-02		-50.644		4.213e-03		9.510
5		0.00		-1.60		2.349e-02		-50.287		4.607e-03		11.308
5		0.00		-2.00		2.286e-02		-53.319		5.426e-03		13.235
5		0.00		-2.40		2.244e-02		-52.276		5.848e-03		10.687
5		0.00		-2.80		2.146e-02		-52.736		5.600e-03		10.279
5		0.00		-3.20		2.104e-02		-52.826		4.732e-03		8.672
5		0.00		-3.60		2.088e-02		-53.536		3.930e-03		7.595
5		0.00		-4.00		1.994e-02		-52.108		3.449e-03		8.615
5		0.00		-4.40		1.806e-02		-54.138		2.994e-03		10.794
5		0.00		-4.80		1.566e-02		-52.781		2.685e-03		12.163
5		0.00		-5.20		1.311e-02		-51.860		2.539e-03		9.466
5		0.00		-5.60		1.027e-02		-55.859		2.414e-03		12.484
5		0.00		-6.00		6.949e-03		-48.430		1.810e-03		15.577
5		0.00		-6.40		3.696e-03		-51.746		1.366e-03		25.670
5		0.00		-6.80		2.002e-03		-15.284		8.876e-04		63.673
5		0.00		-7.20		3.043e-03		94.125		1.203e-03		55.377
5		0.00		-7.60		5.699e-03		115.963		1.691e-03		17.265
5		0.00		-8.00		9.124e-03		128.610		2.008e-03		11.857
5		0.00		-8.40		1.182e-02		126.357		2.251e-03		8.880
5		0.00		-8.80		1.275e-02		127.495		2.553e-03		10.426
5		0.00		-9.20		1.378e-02		126.916		2.746e-03		9.642
5		0.00		-9.60		1.522e-02		125.787		2.978e-03		9.639
5		0.00		-10.00		1.614e-02		126.097		3.621e-03		13.165
5		0.00		-9.60		1.616e-02		125.680		3.707e-03		13.267
5		0.00		-9.20		1.674e-02		125.641		4.048e-03		13.300
5		0.00		-8.80		1.637e-02		124.639		4.314e-03		11.863
5		0.00		-8.40		1.665e-02		123.702		3.817e-03		9.642
5		0.00		-8.00		1.630e-02		125.474		3.234e-03		8.651
5		0.00		-7.60		1.626e-02		126.403		3.077e-03		8.994
5		0.00		-7.20		1.607e-02		125.466		3.066e-03		8.211
5		0.00		-6.80		1.482e-02		127.030		2.712e-03		10.323
5		0.00		-6.40		1.422e-02		127.735		3.072e-03		9.727
5		0.00		-6.00		1.343e-02		125.297		3.074e-03		14.615
5		0.00		-5.60		1.291e-02		123.795		3.400e-03		18.100
5		0.00		-5.20		1.251e-02		123.542		2.914e-03		18.170
5		0.00		-4.80		1.227e-02		125.447		2.951e-03		11.341
5		0.00		-4.40		1.197e-02		127.463		2.727e-03		9.419
5		0.00		-4.00		1.120e-02		125.056		2.474e-03		9.873
5		0.00		-3.60		1.085e-02		125.202		2.135e-03		12.490
5		0.00		-3.20		1.081e-02		124.691		1.861e-03		11.921
5		0.00		-2.80		1.058e-02		128.680		2.013e-03		9.352
5		0.00		-2.40		9.639e-03		127.758		2.034e-03		8.968
5		0.00		-2.00		9.011e-03		127.192		1.980e-03		11.193
5		0.00		-1.60		9.040e-03		124.565		2.311e-03		15.747
5		0.00		-1.20		8.846e-03		124.772		2.344e-03		16.644
5		0.00		-0.80		8.031e-03		126.839		2.474e-03		21.213
5		0.00		-0.40		7.810e-03		125.799		2.483e-03		16.358
6		0.00		0.00		7.389e-03		126.429		2.146e-03		14.183
6		0.00		0.40		6.981e-03		125.117		1.861e-03		14.430
6		0.00		0.80		7.050e-03		123.315		1.891e-03		11.693
6		0.00		1.20		6.842e-03		130.534		1.766e-03		16.405
6		0.00		1.60		6.174e-03		120.396		1.530e-03		19.259
6		0.00		2.00		5.322e-03		123.054		1.542e-03		20.485
6		0.00		2.40		4.620e-03		124.264		1.411e-03		22.190
6		0.00		2.80		3.682e-03		120.828		1.229e-03		40.232
6		0.00		3.20		2.825e-03		100.788		1.022e-03		51.052
6		0.00		3.60		2.112e-03		56.593		8.095e-04		73.449
6		0.00		4.00		1.798e-03		27.885		6.295e-04		79.134
6		0.00		4.40		1.894e-03		-23.344		8.805e-04		75.814
6		0.00		4.80		2.675e-03		-61.092		1.147e-03		43.940
6		0.00		5.20		3.146e-03		-57.172		1.110e-03		26.003
6		0.00		5.60		4.060e-03		-48.426		1.211e-03		20.830
6		0.00		6.00		5.184e-03		-54.916		1.212e-03		19.252
6		0.00		6.40		6.370e-03		-53.135		1.400e-03		17.270
6		0.00		6.80		7.809e-03		-48.807		1.757e-03		14.420
6		0.00		7.20		9.256e-03		-51.984		2.235e-03		15.870
6		0.00		7.60		1.091e-02		-52.120		2.716e-03		14.577
6		0.00		8.00		1.298e-02		-53.063		3.473e-03		12.678
6		0.00		8.40		1.505e-02		-52.628		3.417e-03		8.517
6		0.00		8.80		1.784e-02		-54.394		3.714e-03		8.113
6		0.00		9.20		2.055e-02		-54.007		3.619e-03		9.107
6		0.00		9.60		2.364e-02		-52.546		4.040e-03		8.427
6		0.00		10.00		2.609e-02		-52.641		4.502e-03		8.380
6		0.00		9.60		2.722e-02		-51.090		5.167e-03		8.284
6		0.00		9.20		2.761e-02		-51.167		5.875e-03		9.290
6		0.00		8.80		2.818e-02		-51.805		5.904e-03		10.652
6		0.00		8.40		2.795e-02		-52.016		6.524e-03		11.135
6		0.00		8.00		2.821e-02		-51.810		6.404e-03		9.408
6		0.00		7.60		2.882e-02		-53.105		5.302e-03		6.963
6		0.00		7.20		2.834e-02		-52.887		5.000e-03		7.340
6		0.00		6.80		2.819e-02		-53.380		4.518e-03		8.054
6		0.00		6.40		2.750e-02		-52.110		4.510e-03		9.364
6		0.00		6.00		2.724e-02		-50.651		4.539e-03		8.589
6		0.00		5.60		2.668e-02		-50.633		5.195e-03		9.538
6		0.00		5.20		2.574e-02		-52.309		5.991e-03		12.832
6		0.00		4.80		2.511e-02		-51.479		6.374e-03		11.187
6		0.00		4.40		2.536e-02		-52.621		6.183e-03		7.652
6		0.00		4.00		2.565e-02		-53.900		5.480e-03		8.103
6		0.00		3.60		2.562e-02		-54.265		4.638e-03		8.051
6		0.00		3.20		2.570e-02		-52.745		4.585e-03		7.699
6		0.00		2.80		2.548e-02		-52.399		4.790e-03		8.024
6		0.00		2.40		2.479e-02		-49.730		5.039e-03		9.853
6		0.00		2.00		2.444e-02		-51.247		5.766e-03		11.267
6		0.00		1.60		2.458e-02		-53.422		5.763e-03		12.523
6		0.00		1.20		2.506e-02		-52.426		5.761e-03		9.079
6		0.00		0.80		2.549e-02		-51.218		5.110e-03		8.069
6		0.00		0.40		2.598e-02		-52.067		4.214e-03		7.983
6		0.00		0.00		2.577e-02		-53.933		3.931e-03		7.836
6		0.00		-0.40		2.480e-02		-50.104		3.813e-03		8.224
6		0.00		-0.80		2.462e-02		-49.521		4.308e-03		8.977
6		0.00		-1.20		2.397e-02		-53.622		4.888e-03		12.305
6		0.00		-1.60		2.395e-02		-50.109		5.442e-03		11.468
6		0.00		-2.00		2.389e-02		-52.253		5.363e-03		9.571
6		0.00		-2.40		2.356e-02		-51.230		4.956e-03		8.647
6		0.00		-2.80		2.365e-02		-52.579		4.194e-03		7.124
6		0.00		-3.20		2.269e-02		-53.088		3.806e-03		8.004
6		0.00		-3.60		2.171e-02		-52.471		3.528e-03		9.325
6		0.00		-4.00		2.003e-02		-53.676		3.613e-03		8.288
6		0.00		-4.40		1.810e-02		-50.824		3.575e-03		9.960
6		0.00		-4.80		1.500e-02		-52.710		3.598e-03		11.877
6		0.00		-5.20		1.331e-02		-52.873		3.153e-03		11.954
6		0.00		-5.60		1.065e-02		-52.759		2.369e-03		13.620
6		0.00		-6.00		8.445e-03		-55.511		1.818e-03		13.662
6		0.00		-6.40		5.313e-03		-53.071		1.431e-03		19.297
6		0.00		-6.80		2.189e-03		-25.448		8.814e-04		55.960
6		0.00		-7.20		2.372e-03		53.116		1.212e-03		75.055
6		0.00		-7.60		4.001e-03		108.609		1.371e-03		34.393
6		0.00		-8.00		6.503e-03		117.176		1.934e-03		24.024
6		0.00		-8.40		1.045e-02		122.943		2.795e-03		14.501
6		0.00		-8.80		1.120e-02		123.182		2.642e-03		9.652
6		0.00		-9.20		1.380e-02		125.851		2.766e-03		11.309
6		0.00		-9.60		1.521e-02		128.441		2.613e-03		8.499
6		0.00		-10.00		1.596e-02		127.914		2.798e-03		8.090
6		0.00		-9.60		1.590e-02		126.575		3.007e-03		9.608
6		0.00		-9.20		1.516e-02		124.843		3.095e-03		12.083
6		0.00		-8.80		1.531e-02		125.675		3.542e-03		14.539
6		0.00		-8.40		1.540e-02		124.636		4.105e-03		13.988
6		0.00		-8.00		1.496e-02		124.647		3.808e-03		10.395
6		0.00		-7.60		1.462e-02		125.532		2.898e-03		8.385
6		0.00		-7.20		1.469e-02		127.164		2.910e-03		8.892
6		0.00		-6.80		1.402e-02		127.239		2.685e-03		11.748
6		0.00		-6.40		1.297e-02		125.679		2.803e-03		9.864
6		0.00		-6.00		1.291e-02		128.594		2.988e-03		13.107
6		0.00		-5.60		1.192e-02		123.251		2.915e-03		19.231
6		0.00		-5.20		1.143e-02		123.514		3.191e-03		15.061
6		0.00		-4.80		1.083e-02		122.407		2.658e-03		13.018
6		0.00		-4.40		1.062e-02		127.172		2.176e-03		8.988
6		0.00		-4.00		1.067e-02		123.487		2.140e-03		12.252
6		0.00		-3.60		9.907e-03		123.084		2.013e-03		11.519
6		0.00		-3.20		9.502e-03		127.162		2.011e-03		11.304
6		0.00		-2.80		8.956e-03		126.666		1.964e-03		11.999
6		0.00		-2.40		8.063e-03		123.325		2.133e-03		16.339
6		0.00		-2.00		8.022e-03		126.804		2.329e-03		21.072
6		0.00		-1.60		8.034e-03		125.603		2.178e-03		12.929
6		0.00		-1.20		7.545e-03		124.066		1.808e-03		13.068
6		0.00		-0.80		7.129e-03		125.492		1.519e-03		13.697
6		0.00		-0.40		7.161e-03		126.386		1.491e-03		11.789
7		0.00		0.00		6.864e-03		127.099		1.908e-03		15.387
7		0.00		0.40		6.675e-03		125.286		1.701e-03		20.906
7		0.00		0.80		6.128e-03		123.289		1.845e-03		20.839
7		0.00		1.20		5.445e-03		118.652		1.686e-03		28.127
7		0.00		1.60		5.281e-03		123.738		1.515e-03		20.628
7		0.00		2.00		4.550e-03		127.868		1.268e-03		20.408
7		0.00		2.40		3.911e-03		116.218		1.431e-03		40.270
7		0.00		2.80		3.386e-03		104.417		1.118e-03		42.933
7		0.00		3.20		2.440e-03		75.143		1.094e-03		80.291
7		0.00		3.60		1.833e-03		26.116		7.628e-04		72.893
7		0.00		4.00		1.603e-03		9.775		6.756e-04		69.770
7		0.00		4.40		1.893e-03		-44.194		8.283e-04		62.594
7		0.00		4.80		2.606e-03		-56.772		1.103e-03		33.762
7		0.00		5.20		3.534e-03		-52.074		1.116e-03		32.008
7		0.00		5.60		4.386e-03		-66.822		1.233e-03		25.161
7		0.00		6.00		5.771e-03		-55.650		1.594e-03		16.503
7		0.00		6.40		7.133e-03		-51.046		1.663e-03		14.874
7		0.00		6.80		8.115e-03		-50.975		2.097e-03		14.943
7		0.00		7.20		9.653e-03		-51.260		2.248e-03		11.862
7		0.00		7.60		1.138e-02		-55.112		2.209e-03		11.003
7		0.00		8.00		1.301e-02		-53.247		2.338e-03		10.916
7		0.00		8.40		1.438e-02		-52.105		2.625e-03		12.369
7		0.00		8.80		1.567e-02		-52.420		3.628e-03		11.372
7		0.00		9.20		1.770e-02		-54.004		4.523e-03		15.877
7		0.00		9.60		2.014e-02		-52.096		5.328e-03		10.518
7		0.00		10.00		2.314e-02		-54.280		5.444e-03		8.574
7		0.00		9.60		2.498e-02		-53.208		4.901e-03		8.031
7		0.00		9.20		2.640e-02		-52.852		4.678e-03		8.087
7		0.00		8.80		2.554e-02		-51.302		5.409e-03		9.394
7		0.00		8.40		2.556e-02		-51.046		6.073e-03		11.094
7		0.00		8.00		2.584e-02		-51.031		6.191e-03		11.271
7		0.00		7.60		2.575e-02		-54.270		5.647e-03		8.388
7		0.00		7.20		2.615e-02		-53.561		4.284e-03		7.397
7		0.00		6.80		2.558e-02		-52.904		4.078e-03		8.526
7		0.00		6.40		2.537e-02		-49.255		4.056e-03		8.694
7		0.00		6.00		2.434e-02		-50.655		4.860e-03		9.482
7		0.00		5.60		2.417e-02		-50.740		5.337e-03		10.970
7		0.00		5.20		2.373e-02		-53.920		5.380e-03		8.507
7		0.00		4.80		2.411e-02		-52.631		4.762e-03		8.254
7		0.00		4.40		2.444e-02		-53.288		3.958e-03		7.376
7		0.00		4.00		2.402e-02		-50.820		3.617e-03		8.232
7		0.00		3.60		2.414e-02		-50.340		3.994e-03		8.509
7		0.00		3.20		2.313e-02		-51.485		5.053e-03		12.898
7		0.00		2.80		2.267e-02		-51.709		5.539e-03		9.609
7		0.00		2.40		2.306e-02		-51.919		4.741e-03		8.431
7		0.00		2.00		2.365e-02		-51.202		3.711e-03		7.452
7		0.00		1.60		2.336e-02		-52.497		3.490e-03		8.130
7		0.00		1.20		2.329e-02		-51.519		3.800e-03		7.873
7		0.00		0.80		2.298e-02		-53.092		4.880e-03		11.685
7		0.00		0.40		2.248e-02		-52.643		5.424e-03		12.162
7		0.00		0.00		2.235e-02		-52.412		5.171e-03		9.267
7		0.00		-0.40		2.309e-02		-52.291		3.768e-03		7.610
7		0.00		-0.80		2.308e-02		-51.883		3.662e-03		8.594
7		0.00		-1.20		2.346e-02		-49.958		3.985e-03		8.141
7		0.00		-1.60		2.227e-02		-50.786		4.497e-03		12.109
7		0.00		-2.00		2.206e-02		-51.652		4.802e-03		12.220
7		0.00		-2.40		2.129e-02		-52.418		4.368e-03		10.163
7		0.00		-2.80		2.111e-02		-51.855		3.271e-03		7.999
7		0.00		-3.20		2.069e-02		-50.886		2.962e-03		7.553
7		0.00		-3.60		1.951e-02		-49.209		2.970e-03		9.410
7		0.00		-4.00		1.820e-02		-50.900		3.283e-03		9.721
7		0.00		-4.40		1.640e-02		-49.366		3.630e-03		8.793
7		0.00		-4.80		1.532e-02		-51.649		2.936e-03		10.248
7		0.00		-5.20		1.389e-02		-53.673		2.432e-03		8.495
7		0.00		-5.60		1.124e-02		-50.305		1.936e-03		11.797
7		0.00		-6.00		9.686e-03		-53.633		1.913e-03		11.897
7		0.00		-6.40		6.158e-03		-54.811		1.642e-03		16.176
7		0.00		-6.80		3.453e-03		-39.401		1.354e-03		32.968
7		0.00		-7.20		2.055e-03		26.759		9.309e-04		86.227
7		0.00		-7.60		4.056e-03		110.366		1.559e-03		32.510
7		0.00		-8.00		6.412e-03		119.000		1.767e-03		13.790
7		0.00		-8.40		8.202e-03		127.289		1.885e-03		12.405
7		0.00		-8.80		1.063e-02		124.339		2.764e-03		17.084
7		0.00		-9.20		1.206e-02		124.828		3.311e-03		17.475
7		0.00		-9.60		1.329e-02		125.078		2.841e-03		11.164
7		0.00		-10.00		1.505e-02		126.434		2.699e-03		8.817
7		0.00		-9.60		1.552e-02		126.785		2.736e-03		7.817
7		0.00		-9.20		1.501e-02		128.067		2.878e-03		9.359
7		0.00		-8.80		1.538e-02		126.527		3.391e-03		14.219
7		0.00		-8.40		1.488e-02		127.505		3.423e-03		10.833
7		0.00		-8.00		1.477e-02		126.101		3.357e-03		8.924
7		0.00		-7.60		1.444e-02		124.470		2.630e-03		9.723
7		0.00		-7.20		1.429e-02		126.665		2.519e-03		9.115
7		0.00		-6.80		1.379e-02		127.285		2.363e-03		10.221
7		0.00		-6.40		1.285e-02		125.356		2.762e-03		14.984
7		0.00		-6.00		1.233e-02		125.501		2.835e-03		11.510
7		0.00		-5.60		1.200e-02		124.980		2.620e-03		10.732
7		0.00		-5.20		1.196e-02		127.857		2.034e-03		10.383
7		0.00		-4.80		1.139e-02		125.561		2.201e-03		8.815
7		0.00		-4.40		1.073e-02		128.090		2.403e-03		11.574
7		0.00		-4.00		1.015e-02		123.396		2.597e-03		17.817
7		0.00		-3.60		9.817e-03		124.321		2.584e-03		14.182
7		0.00		-3.20		9.378e-03		122.201		2.057e-03		11.368
7		0.00		-2.80		9.116e-03		128.886		1.986e-03		12.188
7		0.00		-2.40		9.021e-03		125.638		1.984e-03		13.151
7		0.00		-2.00		8.505e-03		121.371		2.033e-03		15.226
7		0.00		-1.60		8.123e-03		124.057		1.949e-03		13.123
7		0.00		-1.20		8.203e-03		125.898		2.170e-03		13.164
7		0.00		-0.80		7.959e-03		123.588		1.799e-03		11.038
7		0.00		-0.40		7.710e-03		122.515		1.569e-03		12.924
8		0.00		0.00		7.350e-03		126.016		1.796e-03		12.020
8		0.00		0.40		6.558e-03		122.821		1.896e-03		24.286
8		0.00		0.80		6.545e-03		125.749		1.796e-03		14.249
8		0.00		1.20		6.488e-03		122.536		1.654e-03		14.130
8		0.00		1.60		5.919e-03		125.332		1.522e-03		23.213
8		0.00		2.00		5.099e-03		125.458		1.650e-03		19.672
8		0.00		2.40		4.232e-03		123.541		1.417e-03		19.860
8		0.00		2.80		3.499e-03		103.525		1.450e-03		42.501
8		0.00		3.20		3.086e-03		111.135		1.320e-03		41.930
8		0.00		3.60		2.180e-03		63.318		9.992e-04		68.912
8		0.00		4.00		1.663e-03		26.285		7.248e-04		90.803
8		0.00		4.40		1.849e-03		-34.340		7.680e-04		69.301
8		0.00		4.80		2.254e-03		-46.769		9.197e-04		52.058
8		0.00		5.20		3.316e-03		-60.437		1.364e-03		28.730
8		0.00		5.60		4.349e-03		-60.399		1.424e-03		23.305
8		0.00		6.00		5.558e-03		-52.482		1.290e-03		17.219
8		0.00		6.40		6.887e-03		-55.501		1.232e-03		13.165
8		0.00		6.80		7.797e-03		-48.454		1.740e-03		15.049
8		0.00		7.20		8.833e-03		-49.312		2.114e-03		15.803
8		0.00		7.60		1.059e-02		-51.853		2.478e-03		13.316
8		0.00		8.00		1.273e-02		-50.687		2.491e-03		8.939
8		0.00		8.40		1.426e-02		-49.516		2.147e-03		9.354
8		0.00		8.80		1.603e-02		-51.308		2.475e-03		9.070
8		0.00		9.20		1.729e-02		-49.518		3.150e-03		9.354
8		0.00		9.60		1.970e-02		-51.095		4.102e-03		11.917
8		0.00		10.00		2.224e-02		-52.651		4.969e-03		8.774
8		0.00		9.60		2.367e-02		-51.265		4.680e-03		7.404
8		0.00		9.20		2.521e-02		-52.904		4.082e-03		7.037
8		0.00		8.80		2.550e-02		-53.286		4.140e-03		8.583
8		0.00		8.40		2.499e-02		-49.321		4.728e-03		9.184
8		0.00		8.00		2.450e-02		-51.431		5.647e-03		13.294
8		0.00		7.60		2.426e-02		-54.320		5.908e-03		9.467
8		0.00		7.20		2.478e-02		-51.551		4.876e-03		7.560
8		0.00		6.80		2.473e-02		-51.770		3.887e-03		8.886
8		0.00		6.40		2.455e-02		-51.011		3.858e-03		8.036
8		0.00		6.00		2.370e-02		-51.107		4.550e-03		7.619
8		0.00		5.60		2.349e-02		-51.210		5.701e-03		9.656
8		0.00		5.20		2.327e-02		-52.443		5.565e-03		9.822
8		0.00		4.80		2.382e-02		-53.532		4.586e-03		8.311
8		0.00		4.40		2.353e-02		-54.301		3.838e-03		8.326
8		0.00		4.00		2.283e-02		-52.228		3.908e-03		9.784
8		0.00		3.60		2.268e-02		-49.121		4.534e-03		9.910
8		0.00		3.20		2.221e-02		-50.779		5.068e-03		13.424
8		0.00		2.80		2.205e-02		-52.209		5.077e-03		9.832
8		0.00		2.40		2.260e-02		-53.611		4.113e-03		8.850
8		0.00		2.00		2.266e-02		-53.255		3.715e-03		7.918
8		0.00		1.60		2.232e-02		-50.241		3.942e-03		8.692
8		0.00		1.20		2.181e-02		-50.478		4.309e-03		10.889
8		0.00		0.80		2.167e-02		-51.704		4.988e-03		11.825
8		0.00		0.40		2.088e-02		-51.025		5.141e-03		9.160
8		0.00		0.00		2.110e-02		-51.761		4.409e-03		7.909
8		0.00		-0.40		2.135e-02		-52.004		3.659e-03		7.782
8		0.00		-0.80		2.125e-02		-52.770		4.448e-03		10.302
8		0.00		-1.20		2.128e-02		-50.323		4.947e-03		11.176
8		0.00		-1.60		1.990e-02		-53.993		5.105e-03		15.017
8		0.00		-2.00		1.987e-02		-52.487		5.245e-03		11.669
8		0.00		-2.40		1.952e-02		-54.290		4.483e-03		9.120
8		0.00		-2.80		1.926e-02		-53.167		3.783e-03		9.664
8		0.00		-3.20		1.906e-02		-50.972		3.376e-03		9.508
8		0.00		-3.60		1.745e-02		-50.910		3.284e-03		11.241
8		0.00		-4.00		1.679e-02		-53.127		3.420e-03		12.384
8		0.00		-4.40		1.537e-02		-49.690		3.740e-03		13.333
8		0.00		-4.80		1.460e-02		-52.931		3.416e-03		10.643
8		0.00		-5.20		1.292e-02		-53.408		2.493e-03		8.844
8		0.00		-5.60		1.038e-02		-48.125		1.907e-03		11.911
8		0.00		-6.00		7.756e-03		-47.398		1.450e-03		14.602
8		0.00		-6.40		4.369e-03		-45.653		1.370e-03		20.632
8		0.00		-6.80		2.047e-03		-53.593		8.296e-04		62.830
8		0.00		-7.20		3.021e-03		102.936		1.139e-03		44.546
8		0.00		-7.60		5.839e-03		119.415		1.715e-03		20.090
8		0.00		-8.00		8.530e-03		122.888		1.995e-03		11.751
8		0.00		-8.40		9.877e-03		125.681		2.437e-03		12.536
8		0.00		-8.80		1.042e-02		125.130		2.330e-03		10.522
8		0.00		-9.20		1.195e-02		124.626		3.059e-03		15.179
8		0.00		-9.60		1.317e-02		122.972		3.469e-03		19.385
8		0.00		-10.00		1.428e-02		123.285		3.896e-03		15.015
8		0.00		-9.60		1.494e-02		126.600		3.600e-03		9.156
8		0.00		-9.20		1.556e-02		124.246		2.978e-03		8.699
8		0.00		-8.80		1.584e-02		125.197		2.971e-03		8.770
8		0.00		-8.40		1.516e-02		124.453		3.085e-03		7.643
8		0.00		-8.00		1.451e-02		127.331		3.362e-03		14.050
8		0.00		-7.60		1.371e-02		126.163		3.632e-03		18.390
8		0.00		-7.20		1.369e-02		125.726		3.215e-03		10.815
8		0.00		-6.80		1.359e-02		123.225		3.096e-03		8.747
8		0.00		-6.40		1.350e-02		127.897		2.532e-03		9.460
8		0.00		-6.00		1.265e-02		125.963		2.496e-03		10.055
8		0.00		-5.60		1.201e-02		126.970		2.761e-03		11.477
8		0.00		-5.20		1.149e-02		124.916		2.640e-03		15.639
8		0.00		-4.80		1.082e-02		124.409		2.852e-03		16.032
8		0.00		-4.40		1.056e-02		124.409		2.547e-03		14.388
8		0.00		-4.00		1.021e-02		128.411		2.319e-03		10.131
8		0.00		-3.60		9.877e-03		123.906		2.215e-03		10.767
8		0.00		-3.20		9.341e-03		123.617		1.902e-03		12.028
8		0.00		-2.80		9.083e-03		128.575		2.232e-03		11.000
8		0.00		-2.40		8.558e-03		124.327		2.348e-03		17.570
8		0.00		-2.00		7.866e-03		127.458		2.355e-03		23.121
8		0.00		-1.60		7.533e-03		126.057		2.372e-03		21.317
8		0.00		-1.20		7.353e-03		123.395		2.172e-03		14.031
8		0.00		-0.80		7.436e-03		121.043		1.934e-03		12.242
8		0.00		-0.40		7.212e-03		122.572		1.718e-03		14.488
