# Date of analysis: 2024-03-08 10;58
# Segment other properties: height: -40.14944049016529, diff height: 228.3420954625922, deflection: 35.87705572625911, deflection error: 2.9983879749479705, adhesion: 39.26133557358382, phase offset: 0
# 
# Loop index	Read Volt (V)	Write Volt (V)	Amplitude (a.u)	Phase (deg)	Sigma Amp (a.u)	Sigma Pha (deg)	
1		0.00		0.00		3.139e-02		-53.931		7.605e-03		11.277
1		0.00		0.40		2.953e-02		-54.121		7.103e-03		12.897
1		0.00		0.80		2.898e-02		-53.740		7.133e-03		15.204
1		0.00		1.20		2.832e-02		-55.037		7.306e-03		14.781
1		0.00		1.60		2.762e-02		-53.256		7.347e-03		15.392
1		0.00		2.00		2.767e-02		-53.252		7.398e-03		15.777
1		0.00		2.40		2.782e-02		-52.897		7.745e-03		17.479
1		0.00		2.80		2.730e-02		-52.508		8.135e-03		18.537
1		0.00		3.20		2.764e-02		-48.540		8.041e-03		17.311
1		0.00		3.60		2.739e-02		-48.119		7.849e-03		16.601
1		0.00		4.00		2.766e-02		-49.186		7.796e-03		13.491
1		0.00		4.40		2.851e-02		-50.728		7.723e-03		11.667
1		0.00		4.80		2.890e-02		-50.524		7.274e-03		10.429
1		0.00		5.20		2.895e-02		-51.659		6.527e-03		10.519
1		0.00		5.60		2.955e-02		-52.513		6.482e-03		12.196
1		0.00		6.00		3.053e-02		-51.718		6.393e-03		11.978
1		0.00		6.40		3.090e-02		-54.643		7.120e-03		14.516
1		0.00		6.80		3.143e-02		-52.186		7.183e-03		14.478
1		0.00		7.20		3.295e-02		-51.073		8.001e-03		13.959
1		0.00		7.60		3.365e-02		-52.136		8.725e-03		14.347
1		0.00		8.00		3.608e-02		-52.468		9.985e-03		15.638
1		0.00		8.40		3.811e-02		-52.944		1.106e-02		14.472
1		0.00		8.80		3.974e-02		-51.575		1.229e-02		15.957
1		0.00		9.20		4.187e-02		-50.458		1.347e-02		17.900
1		0.00		9.60		4.521e-02		-49.015		1.446e-02		15.386
1		0.00		10.00		4.704e-02		-51.485		1.493e-02		10.545
1		0.00		9.60		4.839e-02		-52.641		1.474e-02		9.472
1		0.00		9.20		4.831e-02		-52.185		1.336e-02		9.556
1		0.00		8.80		4.771e-02		-53.429		1.222e-02		9.889
1		0.00		8.40		4.703e-02		-54.595		1.114e-02		11.033
1		0.00		8.00		4.581e-02		-54.117		1.061e-02		11.776
1		0.00		7.60		4.498e-02		-53.375		1.098e-02		12.870
1		0.00		7.20		4.297e-02		-52.953		1.092e-02		15.460
1		0.00		6.80		4.158e-02		-52.250		1.128e-02		14.675
1		0.00		6.40		4.069e-02		-53.702		1.102e-02		16.444
1		0.00		6.00		3.905e-02		-51.252		1.087e-02		15.532
1		0.00		5.60		3.872e-02		-48.281		1.129e-02		20.592
1		0.00		5.20		3.925e-02		-51.160		1.129e-02		12.702
1		0.00		4.80		3.839e-02		-52.153		1.080e-02		11.188
1		0.00		4.40		3.829e-02		-53.235		1.019e-02		9.864
1		0.00		4.00		3.746e-02		-52.708		9.282e-03		9.586
1		0.00		3.60		3.691e-02		-53.713		8.866e-03		10.794
1		0.00		3.20		3.685e-02		-53.348		9.019e-03		12.347
1		0.00		2.80		3.627e-02		-54.678		9.424e-03		13.873
1		0.00		2.40		3.452e-02		-54.245		9.720e-03		15.282
1		0.00		2.00		3.400e-02		-52.525		9.743e-03		15.110
1		0.00		1.60		3.284e-02		-54.026		9.687e-03		21.470
1		0.00		1.20		3.199e-02		-53.821		9.445e-03		22.395
1		0.00		0.80		3.221e-02		-48.176		9.684e-03		20.634
1		0.00		0.40		3.189e-02		-50.360		8.893e-03		11.987
1		0.00		0.00		3.167e-02		-52.171		8.183e-03		11.639
1		0.00		-0.40		3.186e-02		-51.877		7.017e-03		10.616
1		0.00		-0.80		3.000e-02		-52.314		6.132e-03		12.072
1		0.00		-1.20		2.867e-02		-51.691		5.362e-03		12.297
1		0.00		-1.60		2.547e-02		-51.670		5.187e-03		14.453
1		0.00		-2.00		2.290e-02		-50.383		4.652e-03		13.563
1		0.00		-2.40		2.062e-02		-50.598		4.582e-03		14.250
1		0.00		-2.80		1.770e-02		-49.229		4.190e-03		14.726
1		0.00		-3.20		1.433e-02		-46.771		3.734e-03		15.300
1		0.00		-3.60		1.215e-02		-45.804		3.392e-03		12.908
1		0.00		-4.00		8.415e-03		-41.874		3.078e-03		17.979
1		0.00		-4.40		5.742e-03		-35.129		2.619e-03		23.228
1		0.00		-4.80		4.028e-03		-21.628		2.229e-03		46.779
1		0.00		-5.20		3.233e-03		30.076		1.400e-03		62.014
1		0.00		-5.60		4.251e-03		82.798		1.950e-03		51.221
1		0.00		-6.00		5.608e-03		97.238		2.379e-03		40.025
1		0.00		-6.40		7.773e-03		113.112		2.730e-03		26.636
1		0.00		-6.80		9.437e-03		114.887		3.382e-03		25.140
1		0.00		-7.20		1.046e-02		116.633		3.719e-03		24.491
1		0.00		-7.60		1.354e-02		120.846		4.459e-03		23.413
1		0.00		-8.00		1.367e-02		119.268		4.330e-03		25.124
1		0.00		-8.40		1.548e-02		123.036		4.827e-03		15.520
1		0.00		-8.80		1.645e-02		122.919		5.126e-03		9.060
1		0.00		-9.20		1.610e-02		121.200		4.361e-03		9.766
1		0.00		-9.60		1.792e-02		124.784		4.183e-03		9.938
1		0.00		-10.00		1.824e-02		124.351		3.863e-03		10.874
1		0.00		-9.60		1.812e-02		121.466		4.056e-03		11.810
1		0.00		-9.20		1.776e-02		122.764		4.024e-03		11.102
1		0.00		-8.80		1.858e-02		125.261		4.360e-03		10.164
1		0.00		-8.40		1.806e-02		122.461		4.860e-03		16.524
1		0.00		-8.00		1.645e-02		120.674		5.108e-03		19.588
1		0.00		-7.60		1.626e-02		120.648		5.186e-03		23.406
1		0.00		-7.20		1.464e-02		126.630		4.853e-03		11.674
1		0.00		-6.80		1.486e-02		125.588		4.488e-03		10.495
1		0.00		-6.40		1.463e-02		125.183		3.984e-03		9.870
1		0.00		-6.00		1.394e-02		122.182		3.922e-03		11.781
1		0.00		-5.60		1.313e-02		122.528		3.581e-03		11.739
1		0.00		-5.20		1.225e-02		122.651		3.529e-03		15.259
1		0.00		-4.80		1.102e-02		123.620		3.046e-03		14.832
1		0.00		-4.40		1.016e-02		115.846		3.275e-03		24.858
1		0.00		-4.00		9.845e-03		117.553		2.979e-03		29.120
1		0.00		-3.60		9.231e-03		117.931		2.901e-03		29.211
1		0.00		-3.20		8.971e-03		116.910		2.645e-03		25.355
1		0.00		-2.80		8.718e-03		114.074		2.617e-03		24.068
1		0.00		-2.40		8.256e-03		120.594		2.696e-03		18.655
1		0.00		-2.00		7.673e-03		116.592		2.374e-03		13.823
1		0.00		-1.60		7.344e-03		123.369		2.070e-03		15.287
1		0.00		-1.20		6.446e-03		120.608		2.008e-03		18.545
1		0.00		-0.80		6.232e-03		113.742		2.045e-03		23.669
1		0.00		-0.40		5.733e-03		111.240		1.853e-03		32.272
2		0.00		0.00		5.447e-03		99.761		1.851e-03		40.721
2		0.00		0.40		4.566e-03		108.672		1.862e-03		32.083
2		0.00		0.80		4.161e-03		105.854		1.720e-03		32.772
2		0.00		1.20		3.562e-03		94.425		1.345e-03		46.290
2		0.00		1.60		3.068e-03		90.797		1.219e-03		43.471
2		0.00		2.00		2.689e-03		72.183		1.056e-03		70.412
2		0.00		2.40		2.127e-03		24.996		8.097e-04		71.575
2		0.00		2.80		2.006e-03		5.708		8.759e-04		66.742
2		0.00		3.20		2.606e-03		-35.171		1.084e-03		50.276
2		0.00		3.60		3.285e-03		-41.954		1.252e-03		35.542
2		0.00		4.00		4.256e-03		-45.784		1.549e-03		31.343
2		0.00		4.40		5.481e-03		-41.938		1.603e-03		22.554
2		0.00		4.80		6.903e-03		-53.453		1.745e-03		19.537
2		0.00		5.20		8.959e-03		-51.263		2.197e-03		17.878
2		0.00		5.60		1.123e-02		-51.207		2.706e-03		14.779
2		0.00		6.00		1.196e-02		-50.558		3.114e-03		18.902
2		0.00		6.40		1.431e-02		-48.007		3.588e-03		13.703
2		0.00		6.80		1.668e-02		-52.062		4.498e-03		11.746
2		0.00		7.20		1.983e-02		-53.761		4.644e-03		11.057
2		0.00		7.60		2.271e-02		-52.454		4.582e-03		11.623
2		0.00		8.00		2.595e-02		-52.837		5.455e-03		13.493
2		0.00		8.40		2.861e-02		-50.347		6.500e-03		12.579
2		0.00		8.80		3.217e-02		-52.411		8.350e-03		16.783
2		0.00		9.20		3.631e-02		-50.734		1.081e-02		17.421
2		0.00		9.60		4.132e-02		-50.948		1.213e-02		9.684
2		0.00		10.00		4.566e-02		-51.372		1.140e-02		8.348
2		0.00		9.60		4.830e-02		-51.866		1.113e-02		7.782
2		0.00		9.20		4.656e-02		-55.158		1.168e-02		13.401
2		0.00		8.80		4.651e-02		-51.874		1.157e-02		12.205
2		0.00		8.40		4.462e-02		-51.940		1.216e-02		14.582
2		0.00		8.00		4.334e-02		-50.241		1.286e-02		15.150
2		0.00		7.60		4.290e-02		-50.539		1.228e-02		9.309
2		0.00		7.20		4.400e-02		-51.999		1.050e-02		8.044
2		0.00		6.80		4.407e-02		-51.908		8.686e-03		9.785
2		0.00		6.40		4.212e-02		-52.321		8.580e-03		11.179
2		0.00		6.00		4.075e-02		-51.442		9.379e-03		12.410
2		0.00		5.60		4.012e-02		-49.830		9.631e-03		16.072
2		0.00		5.20		3.955e-02		-50.708		1.054e-02		12.319
2		0.00		4.80		3.905e-02		-52.460		9.860e-03		10.248
2		0.00		4.40		3.910e-02		-51.302		8.255e-03		8.550
2		0.00		4.00		3.878e-02		-50.964		7.484e-03		10.189
2		0.00		3.60		3.804e-02		-51.254		8.346e-03		10.440
2		0.00		3.20		3.741e-02		-50.866		8.447e-03		11.074
2		0.00		2.80		3.555e-02		-51.433		9.754e-03		15.555
2		0.00		2.40		3.525e-02		-50.786		1.017e-02		11.823
2		0.00		2.00		3.586e-02		-51.232		9.150e-03		9.584
2		0.00		1.60		3.656e-02		-50.169		7.659e-03		9.139
2		0.00		1.20		3.596e-02		-52.034		7.299e-03		10.329
2		0.00		0.80		3.542e-02		-50.815		7.829e-03		10.485
2		0.00		0.40		3.422e-02		-50.625		8.633e-03		10.899
2		0.00		0.00		3.386e-02		-51.014		9.490e-03		12.236
2		0.00		-0.40		3.327e-02		-50.255		8.752e-03		9.390
2		0.00		-0.80		3.382e-02		-50.842		7.147e-03		8.617
2		0.00		-1.20		3.243e-02		-51.271		5.996e-03		9.297
2		0.00		-1.60		2.999e-02		-52.272		5.900e-03		11.698
2		0.00		-2.00		2.783e-02		-50.167		5.520e-03		11.342
2		0.00		-2.40		2.411e-02		-49.459		5.610e-03		12.964
2		0.00		-2.80		2.027e-02		-50.081		4.826e-03		12.120
2		0.00		-3.20		1.617e-02		-50.085		3.387e-03		10.290
2		0.00		-3.60		1.314e-02		-47.883		2.546e-03		12.611
2		0.00		-4.00		9.651e-03		-48.623		2.359e-03		14.075
2		0.00		-4.40		6.118e-03		-40.622		2.194e-03		18.752
2		0.00		-4.80		3.618e-03		-29.361		1.751e-03		37.370
2		0.00		-5.20		2.888e-03		49.161		1.103e-03		53.673
2		0.00		-5.60		4.364e-03		92.238		1.742e-03		37.432
2		0.00		-6.00		7.085e-03		118.628		2.466e-03		30.056
2		0.00		-6.40		8.453e-03		118.995		2.717e-03		19.929
2		0.00		-6.80		9.947e-03		118.821		3.275e-03		20.501
2		0.00		-7.20		1.116e-02		116.337		3.547e-03		23.628
2		0.00		-7.60		1.323e-02		123.105		4.039e-03		16.199
2		0.00		-8.00		1.433e-02		122.737		4.032e-03		10.241
2		0.00		-8.40		1.708e-02		123.351		3.948e-03		12.118
2		0.00		-8.80		1.729e-02		124.355		3.943e-03		8.803
2		0.00		-9.20		1.735e-02		123.431		4.469e-03		12.622
2		0.00		-9.60		1.853e-02		122.162		5.217e-03		18.751
2		0.00		-10.00		1.858e-02		124.950		5.153e-03		13.578
2		0.00		-9.60		1.934e-02		125.974		4.507e-03		8.299
2		0.00		-9.20		1.989e-02		123.763		4.031e-03		9.882
2		0.00		-8.80		1.844e-02		123.032		3.932e-03		10.787
2		0.00		-8.40		1.881e-02		125.327		4.088e-03		9.617
2		0.00		-8.00		1.731e-02		123.595		4.637e-03		17.448
2		0.00		-7.60		1.715e-02		124.997		4.576e-03		9.321
2		0.00		-7.20		1.678e-02		125.480		3.927e-03		10.041
2		0.00		-6.80		1.666e-02		123.155		3.326e-03		10.950
2		0.00		-6.40		1.655e-02		124.304		3.464e-03		10.872
2		0.00		-6.00		1.478e-02		125.904		3.741e-03		13.706
2		0.00		-5.60		1.383e-02		124.151		3.840e-03		22.264
2		0.00		-5.20		1.342e-02		120.624		3.689e-03		10.789
2		0.00		-4.80		1.287e-02		121.753		3.042e-03		15.060
2		0.00		-4.40		1.273e-02		123.200		2.665e-03		11.158
2		0.00		-4.00		1.185e-02		126.335		2.671e-03		12.290
2		0.00		-3.60		1.118e-02		121.808		2.728e-03		13.709
2		0.00		-3.20		1.049e-02		123.229		3.075e-03		19.602
2		0.00		-2.80		1.022e-02		119.000		2.963e-03		12.244
2		0.00		-2.40		9.890e-03		121.907		2.617e-03		10.731
2		0.00		-2.00		9.304e-03		122.445		2.192e-03		14.299
2		0.00		-1.60		8.699e-03		122.222		2.238e-03		11.724
2		0.00		-1.20		7.986e-03		119.077		2.106e-03		14.830
2		0.00		-0.80		7.635e-03		118.927		2.346e-03		27.728
2		0.00		-0.40		7.009e-03		118.245		2.129e-03		19.654
3		0.00		0.00		6.832e-03		121.389		2.015e-03		18.901
3		0.00		0.40		6.528e-03		113.888		1.501e-03		17.047
3		0.00		0.80		5.913e-03		117.519		1.580e-03		16.437
3		0.00		1.20		4.899e-03		115.230		1.405e-03		22.820
3		0.00		1.60		4.123e-03		114.495		1.549e-03		32.580
3		0.00		2.00		3.630e-03		98.047		1.342e-03		40.157
3		0.00		2.40		3.593e-03		95.624		1.300e-03		45.890
3		0.00		2.80		2.485e-03		49.319		1.131e-03		68.988
3		0.00		3.20		1.911e-03		21.443		8.859e-04		75.112
3		0.00		3.60		1.991e-03		-5.114		8.555e-04		64.026
3		0.00		4.00		2.604e-03		-34.110		9.402e-04		39.604
3		0.00		4.40		4.135e-03		-45.192		1.343e-03		22.231
3		0.00		4.80		4.940e-03		-43.308		1.517e-03		21.382
3		0.00		5.20		6.324e-03		-47.069		1.810e-03		16.728
3		0.00		5.60		8.295e-03		-49.934		2.042e-03		12.089
3		0.00		6.00		1.075e-02		-51.786		2.408e-03		13.962
3		0.00		6.40		1.362e-02		-48.969		2.700e-03		11.697
3		0.00		6.80		1.595e-02		-52.610		2.890e-03		12.121
3		0.00		7.20		1.810e-02		-49.336		3.525e-03		12.387
3		0.00		7.60		2.029e-02		-49.437		4.325e-03		12.391
3		0.00		8.00		2.279e-02		-50.787		5.537e-03		14.752
3		0.00		8.40		2.579e-02		-50.108		6.382e-03		12.273
3		0.00		8.80		2.922e-02		-52.266		6.813e-03		10.850
3		0.00		9.20		3.497e-02		-51.045		7.456e-03		10.084
3		0.00		9.60		3.990e-02		-50.358		7.376e-03		8.324
3		0.00		10.00		4.408e-02		-51.431		8.432e-03		9.122
3		0.00		9.60		4.647e-02		-50.301		8.546e-03		8.961
3		0.00		9.20		4.658e-02		-50.456		9.283e-03		9.657
3		0.00		8.80		4.459e-02		-49.742		9.979e-03		10.353
3		0.00		8.40		4.422e-02		-49.801		1.067e-02		12.859
3		0.00		8.00		4.289e-02		-50.342		1.156e-02		15.578
3		0.00		7.60		4.223e-02		-48.303		1.164e-02		11.360
3		0.00		7.20		4.199e-02		-51.433		1.122e-02		10.198
3		0.00		6.80		4.087e-02		-50.741		1.016e-02		9.158
3		0.00		6.40		4.077e-02		-51.288		9.028e-03		9.782
3		0.00		6.00		3.998e-02		-51.235		8.126e-03		8.738
3		0.00		5.60		4.006e-02		-51.092		7.599e-03		8.595
3		0.00		5.20		3.954e-02		-51.567		7.795e-03		9.621
3		0.00		4.80		3.841e-02		-49.893		7.949e-03		10.355
3		0.00		4.40		3.751e-02		-49.639		8.547e-03		11.630
3		0.00		4.00		3.636e-02		-48.816		8.929e-03		12.138
3		0.00		3.60		3.625e-02		-49.926		9.476e-03		13.825
3		0.00		3.20		3.567e-02		-47.785		9.604e-03		11.917
3		0.00		2.80		3.593e-02		-49.597		9.059e-03		8.857
3		0.00		2.40		3.592e-02		-50.911		7.770e-03		9.404
3		0.00		2.00		3.548e-02		-51.836		7.103e-03		9.386
3		0.00		1.60		3.585e-02		-50.506		6.809e-03		9.286
3		0.00		1.20		3.573e-02		-51.870		6.893e-03		10.198
3		0.00		0.80		3.506e-02		-50.912		7.919e-03		9.833
3		0.00		0.40		3.407e-02		-50.263		8.304e-03		10.669
3		0.00		0.00		3.314e-02		-50.644		8.924e-03		13.698
3		0.00		-0.40		3.229e-02		-51.222		9.245e-03		14.891
3		0.00		-0.80		3.111e-02		-48.530		9.339e-03		11.022
3		0.00		-1.20		3.031e-02		-50.467		8.787e-03		9.375
3		0.00		-1.60		2.892e-02		-51.740		7.518e-03		8.800
3		0.00		-2.00		2.725e-02		-52.289		6.207e-03		9.162
3		0.00		-2.40		2.471e-02		-50.821		4.957e-03		9.926
3		0.00		-2.80		2.070e-02		-51.552		4.255e-03		12.373
3		0.00		-3.20		1.673e-02		-49.710		3.479e-03		13.602
3		0.00		-3.60		1.266e-02		-48.673		2.740e-03		14.980
3		0.00		-4.00		9.531e-03		-41.158		2.543e-03		17.174
3		0.00		-4.40		6.784e-03		-42.844		2.252e-03		14.468
3		0.00		-4.80		4.309e-03		-40.650		1.982e-03		28.789
3		0.00		-5.20		2.695e-03		15.572		1.226e-03		60.862
3		0.00		-5.60		4.205e-03		87.730		1.712e-03		54.740
3		0.00		-6.00		5.920e-03		100.621		2.346e-03		41.700
3		0.00		-6.40		8.193e-03		113.007		2.625e-03		27.846
3		0.00		-6.80		1.047e-02		123.816		3.277e-03		14.798
3		0.00		-7.20		1.169e-02		124.451		3.306e-03		15.126
3		0.00		-7.60		1.321e-02		124.131		4.003e-03		18.950
3		0.00		-8.00		1.428e-02		120.257		4.398e-03		23.012
3		0.00		-8.40		1.556e-02		123.890		4.817e-03		14.250
3		0.00		-8.80		1.671e-02		124.703		4.448e-03		11.051
3		0.00		-9.20		1.929e-02		125.432		4.466e-03		10.041
3		0.00		-9.60		1.948e-02		123.858		4.226e-03		9.393
3		0.00		-10.00		2.053e-02		124.608		4.503e-03		9.322
3		0.00		-9.60		2.066e-02		126.590		4.951e-03		9.808
3		0.00		-9.20		1.938e-02		125.625		5.112e-03		13.362
3		0.00		-8.80		1.964e-02		124.580		5.547e-03		16.962
3		0.00		-8.40		1.847e-02		127.426		5.263e-03		12.824
3		0.00		-8.00		1.873e-02		124.653		4.562e-03		9.186
3		0.00		-7.60		1.896e-02		125.862		4.065e-03		8.834
3		0.00		-7.20		1.767e-02		125.624		3.779e-03		9.608
3		0.00		-6.80		1.676e-02		122.421		3.536e-03		10.672
3		0.00		-6.40		1.580e-02		128.390		3.667e-03		9.914
3		0.00		-6.00		1.456e-02		126.445		3.398e-03		12.834
3		0.00		-5.60		1.362e-02		122.705		3.559e-03		19.796
3		0.00		-5.20		1.336e-02		123.584		3.755e-03		16.700
3		0.00		-4.80		1.348e-02		122.972		3.478e-03		8.785
3		0.00		-4.40		1.222e-02		121.174		3.110e-03		11.087
3		0.00		-4.00		1.156e-02		123.453		2.833e-03		10.886
3		0.00		-3.60		1.092e-02		125.156		2.956e-03		11.120
3		0.00		-3.20		1.009e-02		119.474		2.926e-03		14.948
3		0.00		-2.80		9.371e-03		116.468		2.848e-03		25.987
3		0.00		-2.40		8.776e-03		117.941		2.865e-03		25.760
3		0.00		-2.00		8.158e-03		117.725		2.631e-03		23.953
3		0.00		-1.60		8.397e-03		121.199		2.640e-03		19.761
3		0.00		-1.20		7.929e-03		117.261		2.417e-03		26.102
3		0.00		-0.80		7.349e-03		121.537		2.016e-03		16.043
3		0.00		-0.40		6.981e-03		118.340		2.010e-03		28.387
4		0.00		0.00		6.725e-03		117.744		2.049e-03		21.479
4		0.00		0.40		5.786e-03		116.996		1.971e-03		23.347
4		0.00		0.80		5.515e-03		113.040		1.797e-03		34.825
4		0.00		1.20		4.911e-03		109.925		1.643e-03		31.998
4		0.00		1.60		4.610e-03		112.835		1.485e-03		27.665
4		0.00		2.00		3.881e-03		100.336		1.368e-03		46.744
4		0.00		2.40		3.175e-03		96.352		1.190e-03		43.857
4		0.00		2.80		2.412e-03		61.174		9.482e-04		60.914
4		0.00		3.20		2.120e-03		34.612		8.268e-04		58.235
4		0.00		3.60		2.046e-03		-8.192		8.748e-04		50.679
4		0.00		4.00		2.473e-03		-30.478		9.060e-04		51.736
4		0.00		4.40		3.527e-03		-54.129		1.305e-03		35.912
4		0.00		4.80		4.659e-03		-50.962		1.491e-03		25.910
4		0.00		5.20		6.396e-03		-42.269		1.768e-03		18.635
4		0.00		5.60		8.063e-03		-49.256		1.647e-03		18.778
4		0.00		6.00		9.487e-03		-50.695		2.153e-03		14.297
4		0.00		6.40		1.127e-02		-48.053		2.741e-03		14.115
4		0.00		6.80		1.346e-02		-47.327		3.506e-03		18.432
4		0.00		7.20		1.496e-02		-47.315		4.205e-03		17.688
4		0.00		7.60		1.840e-02		-50.477		4.745e-03		11.064
4		0.00		8.00		2.171e-02		-51.640		4.603e-03		9.663
4		0.00		8.40		2.547e-02		-52.668		5.232e-03		11.163
4		0.00		8.80		2.856e-02		-49.785		5.649e-03		11.820
4		0.00		9.20		3.156e-02		-51.054		6.987e-03		11.344
4		0.00		9.60		3.444e-02		-50.179		8.626e-03		13.648
4		0.00		10.00		3.754e-02		-49.355		1.040e-02		11.972
4		0.00		9.60		4.031e-02		-50.317		1.059e-02		9.078
4		0.00		9.20		4.134e-02		-51.367		9.158e-03		7.944
4		0.00		8.80		4.117e-02		-50.218		8.301e-03		9.830
4		0.00		8.40		4.051e-02		-50.078		8.387e-03		10.734
4		0.00		8.00		3.924e-02		-49.728		8.923e-03		10.638
4		0.00		7.60		3.852e-02		-50.312		1.011e-02		15.366
4		0.00		7.20		3.734e-02		-49.197		1.070e-02		15.626
4		0.00		6.80		3.751e-02		-49.547		1.050e-02		8.690
4		0.00		6.40		3.722e-02		-51.284		8.783e-03		8.747
4		0.00		6.00		3.708e-02		-52.272		8.356e-03		10.449
4		0.00		5.60		3.619e-02		-51.254		8.258e-03		11.827
4		0.00		5.20		3.490e-02		-50.034		9.032e-03		14.801
4		0.00		4.80		3.450e-02		-48.274		9.406e-03		16.720
4		0.00		4.40		3.374e-02		-49.540		9.913e-03		9.952
4		0.00		4.00		3.420e-02		-51.838		8.483e-03		8.781
4		0.00		3.60		3.550e-02		-50.545		6.909e-03		8.678
4		0.00		3.20		3.479e-02		-51.872		6.547e-03		10.914
4		0.00		2.80		3.378e-02		-49.401		7.184e-03		12.040
4		0.00		2.40		3.343e-02		-50.234		7.784e-03		13.608
4		0.00		2.00		3.307e-02		-49.176		8.321e-03		14.209
4		0.00		1.60		3.322e-02		-49.177		8.528e-03		10.046
4		0.00		1.20		3.361e-02		-50.035		7.700e-03		8.236
4		0.00		0.80		3.405e-02		-50.468		7.010e-03		8.834
4		0.00		0.40		3.409e-02		-50.638		6.432e-03		10.680
4		0.00		0.00		3.373e-02		-49.621		6.257e-03		9.951
4		0.00		-0.40		3.295e-02		-49.032		7.112e-03		11.172
4		0.00		-0.80		3.180e-02		-50.103		7.759e-03		15.877
4		0.00		-1.20		3.098e-02		-51.361		8.207e-03		14.271
4		0.00		-1.60		2.975e-02		-50.031		7.557e-03		9.755
4		0.00		-2.00		2.826e-02		-50.052		6.010e-03		8.464
4		0.00		-2.40		2.585e-02		-49.796		4.505e-03		9.502
4		0.00		-2.80		2.157e-02		-51.169		3.832e-03		10.442
4		0.00		-3.20		1.780e-02		-48.211		3.022e-03		11.299
4		0.00		-3.60		1.325e-02		-47.119		3.042e-03		13.081
4		0.00		-4.00		1.042e-02		-48.563		2.704e-03		13.651
4		0.00		-4.40		7.226e-03		-47.922		2.424e-03		17.644
4		0.00		-4.80		3.929e-03		-35.028		1.994e-03		38.563
4		0.00		-5.20		2.828e-03		34.450		1.144e-03		60.917
4		0.00		-5.60		4.659e-03		98.255		1.932e-03		48.604
4		0.00		-6.00		6.796e-03		108.883		2.413e-03		33.787
4		0.00		-6.40		9.097e-03		119.686		2.751e-03		22.555
4		0.00		-6.80		1.128e-02		121.617		3.184e-03		13.015
4		0.00		-7.20		1.205e-02		122.889		3.116e-03		11.197
4		0.00		-7.60		1.385e-02		124.240		3.487e-03		12.658
4		0.00		-8.00		1.508e-02		123.828		4.172e-03		17.988
4		0.00		-8.40		1.643e-02		125.829		4.535e-03		16.730
4		0.00		-8.80		1.845e-02		123.413		4.970e-03		11.217
4		0.00		-9.20		1.845e-02		124.319		4.754e-03		11.302
4		0.00		-9.60		2.023e-02		125.606		4.503e-03		8.470
4		0.00		-10.00		2.035e-02		124.198		4.339e-03		8.796
4		0.00		-9.60		1.962e-02		125.077		4.310e-03		10.365
4		0.00		-9.20		2.035e-02		124.896		4.507e-03		10.039
4		0.00		-8.80		1.961e-02		125.484		4.553e-03		9.655
4		0.00		-8.40		1.913e-02		125.084		4.722e-03		11.536
4		0.00		-8.00		1.899e-02		124.425		5.218e-03		15.642
4		0.00		-7.60		1.737e-02		122.509		4.908e-03		18.433
4		0.00		-7.20		1.689e-02		123.363		4.847e-03		18.268
4		0.00		-6.80		1.716e-02		123.632		4.650e-03		11.983
4		0.00		-6.40		1.574e-02		124.536		4.037e-03		10.476
4		0.00		-6.00		1.613e-02		125.557		3.666e-03		8.118
4		0.00		-5.60		1.496e-02		122.179		3.397e-03		10.120
4		0.00		-5.20		1.457e-02		125.152		3.124e-03		9.813
4		0.00		-4.80		1.392e-02		125.442		2.696e-03		9.712
4		0.00		-4.40		1.273e-02		126.301		2.644e-03		10.632
4		0.00		-4.00		1.244e-02		123.678		3.061e-03		11.838
4		0.00		-3.60		1.181e-02		122.085		2.770e-03		14.317
4		0.00		-3.20		1.166e-02		123.417		3.146e-03		19.718
4		0.00		-2.80		1.066e-02		122.304		3.049e-03		21.360
4		0.00		-2.40		9.994e-03		124.276		3.130e-03		19.439
4		0.00		-2.00		9.764e-03		120.109		2.990e-03		17.940
4		0.00		-1.60		9.202e-03		126.126		2.706e-03		12.798
4		0.00		-1.20		8.933e-03		120.122		2.628e-03		16.914
4		0.00		-0.80		8.353e-03		121.805		2.312e-03		14.383
4		0.00		-0.40		7.976e-03		121.864		2.076e-03		16.014
5		0.00		0.00		7.606e-03		122.996		1.995e-03		15.204
5		0.00		0.40		6.872e-03		120.951		1.904e-03		18.026
5		0.00		0.80		6.063e-03		118.238		1.860e-03		16.538
5		0.00		1.20		5.728e-03		111.607		1.911e-03		20.578
5		0.00		1.60		5.213e-03		106.428		1.681e-03		31.553
5		0.00		2.00		4.804e-03		106.288		1.565e-03		35.495
5		0.00		2.40		3.882e-03		95.202		1.447e-03		41.892
5		0.00		2.80		3.298e-03		95.329		1.232e-03		52.796
5		0.00		3.20		2.549e-03		66.994		1.114e-03		64.491
5		0.00		3.60		2.171e-03		41.856		8.629e-04		61.726
5		0.00		4.00		2.108e-03		5.760		8.618e-04		58.245
5		0.00		4.40		2.247e-03		-19.078		9.664e-04		49.430
5		0.00		4.80		3.365e-03		-42.045		1.187e-03		29.335
5		0.00		5.20		4.510e-03		-41.090		1.284e-03		23.702
5		0.00		5.60		6.419e-03		-43.592		1.760e-03		17.847
5		0.00		6.00		7.917e-03		-47.210		1.972e-03		17.719
5		0.00		6.40		1.076e-02		-47.109		2.465e-03		16.515
5		0.00		6.80		1.225e-02		-49.937		3.244e-03		14.440
5		0.00		7.20		1.486e-02		-49.010		3.856e-03		15.783
5		0.00		7.60		1.744e-02		-43.195		4.898e-03		16.696
5		0.00		8.00		2.019e-02		-50.299		5.450e-03		15.958
5		0.00		8.40		2.314e-02		-47.570		6.349e-03		9.879
5		0.00		8.80		2.613e-02		-51.639		6.351e-03		9.732
5		0.00		9.20		2.987e-02		-50.853		6.329e-03		10.005
5		0.00		9.60		3.329e-02		-50.946		6.462e-03		9.321
5		0.00		10.00		3.811e-02		-50.971		7.214e-03		8.986
5		0.00		9.60		4.003e-02		-51.957		7.153e-03		9.266
5		0.00		9.20		3.946e-02		-51.455		7.769e-03		11.178
5		0.00		8.80		3.993e-02		-49.757		7.540e-03		10.795
5		0.00		8.40		3.943e-02		-48.727		8.015e-03		10.320
5		0.00		8.00		3.754e-02		-48.860		8.632e-03		11.989
5		0.00		7.60		3.754e-02		-49.190		8.666e-03		12.806
5		0.00		7.20		3.664e-02		-49.145		8.935e-03		15.607
5		0.00		6.80		3.631e-02		-48.156		8.891e-03		12.444
5		0.00		6.40		3.539e-02		-49.723		9.665e-03		11.561
5		0.00		6.00		3.510e-02		-50.163		9.403e-03		9.638
5		0.00		5.60		3.484e-02		-51.581		8.852e-03		10.240
5		0.00		5.20		3.474e-02		-51.093		7.991e-03		9.012
5		0.00		4.80		3.522e-02		-51.015		7.313e-03		7.707
5		0.00		4.40		3.458e-02		-51.149		6.604e-03		8.819
5		0.00		4.00		3.490e-02		-50.771		6.688e-03		9.796
5		0.00		3.60		3.423e-02		-50.484		6.330e-03		9.378
5		0.00		3.20		3.419e-02		-50.855		6.461e-03		10.651
5		0.00		2.80		3.401e-02		-50.336		6.234e-03		10.490
5		0.00		2.40		3.221e-02		-48.830		6.622e-03		10.599
5		0.00		2.00		3.253e-02		-49.457		6.993e-03		11.053
5		0.00		1.60		3.265e-02		-49.203		7.311e-03		13.386
5		0.00		1.20		3.230e-02		-49.515		7.528e-03		15.131
5		0.00		0.80		3.187e-02		-48.169		7.943e-03		14.191
5		0.00		0.40		3.150e-02		-50.337		8.025e-03		10.943
5		0.00		0.00		3.156e-02		-49.883		7.485e-03		10.063
5		0.00		-0.40		3.199e-02		-48.031		7.079e-03		8.861
5		0.00		-0.80		3.206e-02		-49.397		6.181e-03		8.547
5		0.00		-1.20		3.126e-02		-51.375		5.824e-03		10.191
5		0.00		-1.60		2.980e-02		-50.290		5.222e-03		9.194
5		0.00		-2.00		2.790e-02		-50.722		4.938e-03		9.029
5		0.00		-2.40		2.349e-02		-49.731		4.918e-03		11.395
5		0.00		-2.80		2.040e-02		-48.854		4.388e-03		9.942
5		0.00		-3.20		1.698e-02		-50.396		3.683e-03		12.741
5		0.00		-3.60		1.367e-02		-47.735		3.283e-03		15.164
5		0.00		-4.00		1.079e-02		-47.689		2.765e-03		17.805
5		0.00		-4.40		7.442e-03		-39.978		2.315e-03		17.112
5		0.00		-4.80		4.361e-03		-42.640		1.937e-03		31.690
5		0.00		-5.20		2.639e-03		34.487		1.260e-03		58.774
5		0.00		-5.60		3.962e-03		83.151		1.601e-03		47.185
5		0.00		-6.00		5.326e-03		99.302		1.908e-03		44.331
5		0.00		-6.40		7.596e-03		113.128		2.427e-03		32.858
5		0.00		-6.80		9.636e-03		114.125		3.055e-03		19.846
5		0.00		-7.20		1.189e-02		123.021		3.067e-03		13.196
5		0.00		-7.60		1.332e-02		122.768		3.562e-03		11.357
5		0.00		-8.00		1.606e-02		125.574		3.934e-03		11.580
5		0.00		-8.40		1.660e-02		124.327		4.209e-03		12.836
5		0.00		-8.80		1.755e-02		124.868		4.709e-03		13.759
5		0.00		-9.20		1.958e-02		124.562		5.179e-03		17.093
5		0.00		-9.60		2.004e-02		126.138		5.590e-03		14.480
5		0.00		-10.00		2.087e-02		126.027		5.883e-03		10.924
5		0.00		-9.60		2.118e-02		127.383		5.119e-03		8.974
5		0.00		-9.20		2.134e-02		127.132		4.583e-03		9.407
5		0.00		-8.80		2.134e-02		123.775		4.353e-03		10.741
5		0.00		-8.40		2.076e-02		126.178		3.840e-03		8.661
5		0.00		-8.00		2.007e-02		125.327		4.237e-03		10.043
5		0.00		-7.60		2.050e-02		127.618		4.324e-03		9.794
5		0.00		-7.20		1.817e-02		124.650		4.551e-03		12.301
5		0.00		-6.80		1.793e-02		125.363		4.360e-03		16.120
5		0.00		-6.40		1.774e-02		126.347		4.570e-03		14.710
5		0.00		-6.00		1.677e-02		125.604		4.073e-03		9.454
5		0.00		-5.60		1.654e-02		126.734		3.870e-03		9.493
5		0.00		-5.20		1.563e-02		124.165		3.174e-03		8.473
5		0.00		-4.80		1.492e-02		124.830		3.090e-03		8.672
5		0.00		-4.40		1.418e-02		125.785		2.893e-03		10.267
5		0.00		-4.00		1.351e-02		126.723		2.706e-03		11.310
5		0.00		-3.60		1.270e-02		124.681		2.993e-03		11.777
5		0.00		-3.20		1.183e-02		124.075		2.732e-03		16.855
5		0.00		-2.80		1.134e-02		121.561		2.993e-03		20.715
5		0.00		-2.40		1.049e-02		121.241		2.895e-03		20.556
5		0.00		-2.00		1.012e-02		122.653		2.908e-03		13.222
5		0.00		-1.60		9.645e-03		117.673		2.810e-03		11.211
5		0.00		-1.20		9.611e-03		119.107		2.688e-03		19.850
5		0.00		-0.80		9.371e-03		124.176		2.319e-03		13.558
5		0.00		-0.40		8.962e-03		125.138		2.298e-03		13.484
6		0.00		0.00		8.105e-03		120.125		2.192e-03		12.953
6		0.00		0.40		7.826e-03		122.757		2.079e-03		13.203
6		0.00		0.80		6.938e-03		117.666		2.137e-03		24.857
6		0.00		1.20		6.478e-03		116.800		2.007e-03		26.264
6		0.00		1.60		5.786e-03		109.718		1.889e-03		32.494
6		0.00		2.00		4.858e-03		116.972		1.764e-03		32.863
6		0.00		2.40		4.672e-03		114.914		1.496e-03		32.057
6		0.00		2.80		3.794e-03		100.233		1.456e-03		32.652
6		0.00		3.20		3.072e-03		93.229		1.255e-03		51.633
6		0.00		3.60		2.451e-03		68.731		1.052e-03		67.653
6		0.00		4.00		2.177e-03		24.534		8.719e-04		66.295
6		0.00		4.40		2.116e-03		-6.179		8.549e-04		60.757
6		0.00		4.80		2.712e-03		-33.073		9.698e-04		36.348
6		0.00		5.20		4.099e-03		-35.555		1.320e-03		23.603
6		0.00		5.60		5.566e-03		-46.888		1.712e-03		17.050
6		0.00		6.00		7.400e-03		-46.206		2.076e-03		16.120
6		0.00		6.40		9.547e-03		-49.790		2.470e-03		12.883
6		0.00		6.80		1.192e-02		-51.148		2.459e-03		12.002
6		0.00		7.20		1.415e-02		-50.169		2.441e-03		11.630
6		0.00		7.60		1.708e-02		-47.767		3.279e-03		10.871
6		0.00		8.00		1.965e-02		-48.806		3.780e-03		10.731
6		0.00		8.40		2.218e-02		-49.523		5.058e-03		11.967
6		0.00		8.80		2.488e-02		-51.298		6.244e-03		12.691
6		0.00		9.20		2.781e-02		-48.496		7.670e-03		14.448
6		0.00		9.60		3.136e-02		-49.422		8.258e-03		10.155
6		0.00		10.00		3.537e-02		-49.448		7.777e-03		7.927
6		0.00		9.60		3.754e-02		-51.007		7.573e-03		8.442
6		0.00		9.20		3.856e-02		-50.874		6.829e-03		9.040
6		0.00		8.80		3.794e-02		-50.823		7.422e-03		10.663
6		0.00		8.40		3.836e-02		-49.267		7.702e-03		10.124
6		0.00		8.00		3.691e-02		-48.220		7.966e-03		11.345
6		0.00		7.60		3.642e-02		-48.596		8.641e-03		14.236
6		0.00		7.20		3.555e-02		-48.681		9.075e-03		12.262
6		0.00		6.80		3.549e-02		-48.483		8.508e-03		8.740
6		0.00		6.40		3.595e-02		-48.673		7.558e-03		8.482
6		0.00		6.00		3.613e-02		-49.768		6.518e-03		8.349
6		0.00		5.60		3.496e-02		-50.646		6.617e-03		9.855
6		0.00		5.20		3.350e-02		-50.375		7.395e-03		10.889
6		0.00		4.80		3.301e-02		-49.016		8.230e-03		12.969
6		0.00		4.40		3.193e-02		-49.829		8.634e-03		16.209
6		0.00		4.00		3.168e-02		-47.755		9.166e-03		11.199
6		0.00		3.60		3.230e-02		-50.144		8.498e-03		8.983
6		0.00		3.20		3.294e-02		-49.701		7.059e-03		7.983
6		0.00		2.80		3.268e-02		-50.296		6.316e-03		8.850
6		0.00		2.40		3.240e-02		-50.462		6.436e-03		10.784
6		0.00		2.00		3.216e-02		-48.726		6.841e-03		10.064
6		0.00		1.60		3.130e-02		-49.177		7.245e-03		13.043
6		0.00		1.20		3.144e-02		-48.068		7.678e-03		13.275
6		0.00		0.80		3.130e-02		-48.711		7.905e-03		9.275
6		0.00		0.40		3.206e-02		-49.900		7.120e-03		7.992
6		0.00		0.00		3.220e-02		-50.316		5.983e-03		8.279
6		0.00		-0.40		3.236e-02		-48.167		5.544e-03		8.824
6		0.00		-0.80		3.234e-02		-49.354		5.173e-03		8.491
6		0.00		-1.20		3.148e-02		-49.599		5.096e-03		9.119
6		0.00		-1.60		3.032e-02		-48.528		5.469e-03		9.743
6		0.00		-2.00		2.804e-02		-49.260		5.845e-03		11.320
6		0.00		-2.40		2.425e-02		-49.029		5.816e-03		15.905
6		0.00		-2.80		2.203e-02		-49.190		5.751e-03		11.066
6		0.00		-3.20		1.825e-02		-48.830		4.057e-03		10.229
6		0.00		-3.60		1.578e-02		-49.112		3.196e-03		10.434
6		0.00		-4.00		1.052e-02		-47.419		2.292e-03		11.460
6		0.00		-4.40		7.783e-03		-50.787		1.892e-03		18.776
6		0.00		-4.80		4.254e-03		-28.565		1.762e-03		36.556
6		0.00		-5.20		2.457e-03		22.496		1.201e-03		67.794
6		0.00		-5.60		3.445e-03		81.541		1.413e-03		51.706
6		0.00		-6.00		5.411e-03		103.078		2.349e-03		36.449
6		0.00		-6.40		7.459e-03		116.456		2.544e-03		28.793
6		0.00		-6.80		1.054e-02		122.860		3.014e-03		10.743
6		0.00		-7.20		1.277e-02		124.239		3.140e-03		10.306
6		0.00		-7.60		1.480e-02		123.999		3.445e-03		9.964
6		0.00		-8.00		1.572e-02		126.093		3.650e-03		10.977
6		0.00		-8.40		1.742e-02		124.800		3.802e-03		9.693
6		0.00		-8.80		1.787e-02		125.729		4.141e-03		15.942
6		0.00		-9.20		1.843e-02		125.570		4.631e-03		15.810
6		0.00		-9.60		2.059e-02		125.979		5.263e-03		11.436
6		0.00		-10.00		2.176e-02		123.370		5.371e-03		8.671
6		0.00		-9.60		2.222e-02		125.175		4.945e-03		7.147
6		0.00		-9.20		2.162e-02		128.013		4.501e-03		7.716
6		0.00		-8.80		2.105e-02		125.577		4.239e-03		9.310
6		0.00		-8.40		2.039e-02		126.275		4.712e-03		9.529
6		0.00		-8.00		2.006e-02		125.795		4.883e-03		10.507
6		0.00		-7.60		1.940e-02		122.967		5.365e-03		15.771
6		0.00		-7.20		1.843e-02		121.959		5.219e-03		20.874
6		0.00		-6.80		1.778e-02		122.701		5.238e-03		16.714
6		0.00		-6.40		1.730e-02		128.051		5.063e-03		10.553
6		0.00		-6.00		1.653e-02		124.929		4.163e-03		9.208
6		0.00		-5.60		1.663e-02		126.036		3.819e-03		8.536
6		0.00		-5.20		1.563e-02		125.383		3.186e-03		9.336
6		0.00		-4.80		1.450e-02		123.916		3.375e-03		11.515
6		0.00		-4.40		1.408e-02		126.042		3.179e-03		9.607
6		0.00		-4.00		1.339e-02		125.227		3.129e-03		12.934
6		0.00		-3.60		1.288e-02		126.615		3.211e-03		18.395
6		0.00		-3.20		1.185e-02		123.055		2.916e-03		18.179
6		0.00		-2.80		1.126e-02		126.080		3.028e-03		12.291
6		0.00		-2.40		1.141e-02		123.555		2.767e-03		10.612
6		0.00		-2.00		1.068e-02		125.540		2.674e-03		11.012
6		0.00		-1.60		1.043e-02		125.659		2.414e-03		10.148
6		0.00		-1.20		9.959e-03		126.576		2.349e-03		11.147
6		0.00		-0.80		9.152e-03		121.994		2.224e-03		17.655
6		0.00		-0.40		8.482e-03		124.972		1.937e-03		12.944
7		0.00		0.00		7.679e-03		120.903		2.113e-03		15.890
7		0.00		0.40		7.517e-03		117.604		2.121e-03		22.335
7		0.00		0.80		7.091e-03		116.937		2.184e-03		29.983
7		0.00		1.20		6.712e-03		114.897		2.021e-03		25.954
7		0.00		1.60		5.852e-03		121.815		1.958e-03		17.423
7		0.00		2.00		5.154e-03		116.280		1.714e-03		25.970
7		0.00		2.40		4.510e-03		109.292		1.477e-03		33.305
7		0.00		2.80		4.093e-03		113.201		1.395e-03		44.192
7		0.00		3.20		3.150e-03		104.029		1.135e-03		47.257
7		0.00		3.60		2.706e-03		80.115		1.102e-03		72.939
7		0.00		4.00		2.242e-03		46.668		8.836e-04		66.993
7		0.00		4.40		1.969e-03		11.351		6.741e-04		70.115
7		0.00		4.80		2.379e-03		-17.396		1.113e-03		50.888
7		0.00		5.20		2.980e-03		-33.847		1.095e-03		40.631
7		0.00		5.60		4.705e-03		-50.439		1.445e-03		25.180
7		0.00		6.00		6.401e-03		-43.979		1.701e-03		17.238
7		0.00		6.40		8.333e-03		-43.431		2.018e-03		14.716
7		0.00		6.80		1.037e-02		-50.472		2.314e-03		11.884
7		0.00		7.20		1.339e-02		-48.806		2.501e-03		11.440
7		0.00		7.60		1.647e-02		-48.713		3.340e-03		11.846
7		0.00		8.00		1.837e-02		-49.373		4.132e-03		12.641
7		0.00		8.40		2.113e-02		-49.331		4.727e-03		10.193
7		0.00		8.80		2.341e-02		-48.647		5.606e-03		12.270
7		0.00		9.20		2.615e-02		-49.558		6.810e-03		13.381
7		0.00		9.60		2.942e-02		-51.577		8.150e-03		15.977
7		0.00		10.00		3.151e-02		-49.280		9.254e-03		14.015
7		0.00		9.60		3.294e-02		-50.029		9.834e-03		10.408
7		0.00		9.20		3.389e-02		-48.844		9.493e-03		9.080
7		0.00		8.80		3.467e-02		-49.490		8.397e-03		8.890
7		0.00		8.40		3.517e-02		-50.421		7.550e-03		8.550
7		0.00		8.00		3.506e-02		-50.742		6.982e-03		9.785
7		0.00		7.60		3.485e-02		-50.013		6.617e-03		9.594
7		0.00		7.20		3.383e-02		-49.373		6.656e-03		11.420
7		0.00		6.80		3.291e-02		-49.526		6.893e-03		11.026
7		0.00		6.40		3.222e-02		-48.352		7.017e-03		10.881
7		0.00		6.00		3.225e-02		-49.307		7.489e-03		10.518
7		0.00		5.60		3.175e-02		-47.328		7.551e-03		13.686
7		0.00		5.20		3.133e-02		-49.489		7.878e-03		14.253
7		0.00		4.80		3.068e-02		-49.609		8.047e-03		12.740
7		0.00		4.40		3.057e-02		-49.260		8.219e-03		9.477
7		0.00		4.00		3.079e-02		-50.772		7.868e-03		7.442
7		0.00		3.60		3.067e-02		-49.299		6.861e-03		8.680
7		0.00		3.20		3.090e-02		-49.704		6.176e-03		8.436
7		0.00		2.80		3.136e-02		-49.926		5.686e-03		8.592
7		0.00		2.40		3.019e-02		-49.508		5.883e-03		9.703
7		0.00		2.00		3.026e-02		-48.297		5.747e-03		9.776
7		0.00		1.60		3.020e-02		-48.233		6.342e-03		10.391
7		0.00		1.20		2.953e-02		-47.890		6.526e-03		10.314
7		0.00		0.80		2.940e-02		-47.729		6.827e-03		12.653
7		0.00		0.40		2.908e-02		-48.466		7.181e-03		15.769
7		0.00		0.00		2.876e-02		-48.085		7.199e-03		14.596
7		0.00		-0.40		2.845e-02		-48.505		7.348e-03		11.185
7		0.00		-0.80		2.835e-02		-48.454		6.880e-03		9.465
7		0.00		-1.20		2.796e-02		-48.646		6.245e-03		8.592
7		0.00		-1.60		2.728e-02		-49.891		5.397e-03		8.470
7		0.00		-2.00		2.605e-02		-48.013		4.796e-03		8.999
7		0.00		-2.40		2.389e-02		-48.916		4.306e-03		9.519
7		0.00		-2.80		2.100e-02		-49.009		3.663e-03		10.887
7		0.00		-3.20		1.733e-02		-48.141		3.302e-03		11.855
7		0.00		-3.60		1.310e-02		-50.841		2.942e-03		13.033
7		0.00		-4.00		9.026e-03		-47.140		2.757e-03		13.906
7		0.00		-4.40		5.419e-03		-40.934		2.073e-03		22.191
7		0.00		-4.80		3.036e-03		-10.976		1.448e-03		54.457
7		0.00		-5.20		3.422e-03		78.649		1.508e-03		54.293
7		0.00		-5.60		4.372e-03		97.285		1.820e-03		37.797
7		0.00		-6.00		5.728e-03		105.803		2.220e-03		37.610
7		0.00		-6.40		8.043e-03		119.440		2.751e-03		25.257
7		0.00		-6.80		1.091e-02		124.492		3.352e-03		14.323
7		0.00		-7.20		1.283e-02		125.151		3.297e-03		10.999
7		0.00		-7.60		1.351e-02		122.096		3.556e-03		11.478
7		0.00		-8.00		1.549e-02		124.868		4.043e-03		13.533
7		0.00		-8.40		1.624e-02		123.280		4.603e-03		19.059
7		0.00		-8.80		1.765e-02		124.625		4.853e-03		21.447
7		0.00		-9.20		1.961e-02		125.568		5.281e-03		11.982
7		0.00		-9.60		2.022e-02		127.361		5.296e-03		8.116
7		0.00		-10.00		2.167e-02		124.729		4.787e-03		7.645
7		0.00		-9.60		2.158e-02		125.127		4.543e-03		9.218
7		0.00		-9.20		2.212e-02		125.854		4.862e-03		10.269
7		0.00		-8.80		2.145e-02		128.833		4.823e-03		9.227
7		0.00		-8.40		2.050e-02		127.016		5.001e-03		10.742
7		0.00		-8.00		1.972e-02		125.057		5.394e-03		16.282
7		0.00		-7.60		1.868e-02		121.995		5.341e-03		18.589
7		0.00		-7.20		1.840e-02		124.168		5.495e-03		14.966
7		0.00		-6.80		1.801e-02		125.668		5.269e-03		9.983
7		0.00		-6.40		1.746e-02		126.030		4.265e-03		8.321
7		0.00		-6.00		1.709e-02		128.274		4.080e-03		8.057
7		0.00		-5.60		1.693e-02		127.383		3.736e-03		8.975
7		0.00		-5.20		1.535e-02		126.105		3.534e-03		10.557
7		0.00		-4.80		1.477e-02		125.584		3.617e-03		10.763
7		0.00		-4.40		1.426e-02		121.107		3.679e-03		16.159
7		0.00		-4.00		1.286e-02		122.737		3.523e-03		20.298
7		0.00		-3.60		1.264e-02		126.907		3.741e-03		17.315
7		0.00		-3.20		1.239e-02		121.785		3.267e-03		15.152
7		0.00		-2.80		1.164e-02		122.278		2.923e-03		13.550
7		0.00		-2.40		1.138e-02		123.762		2.456e-03		9.201
7		0.00		-2.00		1.086e-02		125.008		2.795e-03		11.680
7		0.00		-1.60		9.996e-03		127.158		2.199e-03		13.010
7		0.00		-1.20		9.715e-03		121.663		2.340e-03		12.185
7		0.00		-0.80		9.161e-03		120.692		2.438e-03		17.788
7		0.00		-0.40		8.241e-03		117.597		2.492e-03		24.561
8		0.00		0.00		7.776e-03		122.159		2.426e-03		25.881
8		0.00		0.40		7.213e-03		114.180		2.396e-03		25.392
8		0.00		0.80		7.158e-03		115.582		2.353e-03		23.638
8		0.00		1.20		6.126e-03		116.340		1.889e-03		29.201
8		0.00		1.60		5.913e-03		113.906		2.001e-03		25.769
8		0.00		2.00		4.852e-03		112.847		1.864e-03		32.027
8		0.00		2.40		4.246e-03		114.936		1.579e-03		29.011
8		0.00		2.80		3.927e-03		107.408		1.572e-03		39.908
8		0.00		3.20		3.230e-03		88.392		1.180e-03		41.034
8		0.00		3.60		2.791e-03		75.869		1.328e-03		54.237
8		0.00		4.00		2.164e-03		40.898		8.429e-04		68.631
8		0.00		4.40		1.994e-03		35.849		7.393e-04		67.710
8		0.00		4.80		2.008e-03		-7.701		7.967e-04		60.826
8		0.00		5.20		2.781e-03		-31.753		1.127e-03		41.701
8		0.00		5.60		4.015e-03		-45.645		1.366e-03		26.860
8		0.00		6.00		5.788e-03		-42.625		1.606e-03		22.200
8		0.00		6.40		7.718e-03		-45.615		1.991e-03		17.658
8		0.00		6.80		9.543e-03		-43.508		2.557e-03		13.893
8		0.00		7.20		1.171e-02		-47.062		3.125e-03		13.335
8		0.00		7.60		1.449e-02		-49.183		3.765e-03		12.269
8		0.00		8.00		1.710e-02		-50.108		4.001e-03		9.198
8		0.00		8.40		2.008e-02		-48.083		4.316e-03		11.373
8		0.00		8.80		2.299e-02		-48.381		4.271e-03		11.421
8		0.00		9.20		2.523e-02		-48.747		5.610e-03		11.187
8		0.00		9.60		2.851e-02		-48.259		6.740e-03		11.416
8		0.00		10.00		3.085e-02		-50.740		8.326e-03		16.489
8		0.00		9.60		3.243e-02		-50.436		9.256e-03		17.112
8		0.00		9.20		3.307e-02		-50.152		9.197e-03		10.312
8		0.00		8.80		3.463e-02		-50.848		8.421e-03		8.249
8		0.00		8.40		3.425e-02		-52.637		7.455e-03		9.546
8		0.00		8.00		3.428e-02		-50.122		7.037e-03		10.891
8		0.00		7.60		3.350e-02		-49.521		7.089e-03		11.324
8		0.00		7.20		3.250e-02		-49.635		7.771e-03		12.515
8		0.00		6.80		3.236e-02		-49.351		7.993e-03		14.500
8		0.00		6.40		3.187e-02		-48.113		8.290e-03		14.074
8		0.00		6.00		3.145e-02		-48.975		8.266e-03		10.216
8		0.00		5.60		3.180e-02		-49.640		7.008e-03		8.834
8		0.00		5.20		3.234e-02		-50.965		6.327e-03		8.965
8		0.00		4.80		3.194e-02		-49.599		5.656e-03		10.176
8		0.00		4.40		3.159e-02		-49.584		6.150e-03		11.391
8		0.00		4.00		3.069e-02		-47.530		6.572e-03		10.428
8		0.00		3.60		2.971e-02		-48.335		7.644e-03		11.055
8		0.00		3.20		2.980e-02		-50.774		8.238e-03		14.338
8		0.00		2.80		2.914e-02		-48.493		8.561e-03		10.206
8		0.00		2.40		2.960e-02		-50.591		8.074e-03		8.116
8		0.00		2.00		2.988e-02		-49.741		6.718e-03		8.365
8		0.00		1.60		3.004e-02		-49.930		6.103e-03		9.370
8		0.00		1.20		3.038e-02		-50.266		6.288e-03		9.534
8		0.00		0.80		3.015e-02		-49.743		6.396e-03		10.622
8		0.00		0.40		2.936e-02		-49.543		7.142e-03		11.351
8		0.00		0.00		2.914e-02		-50.949		7.657e-03		14.601
8		0.00		-0.40		2.916e-02		-48.767		7.496e-03		14.202
8		0.00		-0.80		2.950e-02		-48.654		7.132e-03		9.584
8		0.00		-1.20		2.917e-02		-50.274		6.426e-03		7.928
8		0.00		-1.60		2.864e-02		-48.627		5.172e-03		8.140
8		0.00		-2.00		2.715e-02		-49.588		4.532e-03		9.029
8		0.00		-2.40		2.445e-02		-50.012		4.206e-03		9.780
8		0.00		-2.80		2.161e-02		-48.096		4.019e-03		10.242
8		0.00		-3.20		1.781e-02		-46.989		3.755e-03		11.878
8		0.00		-3.60		1.551e-02		-44.462		3.619e-03		13.349
8		0.00		-4.00		1.232e-02		-49.195		3.321e-03		19.052
8		0.00		-4.40		1.008e-02		-45.615		2.799e-03		14.231
8		0.00		-4.80		5.948e-03		-36.308		2.271e-03		24.175
8		0.00		-5.20		2.726e-03		-14.977		1.385e-03		54.446
8		0.00		-5.60		3.389e-03		79.692		1.547e-03		52.456
8		0.00		-6.00		5.371e-03		108.908		2.228e-03		37.103
8		0.00		-6.40		7.292e-03		112.854		2.413e-03		20.141
8		0.00		-6.80		1.024e-02		122.544		2.957e-03		16.477
8		0.00		-7.20		1.190e-02		121.520		3.513e-03		13.752
8		0.00		-7.60		1.425e-02		124.932		4.239e-03		14.895
8		0.00		-8.00		1.508e-02		122.380		4.408e-03		18.586
8		0.00		-8.40		1.669e-02		122.244		4.756e-03		20.496
8		0.00		-8.80		1.833e-02		126.313		5.011e-03		11.603
8		0.00		-9.20		1.967e-02		124.155		4.945e-03		10.096
8		0.00		-9.60		2.198e-02		125.702		4.919e-03		8.078
8		0.00		-10.00		2.371e-02		124.515		4.920e-03		8.219
8		0.00		-9.60		2.316e-02		126.400		4.378e-03		8.867
8		0.00		-9.20		2.337e-02		127.181		4.054e-03		8.573
8		0.00		-8.80		2.306e-02		126.699		4.085e-03		8.437
8		0.00		-8.40		2.318e-02		126.334		4.080e-03		8.220
8		0.00		-8.00		2.222e-02		127.198		4.324e-03		8.699
8		0.00		-7.60		2.114e-02		127.436		4.678e-03		10.837
8		0.00		-7.20		1.935e-02		126.326		4.824e-03		15.747
8		0.00		-6.80		1.880e-02		123.830		5.277e-03		19.081
8		0.00		-6.40		1.748e-02		122.333		5.186e-03		16.874
8		0.00		-6.00		1.732e-02		126.498		4.849e-03		10.650
8		0.00		-5.60		1.657e-02		126.078		4.522e-03		9.201
8		0.00		-5.20		1.591e-02		124.988		3.719e-03		8.492
8		0.00		-4.80		1.542e-02		125.892		3.557e-03		9.578
8		0.00		-4.40		1.510e-02		125.151		3.305e-03		11.103
8		0.00		-4.00		1.478e-02		124.082		3.252e-03		9.486
8		0.00		-3.60		1.439e-02		126.188		3.011e-03		10.296
8		0.00		-3.20		1.361e-02		128.300		2.715e-03		9.450
8		0.00		-2.80		1.246e-02		126.585		2.754e-03		9.869
8		0.00		-2.40		1.228e-02		125.917		2.533e-03		10.560
8		0.00		-2.00		1.110e-02		123.252		2.598e-03		13.914
8		0.00		-1.60		1.022e-02		119.659		2.830e-03		15.602
8		0.00		-1.20		1.022e-02		123.412		2.803e-03		19.598
8		0.00		-0.80		9.483e-03		126.249		2.720e-03		17.416
8		0.00		-0.40		9.375e-03		121.633		2.419e-03		13.248
