# Date of analysis: 2023-11-20 16;16
# 
# Loop index	Read Volt (V)	Write Volt (V)	Amplitude (a.u)	Phase (deg)	Sigma Amp (a.u)	Sigma Pha (deg)	
1		0.00		0.00		1.358e-02		-51.360		2.812e-03		12.633
1		0.00		0.40		1.343e-02		-46.516		3.113e-03		11.079
1		0.00		0.80		1.393e-02		-49.550		2.993e-03		9.671
1		0.00		1.20		1.411e-02		-44.647		2.565e-03		9.977
1		0.00		1.60		1.361e-02		-50.332		2.336e-03		9.547
1		0.00		2.00		1.416e-02		-51.488		2.258e-03		9.930
1		0.00		2.40		1.402e-02		-44.594		2.789e-03		9.224
1		0.00		2.80		1.373e-02		-48.635		3.430e-03		11.465
1		0.00		3.20		1.346e-02		-45.140		3.396e-03		11.094
1		0.00		3.60		1.365e-02		-48.537		3.521e-03		12.283
1		0.00		4.00		1.439e-02		-48.878		3.496e-03		10.717
1		0.00		4.40		1.500e-02		-49.291		3.120e-03		9.756
1		0.00		4.80		1.614e-02		-49.481		3.096e-03		8.352
1		0.00		5.20		1.675e-02		-51.073		3.193e-03		9.692
1		0.00		5.60		1.741e-02		-47.833		3.597e-03		8.849
1		0.00		6.00		1.824e-02		-50.060		3.985e-03		10.477
1		0.00		6.40		1.866e-02		-50.083		4.399e-03		11.379
1		0.00		6.80		1.948e-02		-49.980		4.410e-03		9.406
1		0.00		7.20		2.024e-02		-51.430		4.033e-03		10.741
1		0.00		7.60		2.139e-02		-51.598		3.830e-03		10.493
1		0.00		8.00		2.271e-02		-50.378		3.281e-03		9.199
1		0.00		8.40		2.425e-02		-51.522		3.586e-03		7.436
1		0.00		8.80		2.449e-02		-49.155		3.899e-03		7.818
1		0.00		9.20		2.556e-02		-49.573		4.659e-03		8.081
1		0.00		9.60		2.599e-02		-49.083		5.743e-03		10.805
1		0.00		10.00		2.747e-02		-52.114		6.422e-03		9.472
1		0.00		9.60		2.812e-02		-51.734		6.635e-03		9.660
1		0.00		9.20		2.864e-02		-52.499		5.774e-03		8.552
1		0.00		8.80		2.916e-02		-50.730		4.854e-03		7.753
1		0.00		8.40		2.996e-02		-50.834		4.327e-03		6.803
1		0.00		8.00		2.966e-02		-51.850		4.700e-03		7.464
1		0.00		7.60		2.875e-02		-49.452		5.170e-03		7.182
1		0.00		7.20		2.884e-02		-51.063		6.002e-03		9.742
1		0.00		6.80		2.829e-02		-50.884		6.568e-03		9.534
1		0.00		6.40		2.852e-02		-51.990		6.716e-03		9.077
1		0.00		6.00		2.778e-02		-51.843		6.052e-03		8.822
1		0.00		5.60		2.780e-02		-53.091		5.250e-03		7.501
1		0.00		5.20		2.843e-02		-51.350		4.418e-03		7.432
1		0.00		4.80		2.782e-02		-51.521		4.437e-03		7.352
1		0.00		4.40		2.855e-02		-48.842		4.392e-03		6.677
1		0.00		4.00		2.736e-02		-49.444		4.847e-03		7.977
1		0.00		3.60		2.688e-02		-49.429		5.539e-03		10.545
1		0.00		3.20		2.692e-02		-52.299		5.803e-03		8.463
1		0.00		2.80		2.635e-02		-51.252		5.693e-03		9.511
1		0.00		2.40		2.695e-02		-51.895		5.207e-03		7.461
1		0.00		2.00		2.708e-02		-50.441		4.313e-03		7.459
1		0.00		1.60		2.699e-02		-51.651		4.087e-03		8.055
1		0.00		1.20		2.607e-02		-50.988		4.516e-03		7.069
1		0.00		0.80		2.585e-02		-49.413		5.313e-03		7.946
1		0.00		0.40		2.493e-02		-52.843		6.357e-03		13.513
1		0.00		0.00		2.432e-02		-51.844		6.478e-03		10.224
1		0.00		-0.40		2.387e-02		-51.984		6.206e-03		10.137
1		0.00		-0.80		2.452e-02		-51.491		5.197e-03		10.087
1		0.00		-1.20		2.492e-02		-51.298		4.171e-03		7.080
1		0.00		-1.60		2.430e-02		-49.830		4.033e-03		7.677
1		0.00		-2.00		2.408e-02		-50.489		4.985e-03		8.161
1		0.00		-2.40		2.355e-02		-48.133		5.556e-03		10.289
1		0.00		-2.80		2.285e-02		-50.883		5.467e-03		12.297
1		0.00		-3.20		2.214e-02		-50.620		5.261e-03		9.679
1		0.00		-3.60		2.160e-02		-52.143		4.568e-03		9.189
1		0.00		-4.00		2.141e-02		-47.335		3.662e-03		7.893
1		0.00		-4.40		2.057e-02		-49.163		3.574e-03		8.507
1		0.00		-4.80		1.940e-02		-50.840		3.278e-03		9.703
1		0.00		-5.20		1.826e-02		-48.256		3.796e-03		9.371
1		0.00		-5.60		1.650e-02		-49.608		3.690e-03		10.630
1		0.00		-6.00		1.545e-02		-48.022		3.677e-03		10.073
1		0.00		-6.40		1.454e-02		-50.108		3.299e-03		10.947
1		0.00		-6.80		1.328e-02		-48.761		2.387e-03		9.856
1		0.00		-7.20		1.151e-02		-46.631		2.203e-03		11.535
1		0.00		-7.60		9.517e-03		-47.616		1.801e-03		13.259
1		0.00		-8.00		7.891e-03		-50.780		1.778e-03		12.183
1		0.00		-8.40		5.114e-03		-49.603		1.776e-03		32.749
1		0.00		-8.80		3.097e-03		-55.404		1.248e-03		34.336
1		0.00		-9.20		1.816e-03		35.940		8.122e-04		55.855
1		0.00		-9.60		3.502e-03		102.450		1.400e-03		43.146
1		0.00		-10.00		5.303e-03		116.029		1.411e-03		17.613
1		0.00		-9.60		6.434e-03		117.494		1.511e-03		12.861
1		0.00		-9.20		6.915e-03		120.114		1.844e-03		17.340
1		0.00		-8.80		7.483e-03		116.526		1.933e-03		20.136
1		0.00		-8.40		7.904e-03		121.973		2.158e-03		17.123
1		0.00		-8.00		8.689e-03		117.712		2.084e-03		13.490
1		0.00		-7.60		8.720e-03		115.184		1.801e-03		13.075
1		0.00		-7.20		8.694e-03		122.576		1.663e-03		9.833
1		0.00		-6.80		8.178e-03		123.613		1.679e-03		13.375
1		0.00		-6.40		7.553e-03		120.360		1.684e-03		15.218
1		0.00		-6.00		7.630e-03		117.702		1.817e-03		18.268
1		0.00		-5.60		7.481e-03		118.663		1.834e-03		15.759
1		0.00		-5.20		7.389e-03		120.589		1.510e-03		13.239
1		0.00		-4.80		7.109e-03		122.789		1.654e-03		13.816
1		0.00		-4.40		6.606e-03		119.858		1.841e-03		16.285
1		0.00		-4.00		6.409e-03		118.455		1.818e-03		18.570
1		0.00		-3.60		6.295e-03		119.420		1.885e-03		18.608
1		0.00		-3.20		6.532e-03		117.990		1.761e-03		15.161
1		0.00		-2.80		6.571e-03		117.633		1.844e-03		18.168
1		0.00		-2.40		6.671e-03		119.174		1.882e-03		14.778
1		0.00		-2.00		6.177e-03		125.808		1.601e-03		17.750
1		0.00		-1.60		6.090e-03		115.858		1.868e-03		26.420
1		0.00		-1.20		6.155e-03		120.208		1.748e-03		14.830
1		0.00		-0.80		5.766e-03		115.329		1.257e-03		16.978
1		0.00		-0.40		6.206e-03		120.592		1.647e-03		15.471
2		0.00		0.00		5.646e-03		120.793		1.568e-03		17.771
2		0.00		0.40		5.455e-03		116.177		1.695e-03		26.148
2		0.00		0.80		5.428e-03		115.294		1.653e-03		20.403
2		0.00		1.20		4.535e-03		106.562		1.307e-03		22.917
2		0.00		1.60		4.903e-03		114.994		1.354e-03		18.621
2		0.00		2.00		4.066e-03		108.963		1.198e-03		27.655
2		0.00		2.40		3.122e-03		97.467		1.218e-03		36.038
2		0.00		2.80		2.809e-03		98.683		1.030e-03		37.551
2		0.00		3.20		2.293e-03		64.786		9.473e-04		65.260
2		0.00		3.60		2.046e-03		25.094		7.661e-04		65.129
2		0.00		4.00		1.840e-03		-14.067		7.419e-04		61.610
2		0.00		4.40		2.344e-03		-39.846		1.110e-03		47.332
2		0.00		4.80		2.622e-03		-36.495		1.045e-03		39.986
2		0.00		5.20		4.259e-03		-48.841		1.257e-03		24.519
2		0.00		5.60		4.984e-03		-43.863		1.207e-03		19.289
2		0.00		6.00		5.941e-03		-51.431		1.524e-03		18.856
2		0.00		6.40		6.859e-03		-52.319		1.802e-03		19.004
2		0.00		6.80		8.254e-03		-47.815		2.023e-03		13.558
2		0.00		7.20		9.261e-03		-51.532		1.884e-03		12.703
2		0.00		7.60		1.026e-02		-52.278		1.809e-03		11.548
2		0.00		8.00		1.155e-02		-49.882		2.151e-03		12.021
2		0.00		8.40		1.255e-02		-51.773		3.336e-03		11.590
2		0.00		8.80		1.449e-02		-51.712		3.079e-03		10.511
2		0.00		9.20		1.757e-02		-49.973		2.853e-03		7.350
2		0.00		9.60		1.979e-02		-48.723		2.896e-03		8.370
2		0.00		10.00		2.223e-02		-49.765		4.409e-03		9.300
2		0.00		9.60		2.326e-02		-50.680		4.953e-03		9.075
2		0.00		9.20		2.443e-02		-52.041		4.426e-03		9.348
2		0.00		8.80		2.587e-02		-52.383		3.964e-03		6.963
2		0.00		8.40		2.533e-02		-52.068		4.087e-03		8.203
2		0.00		8.00		2.477e-02		-50.187		5.359e-03		9.638
2		0.00		7.60		2.524e-02		-52.268		5.450e-03		9.404
2		0.00		7.20		2.587e-02		-51.368		4.298e-03		8.572
2		0.00		6.80		2.597e-02		-51.465		3.973e-03		7.601
2		0.00		6.40		2.527e-02		-51.491		4.774e-03		7.624
2		0.00		6.00		2.447e-02		-53.464		5.893e-03		11.002
2		0.00		5.60		2.411e-02		-51.528		5.510e-03		9.904
2		0.00		5.20		2.505e-02		-52.866		4.324e-03		7.635
2		0.00		4.80		2.455e-02		-50.219		4.433e-03		7.722
2		0.00		4.40		2.355e-02		-50.174		5.340e-03		11.199
2		0.00		4.00		2.292e-02		-50.663		5.884e-03		10.326
2		0.00		3.60		2.377e-02		-51.263		4.629e-03		8.318
2		0.00		3.20		2.375e-02		-49.888		4.142e-03		7.597
2		0.00		2.80		2.316e-02		-48.924		4.797e-03		7.902
2		0.00		2.40		2.235e-02		-50.793		5.673e-03		12.243
2		0.00		2.00		2.291e-02		-51.872		4.921e-03		8.619
2		0.00		1.60		2.350e-02		-50.263		3.609e-03		8.460
2		0.00		1.20		2.320e-02		-49.428		4.032e-03		7.637
2		0.00		0.80		2.286e-02		-48.787		4.575e-03		10.921
2		0.00		0.40		2.225e-02		-49.818		4.898e-03		9.709
2		0.00		0.00		2.266e-02		-51.592		3.827e-03		8.710
2		0.00		-0.40		2.308e-02		-49.731		3.585e-03		7.312
2		0.00		-0.80		2.212e-02		-47.871		4.011e-03		9.527
2		0.00		-1.20		2.135e-02		-48.930		4.597e-03		8.396
2		0.00		-1.60		2.105e-02		-49.136		4.297e-03		9.457
2		0.00		-2.00		2.171e-02		-49.291		3.287e-03		7.885
2		0.00		-2.40		2.114e-02		-49.703		3.550e-03		8.037
2		0.00		-2.80		1.992e-02		-51.611		4.468e-03		10.290
2		0.00		-3.20		1.897e-02		-49.636		4.362e-03		8.774
2		0.00		-3.60		1.884e-02		-50.619		2.805e-03		8.712
2		0.00		-4.00		1.820e-02		-50.043		2.937e-03		8.333
2		0.00		-4.40		1.716e-02		-51.534		3.691e-03		9.970
2		0.00		-4.80		1.567e-02		-49.007		3.676e-03		10.055
2		0.00		-5.20		1.535e-02		-48.287		2.830e-03		8.418
2		0.00		-5.60		1.444e-02		-48.217		2.441e-03		9.819
2		0.00		-6.00		1.275e-02		-47.797		2.571e-03		12.135
2		0.00		-6.40		1.106e-02		-49.403		2.744e-03		13.857
2		0.00		-6.80		9.941e-03		-46.754		2.428e-03		14.634
2		0.00		-7.20		8.283e-03		-46.014		1.793e-03		14.854
2		0.00		-7.60		7.326e-03		-43.995		1.654e-03		12.727
2		0.00		-8.00		4.898e-03		-43.857		1.642e-03		22.843
2		0.00		-8.40		3.191e-03		-33.827		1.319e-03		34.014
2		0.00		-8.80		2.199e-03		-13.592		8.242e-04		54.865
2		0.00		-9.20		2.042e-03		53.720		8.174e-04		71.768
2		0.00		-9.60		3.970e-03		107.868		1.260e-03		31.351
2		0.00		-10.00		4.892e-03		107.953		1.563e-03		35.246
2		0.00		-9.60		6.636e-03		122.142		1.679e-03		13.888
2		0.00		-9.20		7.642e-03		114.859		1.616e-03		13.860
2		0.00		-8.80		7.568e-03		119.194		1.712e-03		15.623
2		0.00		-8.40		7.876e-03		118.888		2.262e-03		22.787
2		0.00		-8.00		7.972e-03		118.181		2.129e-03		9.910
2		0.00		-7.60		8.059e-03		124.305		2.032e-03		14.400
2		0.00		-7.20		7.494e-03		121.445		2.073e-03		16.140
2		0.00		-6.80		7.797e-03		117.920		2.234e-03		19.111
2		0.00		-6.40		7.773e-03		124.221		2.110e-03		15.059
2		0.00		-6.00		8.078e-03		118.581		1.712e-03		12.704
2		0.00		-5.60		7.784e-03		117.821		1.669e-03		14.145
2		0.00		-5.20		7.455e-03		125.335		1.944e-03		12.563
2		0.00		-4.80		6.936e-03		113.896		2.052e-03		22.780
2		0.00		-4.40		6.833e-03		117.626		1.892e-03		14.485
2		0.00		-4.00		6.920e-03		118.176		1.647e-03		14.747
2		0.00		-3.60		6.752e-03		117.890		1.437e-03		15.837
2		0.00		-3.20		6.158e-03		119.545		1.463e-03		17.817
2		0.00		-2.80		6.305e-03		118.598		1.802e-03		19.325
2		0.00		-2.40		6.334e-03		118.646		1.471e-03		16.863
2		0.00		-2.00		6.126e-03		117.956		1.399e-03		17.956
2		0.00		-1.60		6.000e-03		118.967		1.653e-03		16.819
2		0.00		-1.20		5.786e-03		119.307		1.647e-03		17.827
2		0.00		-0.80		5.972e-03		114.983		1.664e-03		34.846
2		0.00		-0.40		5.686e-03		110.525		1.645e-03		32.886
3		0.00		0.00		5.816e-03		117.064		1.252e-03		18.075
3		0.00		0.40		5.945e-03		119.817		1.395e-03		15.702
3		0.00		0.80		5.187e-03		118.639		1.465e-03		18.915
3		0.00		1.20		4.992e-03		117.366		1.529e-03		24.819
3		0.00		1.60		4.701e-03		120.205		1.359e-03		16.579
3		0.00		2.00		4.347e-03		112.235		1.385e-03		19.484
3		0.00		2.40		3.978e-03		114.368		1.308e-03		19.867
3		0.00		2.80		3.167e-03		97.800		1.239e-03		33.204
3		0.00		3.20		2.582e-03		77.238		1.028e-03		61.093
3		0.00		3.60		1.880e-03		47.193		7.855e-04		64.240
3		0.00		4.00		1.874e-03		18.895		7.761e-04		69.096
3		0.00		4.40		2.047e-03		-21.854		8.024e-04		57.081
3		0.00		4.80		2.852e-03		-47.877		1.046e-03		40.113
3		0.00		5.20		3.440e-03		-54.046		1.163e-03		29.571
3		0.00		5.60		4.456e-03		-46.687		1.490e-03		22.620
3		0.00		6.00		5.385e-03		-48.078		1.363e-03		19.515
3		0.00		6.40		6.639e-03		-52.925		1.351e-03		15.689
3		0.00		6.80		7.282e-03		-45.263		1.495e-03		14.715
3		0.00		7.20		8.137e-03		-45.098		2.032e-03		12.836
3		0.00		7.60		8.827e-03		-47.988		1.994e-03		15.351
3		0.00		8.00		1.049e-02		-49.615		2.136e-03		10.609
3		0.00		8.40		1.217e-02		-50.712		2.206e-03		10.405
3		0.00		8.80		1.341e-02		-52.355		2.287e-03		9.013
3		0.00		9.20		1.551e-02		-50.406		3.256e-03		9.510
3		0.00		9.60		1.732e-02		-51.481		4.097e-03		11.475
3		0.00		10.00		1.971e-02		-51.499		5.006e-03		9.744
3		0.00		9.60		2.199e-02		-53.176		4.503e-03		9.244
3		0.00		9.20		2.264e-02		-50.654		4.265e-03		8.269
3		0.00		8.80		2.366e-02		-50.567		4.465e-03		8.406
3		0.00		8.40		2.320e-02		-50.200		5.164e-03		9.540
3		0.00		8.00		2.320e-02		-50.953		5.867e-03		10.591
3		0.00		7.60		2.320e-02		-52.650		5.510e-03		10.166
3		0.00		7.20		2.370e-02		-51.640		4.708e-03		8.491
3		0.00		6.80		2.402e-02		-51.074		3.991e-03		7.976
3		0.00		6.40		2.378e-02		-50.311		4.147e-03		7.896
3		0.00		6.00		2.287e-02		-51.016		4.919e-03		10.659
3		0.00		5.60		2.303e-02		-50.496		5.373e-03		9.061
3		0.00		5.20		2.323e-02		-50.576		4.372e-03		8.098
3		0.00		4.80		2.346e-02		-49.948		3.780e-03		7.907
3		0.00		4.40		2.314e-02		-50.019		3.728e-03		7.933
3		0.00		4.00		2.287e-02		-50.678		4.094e-03		8.880
3		0.00		3.60		2.191e-02		-48.899		5.144e-03		8.820
3		0.00		3.20		2.198e-02		-51.638		4.563e-03		8.190
3		0.00		2.80		2.211e-02		-49.182		3.661e-03		7.744
3		0.00		2.40		2.251e-02		-49.939		3.545e-03		7.516
3		0.00		2.00		2.195e-02		-50.342		4.222e-03		8.489
3		0.00		1.60		2.164e-02		-52.112		5.013e-03		10.256
3		0.00		1.20		2.094e-02		-52.083		4.780e-03		9.759
3		0.00		0.80		2.203e-02		-49.908		3.702e-03		7.080
3		0.00		0.40		2.258e-02		-49.498		3.304e-03		6.732
3		0.00		0.00		2.219e-02		-48.939		3.940e-03		7.749
3		0.00		-0.40		2.184e-02		-49.368		4.327e-03		10.412
3		0.00		-0.80		2.109e-02		-49.543		4.963e-03		10.303
3		0.00		-1.20		2.111e-02		-50.188		4.230e-03		9.045
3		0.00		-1.60		2.146e-02		-49.509		3.222e-03		7.396
3		0.00		-2.00		2.105e-02		-49.097		2.975e-03		7.516
3		0.00		-2.40		2.019e-02		-49.804		3.755e-03		8.512
3		0.00		-2.80		1.936e-02		-48.336		3.999e-03		9.194
3		0.00		-3.20		1.873e-02		-48.158		3.939e-03		9.717
3		0.00		-3.60		1.887e-02		-50.240		3.160e-03		9.042
3		0.00		-4.00		1.832e-02		-51.254		2.614e-03		7.118
3		0.00		-4.40		1.724e-02		-51.043		3.072e-03		9.222
3		0.00		-4.80		1.602e-02		-50.346		3.191e-03		9.713
3		0.00		-5.20		1.441e-02		-46.214		3.229e-03		10.444
3		0.00		-5.60		1.391e-02		-47.366		2.552e-03		11.467
3		0.00		-6.00		1.279e-02		-46.297		2.093e-03		8.900
3		0.00		-6.40		1.130e-02		-48.098		2.082e-03		12.474
3		0.00		-6.80		1.007e-02		-44.762		2.445e-03		11.615
3		0.00		-7.20		7.938e-03		-41.824		2.272e-03		15.733
3		0.00		-7.60		6.518e-03		-45.151		1.717e-03		15.899
3		0.00		-8.00		5.108e-03		-36.626		1.359e-03		19.285
3		0.00		-8.40		3.180e-03		-45.537		1.125e-03		34.631
3		0.00		-8.80		1.972e-03		-18.145		7.937e-04		59.158
3		0.00		-9.20		2.171e-03		61.579		8.968e-04		50.508
3		0.00		-9.60		3.624e-03		98.787		1.261e-03		31.738
3		0.00		-10.00		4.568e-03		111.731		1.486e-03		23.656
3		0.00		-9.60		7.116e-03		114.931		1.960e-03		14.565
3		0.00		-9.20		7.446e-03		119.383		1.729e-03		17.789
3		0.00		-8.80		7.893e-03		120.003		1.773e-03		16.245
3		0.00		-8.40		8.272e-03		119.890		1.922e-03		15.772
3		0.00		-8.00		8.469e-03		122.778		2.136e-03		13.649
3		0.00		-7.60		8.167e-03		120.599		1.785e-03		13.842
3		0.00		-7.20		8.322e-03		123.464		1.663e-03		11.776
3		0.00		-6.80		8.499e-03		125.637		1.562e-03		11.673
3		0.00		-6.40		8.234e-03		120.319		1.810e-03		17.846
3		0.00		-6.00		7.676e-03		117.687		2.014e-03		16.417
3		0.00		-5.60		7.516e-03		119.809		1.975e-03		16.820
3		0.00		-5.20		7.459e-03		121.039		1.746e-03		15.079
3		0.00		-4.80		6.924e-03		115.780		1.667e-03		12.594
3		0.00		-4.40		7.131e-03		125.814		1.618e-03		15.249
3		0.00		-4.00		6.733e-03		117.591		1.904e-03		21.441
3		0.00		-3.60		6.755e-03		123.803		1.881e-03		18.026
3		0.00		-3.20		6.602e-03		115.750		1.819e-03		18.119
3		0.00		-2.80		6.514e-03		119.282		1.448e-03		12.856
3		0.00		-2.40		6.368e-03		117.275		1.632e-03		16.195
3		0.00		-2.00		6.410e-03		116.514		1.568e-03		17.903
3		0.00		-1.60		6.128e-03		116.826		1.941e-03		23.306
3		0.00		-1.20		6.208e-03		115.281		1.591e-03		13.520
3		0.00		-0.80		6.395e-03		120.344		1.477e-03		17.057
3		0.00		-0.40		6.017e-03		111.781		1.403e-03		14.549
4		0.00		0.00		6.281e-03		119.069		1.664e-03		17.550
4		0.00		0.40		6.084e-03		117.070		1.724e-03		27.774
4		0.00		0.80		5.887e-03		122.036		1.460e-03		16.755
4		0.00		1.20		5.339e-03		117.569		1.552e-03		14.886
4		0.00		1.60		5.063e-03		112.590		1.357e-03		20.103
4		0.00		2.00		4.610e-03		113.983		1.334e-03		22.093
4		0.00		2.40		4.044e-03		107.875		1.239e-03		29.664
4		0.00		2.80		3.417e-03		105.747		1.328e-03		48.218
4		0.00		3.20		2.444e-03		74.898		1.002e-03		60.292
4		0.00		3.60		2.166e-03		69.401		9.630e-04		66.162
4		0.00		4.00		1.687e-03		3.042		6.611e-04		64.256
4		0.00		4.40		1.870e-03		-34.427		7.153e-04		62.531
4		0.00		4.80		2.499e-03		-32.555		1.142e-03		40.762
4		0.00		5.20		3.600e-03		-37.303		1.220e-03		26.080
4		0.00		5.60		4.445e-03		-45.782		1.339e-03		19.718
4		0.00		6.00		5.130e-03		-46.280		1.361e-03		19.548
4		0.00		6.40		5.935e-03		-55.942		1.782e-03		19.245
4		0.00		6.80		7.068e-03		-54.286		1.769e-03		16.377
4		0.00		7.20		7.816e-03		-52.932		1.754e-03		14.478
4		0.00		7.60		9.314e-03		-48.748		1.824e-03		12.186
4		0.00		8.00		1.025e-02		-52.378		1.954e-03		11.131
4		0.00		8.40		1.164e-02		-52.434		2.565e-03		11.151
4		0.00		8.80		1.380e-02		-47.447		3.154e-03		10.392
4		0.00		9.20		1.568e-02		-48.613		2.853e-03		8.521
4		0.00		9.60		1.822e-02		-51.351		2.973e-03		8.399
4		0.00		10.00		2.090e-02		-49.699		3.608e-03		8.673
4		0.00		9.60		2.146e-02		-51.033		4.633e-03		10.975
4		0.00		9.20		2.235e-02		-51.553		4.696e-03		7.902
4		0.00		8.80		2.350e-02		-51.667		4.201e-03		9.096
4		0.00		8.40		2.410e-02		-51.497		3.568e-03		8.403
4		0.00		8.00		2.406e-02		-48.158		4.188e-03		7.565
4		0.00		7.60		2.304e-02		-50.929		5.357e-03		11.052
4		0.00		7.20		2.324e-02		-49.362		5.040e-03		9.309
4		0.00		6.80		2.377e-02		-51.618		3.854e-03		7.769
4		0.00		6.40		2.434e-02		-47.743		3.396e-03		6.679
4		0.00		6.00		2.345e-02		-50.838		4.341e-03		8.557
4		0.00		5.60		2.214e-02		-50.983		5.116e-03		10.110
4		0.00		5.20		2.283e-02		-50.614		4.683e-03		9.216
4		0.00		4.80		2.306e-02		-50.232		3.656e-03		7.860
4		0.00		4.40		2.340e-02		-51.271		3.579e-03		7.069
4		0.00		4.00		2.232e-02		-50.542		4.335e-03		9.723
4		0.00		3.60		2.135e-02		-49.648		5.097e-03		8.814
4		0.00		3.20		2.180e-02		-50.123		4.134e-03		9.500
4		0.00		2.80		2.234e-02		-51.313		3.439e-03		7.369
4		0.00		2.40		2.224e-02		-49.391		3.703e-03		7.937
4		0.00		2.00		2.190e-02		-48.153		4.413e-03		8.676
4		0.00		1.60		2.136e-02		-48.875		4.967e-03		8.628
4		0.00		1.20		2.189e-02		-50.354		4.119e-03		8.476
4		0.00		0.80		2.191e-02		-51.982		3.363e-03		7.807
4		0.00		0.40		2.212e-02		-48.997		3.839e-03		7.138
4		0.00		0.00		2.114e-02		-49.092		4.521e-03		10.911
4		0.00		-0.40		2.097e-02		-50.718		4.623e-03		9.286
4		0.00		-0.80		2.093e-02		-51.947		3.700e-03		9.592
4		0.00		-1.20		2.107e-02		-50.093		3.382e-03		9.699
4		0.00		-1.60		2.023e-02		-45.479		3.928e-03		8.458
4		0.00		-2.00		1.954e-02		-48.293		4.622e-03		10.627
4		0.00		-2.40		1.904e-02		-48.448		4.891e-03		9.434
4		0.00		-2.80		1.873e-02		-48.826		3.792e-03		8.468
4		0.00		-3.20		1.877e-02		-49.458		3.200e-03		8.854
4		0.00		-3.60		1.732e-02		-50.508		3.314e-03		9.407
4		0.00		-4.00		1.647e-02		-47.478		3.924e-03		11.584
4		0.00		-4.40		1.589e-02		-51.247		4.042e-03		9.867
4		0.00		-4.80		1.510e-02		-50.592		3.192e-03		9.210
4		0.00		-5.20		1.479e-02		-48.923		2.902e-03		10.232
4		0.00		-5.60		1.292e-02		-50.295		2.988e-03		11.846
4		0.00		-6.00		1.148e-02		-47.204		2.848e-03		13.929
4		0.00		-6.40		1.055e-02		-46.991		2.733e-03		10.638
4		0.00		-6.80		9.012e-03		-44.397		1.748e-03		12.460
4		0.00		-7.20		8.330e-03		-42.822		1.760e-03		15.804
4		0.00		-7.60		6.148e-03		-53.715		1.605e-03		16.853
4		0.00		-8.00		4.532e-03		-32.907		1.435e-03		19.803
4		0.00		-8.40		2.750e-03		-48.235		1.225e-03		43.787
4		0.00		-8.80		2.066e-03		-21.867		8.642e-04		50.981
4		0.00		-9.20		1.822e-03		31.737		7.923e-04		61.593
4		0.00		-9.60		3.114e-03		92.915		1.176e-03		49.173
4		0.00		-10.00		4.311e-03		105.807		1.701e-03		29.851
4		0.00		-9.60		5.213e-03		115.664		1.531e-03		18.627
4		0.00		-9.20		6.074e-03		112.999		1.796e-03		22.894
4		0.00		-8.80		7.326e-03		120.146		1.580e-03		10.696
4		0.00		-8.40		6.892e-03		124.835		1.502e-03		14.476
4		0.00		-8.00		6.907e-03		115.388		1.682e-03		18.159
4		0.00		-7.60		6.996e-03		116.652		1.846e-03		15.501
4		0.00		-7.20		6.902e-03		118.816		1.776e-03		13.958
4		0.00		-6.80		6.683e-03		118.259		1.595e-03		14.573
4		0.00		-6.40		6.966e-03		120.409		1.711e-03		13.635
4		0.00		-6.00		6.948e-03		117.218		1.678e-03		19.820
4		0.00		-5.60		6.280e-03		121.455		1.497e-03		20.188
4		0.00		-5.20		6.781e-03		119.034		1.625e-03		14.276
4		0.00		-4.80		6.475e-03		120.401		1.603e-03		14.832
4		0.00		-4.40		6.328e-03		122.368		1.379e-03		15.203
4		0.00		-4.00		6.145e-03		118.190		1.531e-03		18.156
4		0.00		-3.60		5.546e-03		118.449		1.483e-03		23.996
4		0.00		-3.20		6.066e-03		114.440		1.620e-03		16.071
4		0.00		-2.80		5.836e-03		115.429		1.513e-03		15.225
4		0.00		-2.40		5.906e-03		115.491		1.342e-03		18.875
4		0.00		-2.00		5.790e-03		118.195		1.562e-03		16.327
4		0.00		-1.60		5.633e-03		117.896		1.619e-03		24.645
4		0.00		-1.20		5.506e-03		114.963		1.654e-03		21.020
4		0.00		-0.80		5.182e-03		116.788		1.389e-03		15.941
4		0.00		-0.40		5.444e-03		114.672		1.378e-03		14.304
5		0.00		0.00		5.209e-03		125.482		1.389e-03		17.602
5		0.00		0.40		4.849e-03		110.316		1.572e-03		24.914
5		0.00		0.80		4.916e-03		111.704		1.631e-03		26.396
5		0.00		1.20		4.962e-03		108.145		1.716e-03		18.406
5		0.00		1.60		4.392e-03		110.561		1.340e-03		19.341
5		0.00		2.00		3.934e-03		107.948		1.295e-03		28.282
5		0.00		2.40		3.420e-03		105.790		1.247e-03		39.919
5		0.00		2.80		3.008e-03		96.292		1.165e-03		31.072
5		0.00		3.20		2.500e-03		85.189		1.066e-03		48.592
5		0.00		3.60		2.089e-03		49.846		8.437e-04		73.361
5		0.00		4.00		1.759e-03		17.278		7.681e-04		57.384
5		0.00		4.40		1.955e-03		-28.618		8.103e-04		65.098
5		0.00		4.80		2.331e-03		-37.163		9.767e-04		46.684
5		0.00		5.20		3.735e-03		-38.523		1.268e-03		26.278
5		0.00		5.60		4.449e-03		-54.263		1.332e-03		23.124
5		0.00		6.00		5.678e-03		-44.673		1.519e-03		17.103
5		0.00		6.40		6.379e-03		-46.096		1.573e-03		15.534
5		0.00		6.80		7.194e-03		-47.180		1.758e-03		15.056
5		0.00		7.20		8.105e-03		-51.512		1.743e-03		13.142
5		0.00		7.60		9.626e-03		-50.651		1.725e-03		11.168
5		0.00		8.00		1.084e-02		-45.408		1.930e-03		9.213
5		0.00		8.40		1.148e-02		-50.513		2.750e-03		12.539
5		0.00		8.80		1.296e-02		-49.377		2.938e-03		11.044
5		0.00		9.20		1.529e-02		-48.412		3.004e-03		8.174
5		0.00		9.60		1.816e-02		-49.119		2.608e-03		7.386
5		0.00		10.00		1.992e-02		-50.365		3.551e-03		7.839
5		0.00		9.60		2.103e-02		-49.695		4.333e-03		9.692
5		0.00		9.20		2.073e-02		-50.868		4.978e-03		11.512
5		0.00		8.80		2.239e-02		-50.787		4.149e-03		7.363
5		0.00		8.40		2.334e-02		-49.932		3.566e-03		6.688
5		0.00		8.00		2.333e-02		-49.319		3.870e-03		8.229
5		0.00		7.60		2.299e-02		-48.103		4.584e-03		9.410
5		0.00		7.20		2.248e-02		-53.069		4.748e-03		8.696
5		0.00		6.80		2.330e-02		-52.003		3.789e-03		8.343
5		0.00		6.40		2.288e-02		-50.233		3.336e-03		8.658
5		0.00		6.00		2.281e-02		-47.542		3.657e-03		7.716
5		0.00		5.60		2.185e-02		-50.257		4.665e-03		10.768
5		0.00		5.20		2.159e-02		-50.796		4.569e-03		8.458
5		0.00		4.80		2.249e-02		-49.519		3.810e-03		8.668
5		0.00		4.40		2.284e-02		-49.380		3.262e-03		7.348
5		0.00		4.00		2.198e-02		-48.918		4.051e-03		7.818
5		0.00		3.60		2.147e-02		-48.984		4.641e-03		9.899
5		0.00		3.20		2.085e-02		-51.016		5.160e-03		8.817
5		0.00		2.80		2.131e-02		-49.672		4.169e-03		8.075
5		0.00		2.40		2.091e-02		-49.948		3.870e-03		8.256
5		0.00		2.00		2.145e-02		-48.755		4.061e-03		8.507
5		0.00		1.60		2.066e-02		-51.024		4.896e-03		11.314
5		0.00		1.20		2.047e-02		-49.309		5.017e-03		8.933
5		0.00		0.80		2.050e-02		-50.725		4.120e-03		9.371
5		0.00		0.40		2.091e-02		-48.816		3.584e-03		8.132
5		0.00		0.00		2.013e-02		-48.472		4.034e-03		8.757
5		0.00		-0.40		2.018e-02		-48.913		4.923e-03		10.155
5		0.00		-0.80		1.946e-02		-49.313		4.388e-03		10.547
5		0.00		-1.20		2.036e-02		-50.023		3.522e-03		8.641
5		0.00		-1.60		2.026e-02		-47.826		3.385e-03		8.379
5		0.00		-2.00		1.949e-02		-46.824		3.306e-03		8.383
5		0.00		-2.40		1.882e-02		-48.473		3.721e-03		10.138
5		0.00		-2.80		1.835e-02		-45.253		4.142e-03		8.875
5		0.00		-3.20		1.787e-02		-50.824		3.156e-03		8.756
5		0.00		-3.60		1.751e-02		-48.143		2.922e-03		10.002
5		0.00		-4.00		1.626e-02		-46.658		2.969e-03		9.334
5		0.00		-4.40		1.539e-02		-50.399		3.432e-03		11.531
5		0.00		-4.80		1.433e-02		-49.103		3.286e-03		10.768
5		0.00		-5.20		1.373e-02		-49.538		2.549e-03		9.191
5		0.00		-5.60		1.302e-02		-48.387		2.253e-03		10.323
5		0.00		-6.00		1.141e-02		-47.825		2.484e-03		11.782
5		0.00		-6.40		9.761e-03		-49.170		2.481e-03		13.610
5		0.00		-6.80		8.522e-03		-48.198		2.304e-03		14.693
5		0.00		-7.20		7.189e-03		-45.558		1.779e-03		15.434
5		0.00		-7.60		5.800e-03		-53.407		1.525e-03		18.953
5		0.00		-8.00		4.678e-03		-39.864		1.353e-03		18.171
5		0.00		-8.40		3.505e-03		-29.806		1.273e-03		34.431
5		0.00		-8.80		2.263e-03		-12.957		1.034e-03		50.300
5		0.00		-9.20		2.063e-03		28.390		8.395e-04		67.223
5		0.00		-9.60		2.602e-03		91.705		1.054e-03		51.410
5		0.00		-10.00		3.866e-03		100.252		1.328e-03		37.150
5		0.00		-9.60		4.653e-03		105.556		1.636e-03		30.296
5		0.00		-9.20		5.251e-03		116.789		1.528e-03		24.106
5		0.00		-8.80		5.426e-03		109.769		1.578e-03		16.955
5		0.00		-8.40		6.440e-03		121.396		1.464e-03		15.105
5		0.00		-8.00		6.456e-03		117.706		1.767e-03		18.369
5		0.00		-7.60		6.811e-03		119.516		1.941e-03		18.119
5		0.00		-7.20		6.825e-03		118.478		1.727e-03		12.276
5		0.00		-6.80		6.873e-03		127.296		1.409e-03		13.131
5		0.00		-6.40		6.870e-03		122.962		1.657e-03		12.459
5		0.00		-6.00		6.378e-03		109.584		1.858e-03		20.922
5		0.00		-5.60		6.402e-03		120.270		1.784e-03		18.944
5		0.00		-5.20		6.145e-03		116.372		1.549e-03		17.651
5		0.00		-4.80		6.424e-03		123.573		1.518e-03		14.666
5		0.00		-4.40		5.951e-03		118.538		1.624e-03		15.707
5		0.00		-4.00		5.836e-03		120.336		1.784e-03		25.840
5		0.00		-3.60		5.854e-03		111.833		1.758e-03		25.233
5		0.00		-3.20		5.821e-03		121.614		1.582e-03		16.405
5		0.00		-2.80		5.654e-03		115.503		1.648e-03		23.027
5		0.00		-2.40		5.378e-03		122.598		1.706e-03		22.026
5		0.00		-2.00		5.630e-03		111.826		1.611e-03		17.766
5		0.00		-1.60		5.033e-03		118.577		1.256e-03		16.952
5		0.00		-1.20		5.318e-03		122.285		1.393e-03		16.066
5		0.00		-0.80		5.359e-03		116.405		1.446e-03		19.338
5		0.00		-0.40		5.297e-03		117.929		1.408e-03		19.983
6		0.00		0.00		5.138e-03		114.138		1.522e-03		17.443
6		0.00		0.40		5.202e-03		118.158		1.625e-03		19.432
6		0.00		0.80		5.179e-03		117.874		1.349e-03		15.955
6		0.00		1.20		4.438e-03		112.328		1.422e-03		19.302
6		0.00		1.60		4.296e-03		110.818		1.518e-03		29.491
6		0.00		2.00		4.020e-03		105.805		1.406e-03		25.650
6		0.00		2.40		3.570e-03		113.719		1.169e-03		30.724
6		0.00		2.80		3.121e-03		100.496		1.174e-03		36.895
6		0.00		3.20		2.424e-03		73.521		1.065e-03		54.954
6		0.00		3.60		1.921e-03		62.043		6.816e-04		68.262
6		0.00		4.00		1.726e-03		24.381		6.603e-04		62.511
6		0.00		4.40		1.901e-03		-21.917		6.442e-04		66.911
6		0.00		4.80		2.157e-03		-45.107		9.350e-04		46.243
6		0.00		5.20		3.166e-03		-31.111		1.198e-03		26.507
6		0.00		5.60		4.227e-03		-43.987		1.250e-03		26.004
6		0.00		6.00		4.623e-03		-46.427		1.214e-03		22.620
6		0.00		6.40		5.514e-03		-45.644		1.305e-03		18.745
6		0.00		6.80		6.519e-03		-48.433		1.569e-03		16.617
6		0.00		7.20		7.405e-03		-46.571		1.962e-03		14.422
6		0.00		7.60		8.453e-03		-51.255		1.886e-03		12.477
6		0.00		8.00		9.676e-03		-51.428		1.815e-03		14.422
6		0.00		8.40		1.053e-02		-46.032		2.197e-03		12.659
6		0.00		8.80		1.220e-02		-49.289		2.800e-03		10.738
6		0.00		9.20		1.472e-02		-51.583		2.706e-03		8.867
6		0.00		9.60		1.697e-02		-50.052		2.716e-03		8.464
6		0.00		10.00		1.919e-02		-49.093		3.379e-03		9.061
6		0.00		9.60		1.983e-02		-48.244		4.440e-03		9.905
6		0.00		9.20		2.128e-02		-48.843		3.945e-03		8.114
6		0.00		8.80		2.246e-02		-49.386		3.632e-03		8.001
6		0.00		8.40		2.208e-02		-47.878		4.170e-03		8.952
6		0.00		8.00		2.221e-02		-51.314		5.211e-03		11.598
6		0.00		7.60		2.157e-02		-51.606		4.550e-03		7.586
6		0.00		7.20		2.198e-02		-50.731		3.820e-03		9.124
6		0.00		6.80		2.231e-02		-51.013		4.637e-03		9.246
6		0.00		6.40		2.202e-02		-53.283		5.672e-03		12.907
6		0.00		6.00		2.193e-02		-51.561		5.083e-03		9.349
6		0.00		5.60		2.238e-02		-51.003		4.155e-03		8.778
6		0.00		5.20		2.157e-02		-50.669		4.471e-03		8.888
6		0.00		4.80		2.136e-02		-49.745		5.344e-03		11.102
6		0.00		4.40		2.063e-02		-51.009		4.736e-03		9.882
6		0.00		4.00		2.116e-02		-49.137		3.848e-03		7.972
6		0.00		3.60		2.125e-02		-49.657		4.270e-03		8.884
6		0.00		3.20		2.070e-02		-51.415		4.992e-03		9.853
6		0.00		2.80		2.093e-02		-53.276		4.071e-03		8.328
6		0.00		2.40		2.120e-02		-50.422		3.677e-03		7.463
6		0.00		2.00		2.078e-02		-47.400		3.827e-03		8.225
6		0.00		1.60		2.060e-02		-50.003		4.375e-03		9.934
6		0.00		1.20		2.064e-02		-49.583		3.608e-03		8.885
6		0.00		0.80		2.048e-02		-50.523		3.214e-03		8.673
6		0.00		0.40		2.038e-02		-49.491		3.801e-03		8.183
6		0.00		0.00		1.990e-02		-46.970		4.344e-03		9.258
6		0.00		-0.40		2.088e-02		-50.408		3.730e-03		8.718
6		0.00		-0.80		2.050e-02		-48.828		3.271e-03		7.914
6		0.00		-1.20		1.993e-02		-48.648		3.965e-03		8.316
6		0.00		-1.60		1.885e-02		-48.571		4.211e-03		8.945
6		0.00		-2.00		1.929e-02		-49.063		3.130e-03		8.354
6		0.00		-2.40		1.905e-02		-48.549		3.553e-03		8.298
6		0.00		-2.80		1.816e-02		-47.729		4.333e-03		12.343
6		0.00		-3.20		1.757e-02		-49.317		3.766e-03		9.954
6		0.00		-3.60		1.795e-02		-48.759		2.953e-03		8.408
6		0.00		-4.00		1.689e-02		-46.661		3.129e-03		9.340
6		0.00		-4.40		1.560e-02		-48.687		3.506e-03		8.953
6		0.00		-4.80		1.485e-02		-49.719		2.972e-03		8.548
6		0.00		-5.20		1.497e-02		-45.941		2.568e-03		9.788
6		0.00		-5.60		1.340e-02		-46.952		2.792e-03		10.281
6		0.00		-6.00		1.167e-02		-46.664		2.741e-03		10.767
6		0.00		-6.40		1.098e-02		-45.888		2.123e-03		9.528
6		0.00		-6.80		9.552e-03		-46.309		1.941e-03		11.452
6		0.00		-7.20		7.920e-03		-42.538		1.862e-03		13.722
6		0.00		-7.60		6.536e-03		-41.708		1.792e-03		17.157
6		0.00		-8.00		4.785e-03		-44.920		1.422e-03		24.175
6		0.00		-8.40		3.413e-03		-43.452		1.137e-03		27.086
6		0.00		-8.80		2.446e-03		-20.220		9.554e-04		51.965
6		0.00		-9.20		1.861e-03		37.815		8.245e-04		63.263
6		0.00		-9.60		2.734e-03		81.580		1.050e-03		48.149
6		0.00		-10.00		4.060e-03		104.317		1.399e-03		33.873
6		0.00		-9.60		5.137e-03		111.460		1.737e-03		32.007
6		0.00		-9.20		5.905e-03		113.940		1.727e-03		15.596
6		0.00		-8.80		6.644e-03		122.792		1.714e-03		16.223
6		0.00		-8.40		6.615e-03		117.547		1.790e-03		17.442
6		0.00		-8.00		6.559e-03		117.252		1.917e-03		20.998
6		0.00		-7.60		6.930e-03		117.784		1.840e-03		13.865
6		0.00		-7.20		6.710e-03		123.243		1.669e-03		13.151
6		0.00		-6.80		6.817e-03		117.150		1.822e-03		16.919
6		0.00		-6.40		6.473e-03		114.078		1.987e-03		23.726
6		0.00		-6.00		6.298e-03		116.922		1.882e-03		15.443
6		0.00		-5.60		6.275e-03		117.934		1.408e-03		15.539
6		0.00		-5.20		6.421e-03		117.634		1.652e-03		22.461
6		0.00		-4.80		6.100e-03		117.318		1.737e-03		18.138
6		0.00		-4.40		6.238e-03		115.049		1.576e-03		14.928
6		0.00		-4.00		5.977e-03		118.319		1.561e-03		15.746
6		0.00		-3.60		6.288e-03		122.716		1.526e-03		17.329
6		0.00		-3.20		5.662e-03		117.313		1.516e-03		20.098
6		0.00		-2.80		5.860e-03		118.348		1.404e-03		15.404
6		0.00		-2.40		5.553e-03		119.506		1.244e-03		15.622
6		0.00		-2.00		6.031e-03		121.148		1.457e-03		20.534
6		0.00		-1.60		5.631e-03		114.745		1.657e-03		28.199
6		0.00		-1.20		5.532e-03		114.324		1.397e-03		19.510
6		0.00		-0.80		5.787e-03		119.735		1.584e-03		23.300
6		0.00		-0.40		5.611e-03		123.395		1.460e-03		13.433
7		0.00		0.00		5.442e-03		115.984		1.653e-03		28.565
7		0.00		0.40		5.140e-03		117.682		1.502e-03		18.006
7		0.00		0.80		5.117e-03		118.031		1.459e-03		17.427
7		0.00		1.20		5.004e-03		114.158		1.324e-03		16.753
7		0.00		1.60		4.574e-03		106.625		1.350e-03		31.509
7		0.00		2.00		4.136e-03		108.866		1.186e-03		20.759
7		0.00		2.40		3.497e-03		104.831		1.290e-03		30.244
7		0.00		2.80		3.276e-03		100.162		1.136e-03		47.086
7		0.00		3.20		2.553e-03		98.031		9.398e-04		38.421
7		0.00		3.60		2.622e-03		73.468		1.110e-03		56.077
7		0.00		4.00		1.685e-03		24.856		7.488e-04		68.568
7		0.00		4.40		1.811e-03		0.727		6.678e-04		62.523
7		0.00		4.80		2.207e-03		-46.221		8.259e-04		49.160
7		0.00		5.20		2.419e-03		-49.789		1.067e-03		48.911
7		0.00		5.60		3.591e-03		-41.725		1.215e-03		25.322
7		0.00		6.00		4.319e-03		-51.300		1.255e-03		25.064
7		0.00		6.40		5.419e-03		-47.133		1.255e-03		17.596
7		0.00		6.80		6.525e-03		-44.772		1.586e-03		13.618
7		0.00		7.20		7.009e-03		-48.242		1.693e-03		18.310
7		0.00		7.60		7.957e-03		-44.864		1.821e-03		15.935
7		0.00		8.00		9.590e-03		-53.983		1.903e-03		12.829
7		0.00		8.40		1.119e-02		-46.188		1.935e-03		10.519
7		0.00		8.80		1.205e-02		-47.870		2.444e-03		11.826
7		0.00		9.20		1.341e-02		-50.449		3.417e-03		15.030
7		0.00		9.60		1.580e-02		-49.758		3.739e-03		9.193
7		0.00		10.00		1.884e-02		-50.766		3.520e-03		8.729
7		0.00		9.60		2.048e-02		-51.043		3.784e-03		7.628
7		0.00		9.20		2.094e-02		-51.685		4.404e-03		8.293
7		0.00		8.80		2.092e-02		-50.909		5.259e-03		11.105
7		0.00		8.40		2.122e-02		-51.778		4.846e-03		10.255
7		0.00		8.00		2.190e-02		-51.850		4.013e-03		7.586
7		0.00		7.60		2.179e-02		-50.878		4.111e-03		9.028
7		0.00		7.20		2.151e-02		-49.769		4.396e-03		9.354
7		0.00		6.80		2.136e-02		-48.051		4.967e-03		8.842
7		0.00		6.40		2.191e-02		-51.668		4.685e-03		9.587
7		0.00		6.00		2.196e-02		-51.205		3.498e-03		7.560
7		0.00		5.60		2.247e-02		-49.756		3.459e-03		7.288
7		0.00		5.20		2.185e-02		-49.305		4.211e-03		9.220
7		0.00		4.80		2.119e-02		-50.398		4.864e-03		10.978
7		0.00		4.40		2.141e-02		-49.992		4.474e-03		7.943
7		0.00		4.00		2.076e-02		-49.612		3.453e-03		9.802
7		0.00		3.60		2.123e-02		-47.163		3.271e-03		7.963
7		0.00		3.20		2.101e-02		-48.788		3.789e-03		8.894
7		0.00		2.80		2.023e-02		-50.793		4.752e-03		10.129
7		0.00		2.40		2.023e-02		-49.682		4.490e-03		9.259
7		0.00		2.00		2.074e-02		-50.189		3.317e-03		7.634
7		0.00		1.60		2.095e-02		-49.895		3.443e-03		7.373
7		0.00		1.20		2.071e-02		-46.267		3.723e-03		8.356
7		0.00		0.80		1.988e-02		-48.817		4.397e-03		8.848
7		0.00		0.40		1.968e-02		-52.978		4.696e-03		9.424
7		0.00		0.00		2.022e-02		-52.108		3.730e-03		7.664
7		0.00		-0.40		2.024e-02		-49.308		3.208e-03		7.780
7		0.00		-0.80		1.952e-02		-46.455		3.438e-03		8.862
7		0.00		-1.20		1.888e-02		-49.379		4.251e-03		9.025
7		0.00		-1.60		1.872e-02		-47.911		4.068e-03		10.540
7		0.00		-2.00		1.871e-02		-47.937		3.682e-03		9.174
7		0.00		-2.40		1.867e-02		-49.163		2.751e-03		8.342
7		0.00		-2.80		1.817e-02		-48.502		3.162e-03		9.285
7		0.00		-3.20		1.762e-02		-50.291		3.773e-03		10.148
7		0.00		-3.60		1.670e-02		-49.041		3.867e-03		12.045
7		0.00		-4.00		1.638e-02		-50.790		3.320e-03		10.079
7		0.00		-4.40		1.592e-02		-47.165		2.721e-03		8.825
7		0.00		-4.80		1.498e-02		-46.739		2.390e-03		9.459
7		0.00		-5.20		1.411e-02		-48.498		2.901e-03		10.443
7		0.00		-5.60		1.273e-02		-50.446		2.949e-03		12.671
7		0.00		-6.00		1.192e-02		-49.664		3.096e-03		10.391
7		0.00		-6.40		1.097e-02		-52.750		2.280e-03		12.403
7		0.00		-6.80		9.524e-03		-49.022		1.998e-03		11.102
7		0.00		-7.20		7.944e-03		-47.078		1.772e-03		14.607
7		0.00		-7.60		6.274e-03		-42.234		1.795e-03		20.392
7		0.00		-8.00		5.221e-03		-42.713		1.754e-03		24.619
7		0.00		-8.40		3.503e-03		-47.447		1.204e-03		30.094
7		0.00		-8.80		2.280e-03		-39.078		9.392e-04		47.425
7		0.00		-9.20		2.092e-03		0.536		9.472e-04		63.251
7		0.00		-9.60		2.440e-03		72.677		1.049e-03		64.930
7		0.00		-10.00		3.724e-03		100.861		1.197e-03		42.702
7		0.00		-9.60		4.490e-03		111.129		1.463e-03		27.040
7		0.00		-9.20		5.444e-03		113.518		1.443e-03		20.112
7		0.00		-8.80		5.612e-03		118.885		1.446e-03		13.599
7		0.00		-8.40		5.595e-03		116.172		1.635e-03		19.903
7		0.00		-8.00		5.982e-03		116.677		1.878e-03		24.874
7		0.00		-7.60		5.913e-03		119.556		1.577e-03		18.131
7		0.00		-7.20		5.916e-03		121.690		1.575e-03		15.142
7		0.00		-6.80		6.348e-03		121.055		1.478e-03		15.910
7		0.00		-6.40		5.917e-03		118.381		1.849e-03		17.727
7		0.00		-6.00		5.544e-03		113.855		1.774e-03		21.884
7		0.00		-5.60		5.377e-03		118.366		1.609e-03		18.734
7		0.00		-5.20		5.451e-03		117.603		1.469e-03		18.213
7		0.00		-4.80		4.810e-03		122.805		1.438e-03		20.799
7		0.00		-4.40		5.299e-03		114.658		1.287e-03		16.783
7		0.00		-4.00		4.915e-03		122.138		1.386e-03		17.604
7		0.00		-3.60		4.878e-03		113.116		1.455e-03		23.121
7		0.00		-3.20		5.122e-03		114.351		1.551e-03		29.267
7		0.00		-2.80		4.810e-03		116.616		1.346e-03		21.648
7		0.00		-2.40		5.081e-03		119.219		1.230e-03		19.419
7		0.00		-2.00		5.371e-03		118.464		1.469e-03		16.694
7		0.00		-1.60		4.902e-03		113.285		1.651e-03		36.427
7		0.00		-1.20		5.055e-03		112.825		1.594e-03		26.939
7		0.00		-0.80		4.886e-03		114.046		1.450e-03		20.936
7		0.00		-0.40		4.539e-03		122.229		1.353e-03		17.992
8		0.00		0.00		4.799e-03		116.861		1.392e-03		18.125
8		0.00		0.40		4.479e-03		115.416		1.364e-03		24.958
8		0.00		0.80		4.394e-03		107.362		1.287e-03		21.330
8		0.00		1.20		4.193e-03		113.701		1.452e-03		23.766
8		0.00		1.60		4.255e-03		115.263		1.267e-03		20.974
8		0.00		2.00		3.851e-03		109.508		1.227e-03		30.435
8		0.00		2.40		3.489e-03		93.610		1.169e-03		47.759
8		0.00		2.80		3.000e-03		81.984		1.195e-03		47.898
8		0.00		3.20		2.550e-03		84.705		1.005e-03		42.509
8		0.00		3.60		2.086e-03		51.228		8.637e-04		61.219
8		0.00		4.00		1.801e-03		-1.774		7.308e-04		59.877
8		0.00		4.40		2.005e-03		-28.021		8.900e-04		60.103
8		0.00		4.80		2.432e-03		-42.922		1.098e-03		40.017
8		0.00		5.20		3.255e-03		-41.828		1.142e-03		28.131
8		0.00		5.60		4.353e-03		-51.929		1.216e-03		17.684
8		0.00		6.00		4.793e-03		-47.636		1.431e-03		17.241
8		0.00		6.40		5.411e-03		-49.394		1.536e-03		14.552
8		0.00		6.80		6.128e-03		-47.703		1.838e-03		16.926
8		0.00		7.20		7.500e-03		-48.897		1.839e-03		12.500
8		0.00		7.60		8.541e-03		-54.033		1.838e-03		12.239
8		0.00		8.00		9.867e-03		-49.301		1.819e-03		13.269
8		0.00		8.40		1.113e-02		-49.203		2.418e-03		13.668
8		0.00		8.80		1.254e-02		-52.438		2.590e-03		12.793
8		0.00		9.20		1.448e-02		-49.268		2.369e-03		10.122
8		0.00		9.60		1.707e-02		-50.957		2.645e-03		10.989
8		0.00		10.00		1.893e-02		-48.804		3.106e-03		8.909
8		0.00		9.60		1.989e-02		-51.940		4.314e-03		11.066
8		0.00		9.20		2.079e-02		-52.510		4.376e-03		10.028
8		0.00		8.80		2.162e-02		-52.377		3.833e-03		9.306
8		0.00		8.40		2.210e-02		-48.741		3.689e-03		8.738
8		0.00		8.00		2.119e-02		-49.839		4.371e-03		11.083
8		0.00		7.60		2.124e-02		-53.256		4.956e-03		12.405
8		0.00		7.20		2.173e-02		-51.304		4.600e-03		8.124
8		0.00		6.80		2.197e-02		-48.387		3.355e-03		6.768
8		0.00		6.40		2.196e-02		-49.380		3.351e-03		7.852
8		0.00		6.00		2.170e-02		-49.719		3.916e-03		9.091
8		0.00		5.60		2.092e-02		-50.675		4.822e-03		10.314
8		0.00		5.20		2.096e-02		-51.320		4.390e-03		9.361
8		0.00		4.80		2.154e-02		-48.713		3.313e-03		7.887
8		0.00		4.40		2.101e-02		-48.118		3.285e-03		7.033
8		0.00		4.00		2.019e-02		-48.397		4.015e-03		8.713
8		0.00		3.60		2.011e-02		-48.818		4.311e-03		10.183
8		0.00		3.20		2.026e-02		-50.268		4.047e-03		8.155
8		0.00		2.80		2.071e-02		-50.532		3.169e-03		7.367
8		0.00		2.40		2.054e-02		-49.203		3.251e-03		7.215
8		0.00		2.00		1.993e-02		-48.559		3.859e-03		8.439
8		0.00		1.60		1.950e-02		-49.772		4.182e-03		10.263
8		0.00		1.20		1.991e-02		-49.432		3.521e-03		9.511
8		0.00		0.80		2.039e-02		-50.691		3.086e-03		8.977
8		0.00		0.40		1.979e-02		-48.633		3.128e-03		8.236
8		0.00		0.00		1.967e-02		-49.755		3.930e-03		10.454
8		0.00		-0.40		1.930e-02		-49.447		4.467e-03		8.811
8		0.00		-0.80		1.963e-02		-49.646		4.005e-03		8.734
8		0.00		-1.20		1.954e-02		-51.298		3.843e-03		8.715
8		0.00		-1.60		1.843e-02		-45.108		3.493e-03		8.335
8		0.00		-2.00		1.847e-02		-50.746		4.257e-03		9.524
8		0.00		-2.40		1.758e-02		-50.113		4.492e-03		11.222
8		0.00		-2.80		1.759e-02		-47.898		3.676e-03		8.354
8		0.00		-3.20		1.798e-02		-50.991		2.949e-03		8.442
8		0.00		-3.60		1.665e-02		-48.187		3.302e-03		9.262
8		0.00		-4.00		1.568e-02		-50.316		3.552e-03		12.223
8		0.00		-4.40		1.519e-02		-49.276		3.858e-03		11.192
8		0.00		-4.80		1.514e-02		-50.648		3.331e-03		9.690
8		0.00		-5.20		1.461e-02		-48.948		2.532e-03		9.421
8		0.00		-5.60		1.346e-02		-50.868		2.725e-03		10.104
8		0.00		-6.00		1.197e-02		-46.953		2.600e-03		12.688
8		0.00		-6.40		1.036e-02		-48.091		2.506e-03		13.815
8		0.00		-6.80		9.541e-03		-46.536		1.942e-03		12.809
8		0.00		-7.20		8.385e-03		-48.408		1.579e-03		14.647
8		0.00		-7.60		6.317e-03		-52.826		1.472e-03		16.487
8		0.00		-8.00		4.375e-03		-49.515		1.448e-03		26.586
8		0.00		-8.40		3.029e-03		-27.402		1.114e-03		36.672
8		0.00		-8.80		2.079e-03		-1.289		7.491e-04		53.951
8		0.00		-9.20		2.149e-03		54.579		8.554e-04		64.563
8		0.00		-9.60		2.922e-03		92.805		1.141e-03		43.379
8		0.00		-10.00		4.552e-03		108.059		1.348e-03		27.790
8		0.00		-9.60		5.513e-03		110.862		1.487e-03		24.089
8		0.00		-9.20		6.069e-03		114.888		1.676e-03		16.890
8		0.00		-8.80		7.016e-03		122.101		1.412e-03		11.664
8		0.00		-8.40		6.926e-03		120.980		1.508e-03		12.050
8		0.00		-8.00		6.589e-03		119.902		1.799e-03		20.207
8		0.00		-7.60		6.956e-03		117.302		1.974e-03		20.277
8		0.00		-7.20		6.992e-03		116.059		1.701e-03		13.324
8		0.00		-6.80		6.739e-03		119.181		1.560e-03		18.862
8		0.00		-6.40		6.492e-03		114.885		1.598e-03		15.712
8		0.00		-6.00		6.384e-03		121.740		1.860e-03		20.327
8		0.00		-5.60		6.061e-03		113.964		1.649e-03		18.057
8		0.00		-5.20		5.799e-03		117.603		1.678e-03		19.761
8		0.00		-4.80		6.128e-03		118.033		1.495e-03		15.062
8		0.00		-4.40		6.075e-03		117.364		1.513e-03		16.232
8		0.00		-4.00		5.841e-03		123.573		1.497e-03		26.065
8		0.00		-3.60		5.744e-03		123.145		1.508e-03		20.132
8		0.00		-3.20		5.890e-03		125.362		1.398e-03		16.187
8		0.00		-2.80		5.718e-03		113.113		1.496e-03		16.080
8		0.00		-2.40		5.527e-03		120.314		1.525e-03		23.847
8		0.00		-2.00		5.794e-03		117.974		1.676e-03		17.336
8		0.00		-1.60		5.513e-03		123.500		1.608e-03		18.504
8		0.00		-1.20		5.541e-03		119.810		1.633e-03		20.512
8		0.00		-0.80		5.597e-03		118.153		1.489e-03		17.676
8		0.00		-0.40		5.375e-03		121.365		1.430e-03		18.240
