# Date of analysis: 2023-11-20 16;16
# 
# Loop index	Read Volt (V)	Write Volt (V)	Amplitude (a.u)	Phase (deg)	Sigma Amp (a.u)	Sigma Pha (deg)	
1		0.00		0.00		1.494e-02		-46.501		3.063e-03		9.275
1		0.00		0.40		1.432e-02		-49.058		3.330e-03		10.411
1		0.00		0.80		1.452e-02		-45.693		2.960e-03		11.763
1		0.00		1.20		1.501e-02		-46.707		3.017e-03		11.771
1		0.00		1.60		1.446e-02		-49.096		3.009e-03		11.960
1		0.00		2.00		1.477e-02		-47.428		3.259e-03		12.679
1		0.00		2.40		1.447e-02		-49.583		3.671e-03		15.325
1		0.00		2.80		1.451e-02		-45.573		3.622e-03		11.613
1		0.00		3.20		1.545e-02		-47.165		3.155e-03		11.012
1		0.00		3.60		1.586e-02		-48.609		2.915e-03		10.663
1		0.00		4.00		1.591e-02		-47.087		3.280e-03		12.595
1		0.00		4.40		1.649e-02		-46.558		3.461e-03		12.093
1		0.00		4.80		1.652e-02		-46.964		3.582e-03		11.688
1		0.00		5.20		1.739e-02		-51.121		3.688e-03		10.801
1		0.00		5.60		1.836e-02		-49.399		3.238e-03		10.271
1		0.00		6.00		1.951e-02		-50.284		3.332e-03		8.933
1		0.00		6.40		2.023e-02		-48.774		3.702e-03		9.392
1		0.00		6.80		2.098e-02		-48.814		4.035e-03		9.080
1		0.00		7.20		2.139e-02		-48.933		4.361e-03		8.660
1		0.00		7.60		2.216e-02		-48.379		4.300e-03		9.381
1		0.00		8.00		2.391e-02		-48.874		3.821e-03		8.641
1		0.00		8.40		2.478e-02		-49.339		3.807e-03		8.312
1		0.00		8.80		2.510e-02		-48.972		4.255e-03		8.464
1		0.00		9.20		2.570e-02		-51.006		4.977e-03		8.517
1		0.00		9.60		2.626e-02		-51.329		5.742e-03		9.952
1		0.00		10.00		2.723e-02		-51.628		5.553e-03		8.917
1		0.00		9.60		2.826e-02		-50.526		4.390e-03		7.721
1		0.00		9.20		2.954e-02		-50.446		4.460e-03		7.799
1		0.00		8.80		2.961e-02		-50.838		4.481e-03		7.082
1		0.00		8.40		2.933e-02		-51.204		5.316e-03		8.692
1		0.00		8.00		2.858e-02		-49.723		6.301e-03		8.498
1		0.00		7.60		2.859e-02		-51.031		5.952e-03		9.205
1		0.00		7.20		2.843e-02		-50.800		5.246e-03		9.364
1		0.00		6.80		2.857e-02		-52.656		4.473e-03		7.759
1		0.00		6.40		2.768e-02		-48.731		4.615e-03		7.974
1		0.00		6.00		2.720e-02		-49.956		5.111e-03		7.882
1		0.00		5.60		2.690e-02		-49.759		5.467e-03		10.056
1		0.00		5.20		2.628e-02		-51.713		5.651e-03		9.458
1		0.00		4.80		2.670e-02		-50.407		5.329e-03		8.290
1		0.00		4.40		2.655e-02		-50.358		4.840e-03		9.107
1		0.00		4.00		2.645e-02		-50.791		4.572e-03		9.067
1		0.00		3.60		2.599e-02		-49.289		4.609e-03		8.983
1		0.00		3.20		2.580e-02		-49.867		4.913e-03		9.422
1		0.00		2.80		2.548e-02		-50.924		5.635e-03		8.986
1		0.00		2.40		2.544e-02		-51.807		5.547e-03		9.770
1		0.00		2.00		2.561e-02		-49.238		4.753e-03		8.880
1		0.00		1.60		2.623e-02		-50.124		4.776e-03		8.257
1		0.00		1.20		2.512e-02		-51.000		5.260e-03		9.493
1		0.00		0.80		2.559e-02		-50.015		5.477e-03		9.863
1		0.00		0.40		2.431e-02		-51.798		6.229e-03		12.546
1		0.00		0.00		2.446e-02		-49.587		6.190e-03		9.826
1		0.00		-0.40		2.456e-02		-50.083		5.236e-03		9.100
1		0.00		-0.80		2.434e-02		-50.004		4.967e-03		9.695
1		0.00		-1.20		2.501e-02		-49.402		5.123e-03		9.443
1		0.00		-1.60		2.368e-02		-47.833		4.758e-03		8.493
1		0.00		-2.00		2.393e-02		-48.926		5.106e-03		10.613
1		0.00		-2.40		2.334e-02		-49.568		5.108e-03		9.788
1		0.00		-2.80		2.301e-02		-50.652		4.130e-03		8.336
1		0.00		-3.20		2.259e-02		-50.144		3.665e-03		8.841
1		0.00		-3.60		2.246e-02		-48.994		3.768e-03		9.503
1		0.00		-4.00		2.204e-02		-49.298		4.089e-03		8.847
1		0.00		-4.40		2.081e-02		-50.218		4.281e-03		11.347
1		0.00		-4.80		1.986e-02		-47.887		4.442e-03		10.188
1		0.00		-5.20		1.941e-02		-49.845		3.552e-03		10.868
1		0.00		-5.60		1.879e-02		-48.858		2.945e-03		9.354
1		0.00		-6.00		1.877e-02		-50.414		2.918e-03		8.969
1		0.00		-6.40		1.782e-02		-46.553		3.412e-03		9.581
1		0.00		-6.80		1.647e-02		-48.173		3.565e-03		10.097
1		0.00		-7.20		1.581e-02		-49.153		3.651e-03		8.820
1		0.00		-7.60		1.492e-02		-47.842		3.038e-03		8.860
1		0.00		-8.00		1.377e-02		-47.253		2.416e-03		10.424
1		0.00		-8.40		1.283e-02		-45.568		2.307e-03		11.779
1		0.00		-8.80		1.085e-02		-44.888		1.964e-03		12.329
1		0.00		-9.20		9.117e-03		-39.649		1.868e-03		13.107
1		0.00		-9.60		7.567e-03		-40.617		1.833e-03		14.005
1		0.00		-10.00		6.282e-03		-36.858		1.756e-03		18.468
1		0.00		-9.60		4.833e-03		-31.846		1.359e-03		19.739
1		0.00		-9.20		5.307e-03		-41.597		1.514e-03		20.246
1		0.00		-8.80		4.299e-03		-56.803		1.206e-03		26.820
1		0.00		-8.40		4.180e-03		-44.792		1.312e-03		24.308
1		0.00		-8.00		4.011e-03		-25.533		1.390e-03		29.009
1		0.00		-7.60		4.038e-03		-22.326		1.262e-03		21.117
1		0.00		-7.20		4.069e-03		-24.750		1.274e-03		25.132
1		0.00		-6.80		4.000e-03		-15.031		1.541e-03		29.440
1		0.00		-6.40		4.177e-03		-30.954		1.244e-03		27.445
1		0.00		-6.00		3.965e-03		-41.373		1.333e-03		27.119
1		0.00		-5.60		3.995e-03		-33.457		1.267e-03		27.805
1		0.00		-5.20		4.228e-03		-29.537		1.434e-03		23.300
1		0.00		-4.80		4.459e-03		-41.637		1.336e-03		23.779
1		0.00		-4.40		4.138e-03		-41.935		1.421e-03		24.212
1		0.00		-4.00		4.051e-03		-43.540		1.519e-03		22.483
1		0.00		-3.60		4.350e-03		-41.517		1.605e-03		20.660
1		0.00		-3.20		4.289e-03		-37.996		1.335e-03		22.981
1		0.00		-2.80		4.390e-03		-36.362		1.459e-03		20.002
1		0.00		-2.40		4.137e-03		-41.126		1.387e-03		28.867
1		0.00		-2.00		4.534e-03		-37.372		1.458e-03		20.136
1		0.00		-1.60		3.970e-03		-30.130		1.360e-03		24.602
1		0.00		-1.20		4.218e-03		-33.202		1.414e-03		26.460
1		0.00		-0.80		4.238e-03		-45.826		1.357e-03		22.582
1		0.00		-0.40		4.064e-03		-37.805		1.346e-03		24.872
2		0.00		0.00		3.903e-03		-23.112		1.181e-03		27.950
2		0.00		0.40		4.194e-03		-33.440		1.094e-03		23.751
2		0.00		0.80		4.019e-03		-31.582		1.260e-03		26.655
2		0.00		1.20		4.377e-03		-23.686		1.385e-03		20.487
2		0.00		1.60		4.104e-03		-29.762		1.492e-03		28.329
2		0.00		2.00		4.640e-03		-39.342		1.503e-03		20.682
2		0.00		2.40		4.621e-03		-24.503		1.340e-03		23.036
2		0.00		2.80		4.870e-03		-45.262		1.231e-03		20.648
2		0.00		3.20		5.568e-03		-49.316		1.559e-03		17.265
2		0.00		3.60		5.661e-03		-35.960		1.640e-03		21.357
2		0.00		4.00		6.589e-03		-38.502		1.731e-03		19.708
2		0.00		4.40		7.927e-03		-44.604		1.687e-03		15.283
2		0.00		4.80		9.030e-03		-44.741		1.730e-03		14.839
2		0.00		5.20		9.524e-03		-49.747		2.316e-03		12.887
2		0.00		5.60		9.976e-03		-44.049		2.485e-03		12.104
2		0.00		6.00		1.085e-02		-47.870		2.743e-03		15.572
2		0.00		6.40		1.195e-02		-48.784		2.330e-03		14.204
2		0.00		6.80		1.272e-02		-50.793		2.230e-03		8.940
2		0.00		7.20		1.297e-02		-46.912		2.356e-03		10.512
2		0.00		7.60		1.352e-02		-44.674		2.757e-03		11.042
2		0.00		8.00		1.455e-02		-49.900		3.344e-03		9.215
2		0.00		8.40		1.560e-02		-46.266		3.314e-03		12.076
2		0.00		8.80		1.794e-02		-47.557		3.029e-03		7.815
2		0.00		9.20		1.903e-02		-48.209		3.243e-03		12.030
2		0.00		9.60		2.115e-02		-50.220		4.262e-03		9.126
2		0.00		10.00		2.263e-02		-49.547		4.591e-03		8.280
2		0.00		9.60		2.338e-02		-49.778		4.464e-03		9.636
2		0.00		9.20		2.435e-02		-51.764		4.068e-03		8.135
2		0.00		8.80		2.550e-02		-50.923		4.140e-03		8.802
2		0.00		8.40		2.573e-02		-48.630		4.756e-03		8.962
2		0.00		8.00		2.506e-02		-50.408		5.575e-03		12.286
2		0.00		7.60		2.469e-02		-50.428		6.018e-03		9.787
2		0.00		7.20		2.482e-02		-50.942		5.400e-03		10.342
2		0.00		6.80		2.533e-02		-51.557		4.599e-03		9.969
2		0.00		6.40		2.593e-02		-49.498		4.632e-03		7.293
2		0.00		6.00		2.438e-02		-51.416		5.245e-03		9.314
2		0.00		5.60		2.487e-02		-49.637		6.009e-03		12.526
2		0.00		5.20		2.397e-02		-49.985		5.890e-03		10.003
2		0.00		4.80		2.418e-02		-52.102		5.240e-03		9.692
2		0.00		4.40		2.441e-02		-50.461		5.045e-03		8.849
2		0.00		4.00		2.383e-02		-51.610		4.780e-03		9.829
2		0.00		3.60		2.387e-02		-49.996		4.652e-03		10.236
2		0.00		3.20		2.322e-02		-49.539		5.165e-03		11.642
2		0.00		2.80		2.355e-02		-49.373		4.923e-03		10.435
2		0.00		2.40		2.408e-02		-48.803		3.997e-03		8.254
2		0.00		2.00		2.401e-02		-50.479		4.113e-03		9.269
2		0.00		1.60		2.376e-02		-49.508		4.513e-03		8.360
2		0.00		1.20		2.351e-02		-50.134		4.833e-03		9.971
2		0.00		0.80		2.351e-02		-48.949		4.966e-03		8.262
2		0.00		0.40		2.397e-02		-49.973		4.367e-03		8.466
2		0.00		0.00		2.406e-02		-50.788		3.671e-03		9.988
2		0.00		-0.40		2.406e-02		-47.181		3.970e-03		8.173
2		0.00		-0.80		2.396e-02		-50.513		4.381e-03		9.492
2		0.00		-1.20		2.263e-02		-49.906		4.881e-03		9.941
2		0.00		-1.60		2.250e-02		-48.728		4.748e-03		9.648
2		0.00		-2.00		2.279e-02		-48.084		3.692e-03		10.144
2		0.00		-2.40		2.311e-02		-48.684		3.534e-03		9.112
2		0.00		-2.80		2.246e-02		-47.246		3.765e-03		7.472
2		0.00		-3.20		2.131e-02		-48.229		4.166e-03		9.601
2		0.00		-3.60		2.047e-02		-48.313		4.537e-03		7.861
2		0.00		-4.00		2.022e-02		-46.913		3.826e-03		7.928
2		0.00		-4.40		2.009e-02		-47.092		3.125e-03		8.410
2		0.00		-4.80		1.922e-02		-50.811		3.254e-03		9.076
2		0.00		-5.20		1.821e-02		-47.188		3.344e-03		9.705
2		0.00		-5.60		1.764e-02		-44.843		3.528e-03		9.086
2		0.00		-6.00		1.649e-02		-46.371		3.226e-03		9.429
2		0.00		-6.40		1.556e-02		-47.584		2.474e-03		10.100
2		0.00		-6.80		1.516e-02		-45.610		2.460e-03		10.836
2		0.00		-7.20		1.400e-02		-40.512		2.621e-03		11.077
2		0.00		-7.60		1.239e-02		-45.405		2.454e-03		9.619
2		0.00		-8.00		1.074e-02		-44.674		2.542e-03		13.530
2		0.00		-8.40		1.002e-02		-39.235		2.167e-03		12.760
2		0.00		-8.80		9.365e-03		-42.622		1.741e-03		13.428
2		0.00		-9.20		7.858e-03		-40.129		1.780e-03		14.996
2		0.00		-9.60		6.922e-03		-39.266		1.616e-03		14.879
2		0.00		-10.00		5.088e-03		-41.467		1.532e-03		26.664
2		0.00		-9.60		4.536e-03		-41.897		1.455e-03		27.713
2		0.00		-9.20		3.740e-03		-16.282		1.152e-03		26.467
2		0.00		-8.80		3.542e-03		-28.367		1.245e-03		29.449
2		0.00		-8.40		3.310e-03		-31.218		1.382e-03		29.296
2		0.00		-8.00		3.499e-03		-21.176		1.059e-03		31.296
2		0.00		-7.60		3.242e-03		-28.705		1.009e-03		29.746
2		0.00		-7.20		2.764e-03		-16.692		1.169e-03		32.055
2		0.00		-6.80		3.503e-03		-26.978		1.217e-03		36.546
2		0.00		-6.40		3.027e-03		-38.552		1.233e-03		33.112
2		0.00		-6.00		2.994e-03		-19.895		1.134e-03		41.064
2		0.00		-5.60		2.872e-03		-31.021		1.138e-03		41.146
2		0.00		-5.20		3.117e-03		-38.204		1.162e-03		31.248
2		0.00		-4.80		3.209e-03		-29.207		1.140e-03		27.000
2		0.00		-4.40		3.248e-03		-36.927		1.167e-03		27.810
2		0.00		-4.00		2.887e-03		-22.792		1.039e-03		33.142
2		0.00		-3.60		3.178e-03		-33.067		1.103e-03		29.023
2		0.00		-3.20		3.033e-03		-40.642		1.046e-03		35.810
2		0.00		-2.80		3.379e-03		-37.305		1.260e-03		36.847
2		0.00		-2.40		2.828e-03		-28.306		1.128e-03		35.412
2		0.00		-2.00		3.299e-03		-21.529		1.058e-03		35.472
2		0.00		-1.60		3.473e-03		-27.572		1.142e-03		31.193
2		0.00		-1.20		3.131e-03		-35.754		9.887e-04		33.657
2		0.00		-0.80		3.209e-03		-23.358		1.228e-03		30.173
2		0.00		-0.40		3.035e-03		-26.445		1.063e-03		38.471
3		0.00		0.00		3.035e-03		-26.308		1.234e-03		30.429
3		0.00		0.40		2.843e-03		-48.019		1.008e-03		32.223
3		0.00		0.80		2.937e-03		-36.448		1.205e-03		36.447
3		0.00		1.20		3.255e-03		-32.468		1.060e-03		30.337
3		0.00		1.60		3.412e-03		-35.950		1.093e-03		33.291
3		0.00		2.00		3.120e-03		-40.123		1.132e-03		28.021
3		0.00		2.40		3.749e-03		-34.326		1.230e-03		23.957
3		0.00		2.80		4.031e-03		-29.351		1.335e-03		26.737
3		0.00		3.20		4.436e-03		-34.824		1.343e-03		21.807
3		0.00		3.60		5.167e-03		-42.786		1.480e-03		22.113
3		0.00		4.00		5.824e-03		-33.945		1.302e-03		17.232
3		0.00		4.40		6.731e-03		-34.308		1.424e-03		14.472
3		0.00		4.80		7.346e-03		-41.715		1.592e-03		16.869
3		0.00		5.20		8.059e-03		-42.537		1.926e-03		15.441
3		0.00		5.60		9.147e-03		-45.407		2.021e-03		17.683
3		0.00		6.00		9.769e-03		-45.686		2.180e-03		12.935
3		0.00		6.40		1.034e-02		-46.163		2.308e-03		13.254
3		0.00		6.80		1.133e-02		-50.734		2.527e-03		12.742
3		0.00		7.20		1.219e-02		-43.834		2.285e-03		11.705
3		0.00		7.60		1.274e-02		-50.231		2.492e-03		11.076
3		0.00		8.00		1.370e-02		-48.566		2.861e-03		11.654
3		0.00		8.40		1.419e-02		-48.298		3.101e-03		11.020
3		0.00		8.80		1.509e-02		-50.156		4.014e-03		11.121
3		0.00		9.20		1.600e-02		-50.870		4.026e-03		10.246
3		0.00		9.60		1.762e-02		-51.128		4.347e-03		11.425
3		0.00		10.00		1.986e-02		-51.447		3.788e-03		9.645
3		0.00		9.60		2.118e-02		-49.597		3.921e-03		10.136
3		0.00		9.20		2.188e-02		-49.348		4.098e-03		9.061
3		0.00		8.80		2.249e-02		-48.855		4.311e-03		8.816
3		0.00		8.40		2.214e-02		-50.366		4.961e-03		11.150
3		0.00		8.00		2.241e-02		-52.100		5.058e-03		10.831
3		0.00		7.60		2.263e-02		-50.537		4.717e-03		9.287
3		0.00		7.20		2.306e-02		-48.106		4.054e-03		8.267
3		0.00		6.80		2.341e-02		-49.002		4.042e-03		8.566
3		0.00		6.40		2.319e-02		-50.140		3.700e-03		7.809
3		0.00		6.00		2.258e-02		-49.222		4.301e-03		9.603
3		0.00		5.60		2.268e-02		-52.300		4.854e-03		11.418
3		0.00		5.20		2.199e-02		-50.844		4.882e-03		10.294
3		0.00		4.80		2.120e-02		-51.322		4.457e-03		10.220
3		0.00		4.40		2.211e-02		-50.973		3.847e-03		9.897
3		0.00		4.00		2.234e-02		-50.789		3.854e-03		9.511
3		0.00		3.60		2.206e-02		-50.720		4.077e-03		8.451
3		0.00		3.20		2.173e-02		-48.304		4.674e-03		9.611
3		0.00		2.80		2.136e-02		-48.364		5.150e-03		8.938
3		0.00		2.40		2.138e-02		-51.270		4.870e-03		10.038
3		0.00		2.00		2.199e-02		-50.885		3.982e-03		8.831
3		0.00		1.60		2.218e-02		-49.155		3.712e-03		9.138
3		0.00		1.20		2.148e-02		-49.341		4.065e-03		8.537
3		0.00		0.80		2.143e-02		-50.181		4.416e-03		9.641
3		0.00		0.40		2.108e-02		-47.869		4.645e-03		9.092
3		0.00		0.00		2.152e-02		-49.767		4.681e-03		9.616
3		0.00		-0.40		2.133e-02		-45.897		3.850e-03		8.924
3		0.00		-0.80		2.148e-02		-50.898		3.679e-03		10.067
3		0.00		-1.20		2.136e-02		-46.159		3.638e-03		8.200
3		0.00		-1.60		2.128e-02		-48.858		4.212e-03		10.000
3		0.00		-2.00		2.025e-02		-49.574		4.410e-03		9.558
3		0.00		-2.40		2.035e-02		-46.585		3.602e-03		8.872
3		0.00		-2.80		2.022e-02		-50.116		3.542e-03		9.532
3		0.00		-3.20		1.931e-02		-48.239		3.183e-03		10.372
3		0.00		-3.60		1.867e-02		-48.112		3.875e-03		9.685
3		0.00		-4.00		1.763e-02		-50.428		4.299e-03		13.715
3		0.00		-4.40		1.702e-02		-48.093		4.333e-03		10.635
3		0.00		-4.80		1.686e-02		-50.220		3.557e-03		10.146
3		0.00		-5.20		1.631e-02		-49.070		3.030e-03		9.394
3		0.00		-5.60		1.553e-02		-46.233		2.741e-03		9.918
3		0.00		-6.00		1.471e-02		-48.948		3.147e-03		9.341
3		0.00		-6.40		1.412e-02		-48.862		3.389e-03		11.327
3		0.00		-6.80		1.270e-02		-44.782		3.101e-03		10.928
3		0.00		-7.20		1.237e-02		-47.870		2.521e-03		11.346
3		0.00		-7.60		1.178e-02		-41.562		1.995e-03		10.992
3		0.00		-8.00		1.014e-02		-42.064		2.066e-03		12.982
3		0.00		-8.40		9.064e-03		-45.918		1.879e-03		13.155
3		0.00		-8.80		8.311e-03		-44.017		1.955e-03		14.573
3		0.00		-9.20		7.672e-03		-48.488		1.965e-03		17.131
3		0.00		-9.60		6.365e-03		-40.248		1.616e-03		16.292
3		0.00		-10.00		5.064e-03		-30.056		1.349e-03		22.662
3		0.00		-9.60		3.696e-03		-32.831		1.295e-03		22.945
3		0.00		-9.20		3.618e-03		-32.646		1.137e-03		29.036
3		0.00		-8.80		3.510e-03		-19.691		1.146e-03		27.343
3		0.00		-8.40		3.287e-03		-40.710		1.093e-03		27.967
3		0.00		-8.00		2.909e-03		-22.144		1.041e-03		38.798
3		0.00		-7.60		3.059e-03		-25.278		1.126e-03		35.960
3		0.00		-7.20		3.592e-03		-16.252		1.285e-03		22.516
3		0.00		-6.80		3.601e-03		-21.963		1.072e-03		30.202
3		0.00		-6.40		3.378e-03		-35.737		1.132e-03		28.047
3		0.00		-6.00		2.832e-03		-37.092		1.073e-03		38.319
3		0.00		-5.60		3.138e-03		-22.121		1.134e-03		39.056
3		0.00		-5.20		3.250e-03		-25.382		1.123e-03		33.232
3		0.00		-4.80		3.047e-03		-34.624		8.754e-04		35.496
3		0.00		-4.40		2.929e-03		-24.612		1.050e-03		34.749
3		0.00		-4.00		3.037e-03		-29.612		1.174e-03		29.709
3		0.00		-3.60		3.070e-03		-39.092		1.172e-03		31.150
3		0.00		-3.20		3.247e-03		-23.194		1.221e-03		38.134
3		0.00		-2.80		3.431e-03		-17.131		1.075e-03		28.216
3		0.00		-2.40		3.300e-03		-37.920		1.262e-03		31.532
3		0.00		-2.00		3.560e-03		-32.872		1.163e-03		25.335
3		0.00		-1.60		3.042e-03		-15.957		1.087e-03		29.075
3		0.00		-1.20		3.241e-03		-17.924		1.300e-03		35.535
3		0.00		-0.80		3.112e-03		-29.337		1.298e-03		29.528
3		0.00		-0.40		2.995e-03		-32.906		1.187e-03		32.894
4		0.00		0.00		2.949e-03		-5.305		9.409e-04		29.267
4		0.00		0.40		3.423e-03		-28.668		1.155e-03		25.258
4		0.00		0.80		3.034e-03		-40.702		1.182e-03		36.929
4		0.00		1.20		3.053e-03		-16.982		1.225e-03		33.682
4		0.00		1.60		3.039e-03		-43.777		1.197e-03		30.175
4		0.00		2.00		3.194e-03		-36.558		1.072e-03		36.651
4		0.00		2.40		3.311e-03		-27.690		1.203e-03		26.416
4		0.00		2.80		3.887e-03		-39.278		1.168e-03		24.314
4		0.00		3.20		4.296e-03		-47.373		1.397e-03		21.040
4		0.00		3.60		4.529e-03		-30.933		1.505e-03		24.763
4		0.00		4.00		5.115e-03		-39.073		1.514e-03		18.617
4		0.00		4.40		6.080e-03		-45.813		1.508e-03		15.882
4		0.00		4.80		6.418e-03		-45.787		1.563e-03		19.925
4		0.00		5.20		7.284e-03		-42.970		1.632e-03		13.929
4		0.00		5.60		8.476e-03		-44.366		2.243e-03		15.355
4		0.00		6.00		8.854e-03		-42.819		2.012e-03		12.486
4		0.00		6.40		9.772e-03		-47.328		1.851e-03		9.902
4		0.00		6.80		1.043e-02		-48.475		2.016e-03		15.963
4		0.00		7.20		1.162e-02		-49.272		2.379e-03		11.161
4		0.00		7.60		1.231e-02		-52.608		2.722e-03		14.677
4		0.00		8.00		1.292e-02		-47.923		2.753e-03		10.358
4		0.00		8.40		1.395e-02		-50.870		2.726e-03		11.444
4		0.00		8.80		1.567e-02		-49.181		2.542e-03		9.531
4		0.00		9.20		1.619e-02		-49.397		2.934e-03		9.485
4		0.00		9.60		1.779e-02		-49.699		4.002e-03		10.241
4		0.00		10.00		1.930e-02		-51.916		4.446e-03		10.277
4		0.00		9.60		2.001e-02		-51.618		3.766e-03		9.066
4		0.00		9.20		2.189e-02		-50.184		3.412e-03		8.927
4		0.00		8.80		2.145e-02		-50.445		4.030e-03		6.838
4		0.00		8.40		2.156e-02		-51.526		4.597e-03		10.535
4		0.00		8.00		2.130e-02		-51.327		4.615e-03		8.231
4		0.00		7.60		2.183e-02		-50.306		4.148e-03		9.322
4		0.00		7.20		2.246e-02		-50.444		4.127e-03		8.451
4		0.00		6.80		2.175e-02		-49.561		3.881e-03		8.885
4		0.00		6.40		2.127e-02		-49.920		4.335e-03		9.990
4		0.00		6.00		2.117e-02		-49.159		4.755e-03		10.524
4		0.00		5.60		2.150e-02		-49.640		3.959e-03		7.601
4		0.00		5.20		2.232e-02		-50.391		3.246e-03		8.002
4		0.00		4.80		2.149e-02		-47.590		3.780e-03		7.812
4		0.00		4.40		2.139e-02		-48.983		4.193e-03		11.074
4		0.00		4.00		2.123e-02		-48.559		4.164e-03		9.266
4		0.00		3.60		2.132e-02		-49.618		3.932e-03		9.016
4		0.00		3.20		2.201e-02		-50.092		3.503e-03		8.368
4		0.00		2.80		2.200e-02		-48.494		3.531e-03		7.677
4		0.00		2.40		2.156e-02		-51.437		3.885e-03		11.267
4		0.00		2.00		2.087e-02		-49.072		4.715e-03		10.433
4		0.00		1.60		2.121e-02		-49.243		4.988e-03		9.317
4		0.00		1.20		2.155e-02		-49.877		4.014e-03		10.155
4		0.00		0.80		2.187e-02		-50.373		3.923e-03		8.127
4		0.00		0.40		2.146e-02		-50.268		3.712e-03		8.221
4		0.00		0.00		2.094e-02		-50.462		4.727e-03		12.471
4		0.00		-0.40		2.070e-02		-50.433		4.928e-03		12.183
4		0.00		-0.80		2.025e-02		-49.791		4.492e-03		9.237
4		0.00		-1.20		2.055e-02		-49.283		4.009e-03		8.134
4		0.00		-1.60		2.076e-02		-49.175		3.791e-03		9.511
4		0.00		-2.00		2.015e-02		-47.275		3.827e-03		9.620
4		0.00		-2.40		1.938e-02		-46.814		4.042e-03		12.284
4		0.00		-2.80		1.862e-02		-46.652		4.041e-03		10.496
4		0.00		-3.20		1.816e-02		-48.703		3.633e-03		9.807
4		0.00		-3.60		1.772e-02		-49.168		3.086e-03		8.902
4		0.00		-4.00		1.760e-02		-47.090		3.061e-03		9.875
4		0.00		-4.40		1.685e-02		-46.004		3.058e-03		8.722
4		0.00		-4.80		1.622e-02		-51.007		3.479e-03		10.461
4		0.00		-5.20		1.527e-02		-48.508		3.251e-03		10.263
4		0.00		-5.60		1.513e-02		-47.887		2.672e-03		10.765
4		0.00		-6.00		1.474e-02		-45.601		2.290e-03		9.253
4		0.00		-6.40		1.344e-02		-45.915		2.442e-03		11.091
4		0.00		-6.80		1.288e-02		-45.573		2.798e-03		11.136
4		0.00		-7.20		1.194e-02		-44.118		2.694e-03		12.833
4		0.00		-7.60		1.062e-02		-42.494		2.234e-03		11.833
4		0.00		-8.00		1.009e-02		-46.663		1.940e-03		10.991
4		0.00		-8.40		9.203e-03		-46.063		1.698e-03		12.508
4		0.00		-8.80		8.134e-03		-39.726		1.860e-03		15.675
4		0.00		-9.20		7.525e-03		-41.268		1.841e-03		16.153
4		0.00		-9.60		6.179e-03		-38.452		1.575e-03		17.589
4		0.00		-10.00		5.404e-03		-39.395		1.187e-03		18.746
4		0.00		-9.60		4.606e-03		-47.220		1.089e-03		22.760
4		0.00		-9.20		4.167e-03		-34.976		1.314e-03		18.868
4		0.00		-8.80		3.813e-03		-34.294		1.375e-03		28.490
4		0.00		-8.40		3.234e-03		-17.549		1.119e-03		31.573
4		0.00		-8.00		3.097e-03		-32.473		1.095e-03		24.767
4		0.00		-7.60		3.288e-03		-33.017		1.243e-03		28.502
4		0.00		-7.20		3.239e-03		-24.329		1.141e-03		27.409
4		0.00		-6.80		3.549e-03		-26.162		1.207e-03		22.915
4		0.00		-6.40		3.592e-03		-17.876		1.240e-03		26.890
4		0.00		-6.00		3.654e-03		-35.726		1.208e-03		30.050
4		0.00		-5.60		4.215e-03		-20.459		1.493e-03		33.123
4		0.00		-5.20		3.792e-03		-43.772		1.340e-03		28.972
4		0.00		-4.80		3.629e-03		-28.387		1.293e-03		33.869
4		0.00		-4.40		3.884e-03		-31.373		1.301e-03		22.919
4		0.00		-4.00		3.855e-03		-47.612		1.097e-03		25.799
4		0.00		-3.60		3.962e-03		-42.212		1.139e-03		30.234
4		0.00		-3.20		3.543e-03		-41.632		1.206e-03		23.845
4		0.00		-2.80		3.471e-03		-29.373		1.282e-03		31.248
4		0.00		-2.40		3.481e-03		-39.923		1.172e-03		28.718
4		0.00		-2.00		3.317e-03		-14.039		1.104e-03		25.647
4		0.00		-1.60		3.421e-03		-34.742		1.329e-03		26.169
4		0.00		-1.20		3.556e-03		-39.517		1.258e-03		31.544
4		0.00		-0.80		3.436e-03		-22.111		1.063e-03		29.248
4		0.00		-0.40		3.385e-03		-38.488		1.262e-03		28.731
5		0.00		0.00		3.393e-03		-43.544		1.220e-03		28.910
5		0.00		0.40		3.606e-03		-32.516		1.219e-03		27.460
5		0.00		0.80		3.709e-03		-38.370		1.195e-03		27.717
5		0.00		1.20		3.548e-03		-43.128		1.047e-03		28.610
5		0.00		1.60		3.774e-03		-28.387		1.233e-03		27.074
5		0.00		2.00		3.319e-03		-37.959		1.180e-03		28.512
5		0.00		2.40		3.720e-03		-42.156		1.210e-03		29.778
5		0.00		2.80		3.987e-03		-30.767		1.364e-03		23.494
5		0.00		3.20		4.709e-03		-39.912		1.434e-03		22.398
5		0.00		3.60		5.182e-03		-38.985		1.409e-03		19.357
5		0.00		4.00		6.420e-03		-43.287		1.752e-03		20.020
5		0.00		4.40		6.583e-03		-38.040		1.575e-03		16.309
5		0.00		4.80		6.997e-03		-40.724		1.793e-03		19.611
5		0.00		5.20		8.152e-03		-44.227		2.033e-03		14.365
5		0.00		5.60		9.219e-03		-41.488		1.683e-03		13.576
5		0.00		6.00		9.795e-03		-44.748		1.934e-03		12.978
5		0.00		6.40		1.124e-02		-49.791		2.317e-03		12.184
5		0.00		6.80		1.097e-02		-49.348		2.435e-03		14.294
5		0.00		7.20		1.171e-02		-46.238		2.557e-03		11.577
5		0.00		7.60		1.321e-02		-48.449		2.234e-03		12.729
5		0.00		8.00		1.394e-02		-49.741		2.451e-03		9.502
5		0.00		8.40		1.477e-02		-49.653		3.088e-03		10.660
5		0.00		8.80		1.505e-02		-48.645		3.295e-03		10.907
5		0.00		9.20		1.635e-02		-51.749		3.529e-03		10.366
5		0.00		9.60		1.850e-02		-50.130		3.261e-03		8.978
5		0.00		10.00		1.990e-02		-50.560		3.307e-03		9.615
5		0.00		9.60		2.078e-02		-48.803		3.684e-03		9.004
5		0.00		9.20		2.063e-02		-51.302		4.303e-03		10.172
5		0.00		8.80		2.137e-02		-50.978		4.351e-03		9.091
5		0.00		8.40		2.164e-02		-50.475		3.772e-03		7.955
5		0.00		8.00		2.273e-02		-50.079		3.347e-03		8.443
5		0.00		7.60		2.250e-02		-51.278		4.018e-03		8.668
5		0.00		7.20		2.160e-02		-50.518		4.760e-03		10.455
5		0.00		6.80		2.131e-02		-50.096		5.323e-03		10.254
5		0.00		6.40		2.120e-02		-50.933		4.062e-03		8.867
5		0.00		6.00		2.164e-02		-52.048		4.148e-03		8.831
5		0.00		5.60		2.126e-02		-48.957		4.355e-03		9.144
5		0.00		5.20		2.102e-02		-51.015		5.199e-03		11.832
5		0.00		4.80		2.054e-02		-50.425		4.897e-03		9.886
5		0.00		4.40		2.102e-02		-48.689		3.908e-03		9.586
5		0.00		4.00		2.141e-02		-47.406		3.893e-03		8.617
5		0.00		3.60		2.082e-02		-49.070		4.305e-03		9.480
5		0.00		3.20		2.025e-02		-49.195		5.224e-03		9.740
5		0.00		2.80		2.057e-02		-49.703		4.337e-03		10.377
5		0.00		2.40		2.129e-02		-51.985		3.634e-03		9.065
5		0.00		2.00		2.129e-02		-48.478		3.909e-03		10.510
5		0.00		1.60		2.058e-02		-50.368		4.286e-03		11.046
5		0.00		1.20		2.072e-02		-51.118		4.327e-03		9.020
5		0.00		0.80		2.109e-02		-47.676		3.674e-03		8.490
5		0.00		0.40		2.132e-02		-49.955		3.587e-03		8.341
5		0.00		0.00		2.066e-02		-48.802		3.860e-03		10.228
5		0.00		-0.40		2.024e-02		-50.350		4.347e-03		9.691
5		0.00		-0.80		2.063e-02		-50.652		4.005e-03		9.626
5		0.00		-1.20		2.057e-02		-47.523		3.562e-03		8.473
5		0.00		-1.60		2.045e-02		-48.186		3.670e-03		7.084
5		0.00		-2.00		1.947e-02		-47.253		4.226e-03		11.881
5		0.00		-2.40		1.878e-02		-49.799		4.115e-03		11.360
5		0.00		-2.80		1.901e-02		-51.203		3.287e-03		9.249
5		0.00		-3.20		1.881e-02		-47.385		2.900e-03		7.717
5		0.00		-3.60		1.857e-02		-47.493		3.222e-03		8.702
5		0.00		-4.00		1.688e-02		-46.241		3.586e-03		11.646
5		0.00		-4.40		1.695e-02		-50.387		3.527e-03		8.769
5		0.00		-4.80		1.666e-02		-49.344		2.673e-03		10.126
5		0.00		-5.20		1.603e-02		-47.715		2.622e-03		7.726
5		0.00		-5.60		1.484e-02		-48.323		3.020e-03		12.421
5		0.00		-6.00		1.380e-02		-52.676		3.287e-03		12.466
5		0.00		-6.40		1.355e-02		-47.614		2.689e-03		11.536
5		0.00		-6.80		1.268e-02		-46.664		2.062e-03		11.197
5		0.00		-7.20		1.210e-02		-43.758		2.266e-03		10.510
5		0.00		-7.60		1.125e-02		-47.798		2.445e-03		13.339
5		0.00		-8.00		1.000e-02		-46.527		2.448e-03		17.977
5		0.00		-8.40		9.815e-03		-42.295		1.959e-03		12.853
5		0.00		-8.80		8.543e-03		-45.718		1.659e-03		12.472
5		0.00		-9.20		7.730e-03		-44.102		1.749e-03		15.065
5		0.00		-9.60		6.994e-03		-41.009		1.866e-03		15.962
5		0.00		-10.00		5.821e-03		-43.547		1.630e-03		19.817
5		0.00		-9.60		4.652e-03		-48.772		1.298e-03		24.296
5		0.00		-9.20		4.196e-03		-29.918		1.276e-03		27.398
5		0.00		-8.80		3.237e-03		-24.391		1.142e-03		33.007
5		0.00		-8.40		3.298e-03		-17.346		1.134e-03		32.043
5		0.00		-8.00		3.356e-03		-44.586		1.095e-03		33.029
5		0.00		-7.60		3.118e-03		-42.667		1.241e-03		29.117
5		0.00		-7.20		2.857e-03		-35.427		1.062e-03		38.743
5		0.00		-6.80		3.299e-03		-36.299		1.150e-03		30.544
5		0.00		-6.40		3.309e-03		-37.084		1.293e-03		38.062
5		0.00		-6.00		3.184e-03		-37.777		1.237e-03		28.347
5		0.00		-5.60		3.359e-03		-31.052		1.149e-03		30.191
5		0.00		-5.20		3.464e-03		-43.615		1.379e-03		30.254
5		0.00		-4.80		3.622e-03		-46.553		1.400e-03		28.383
5		0.00		-4.40		3.449e-03		-44.506		1.263e-03		25.813
5		0.00		-4.00		3.357e-03		-33.466		1.374e-03		29.494
5		0.00		-3.60		3.938e-03		-32.269		1.380e-03		27.020
5		0.00		-3.20		3.504e-03		-36.059		1.139e-03		29.776
5		0.00		-2.80		3.474e-03		-33.585		1.377e-03		28.087
5		0.00		-2.40		3.558e-03		-18.406		1.237e-03		26.888
5		0.00		-2.00		3.817e-03		-39.158		1.104e-03		22.700
5		0.00		-1.60		3.334e-03		-24.700		1.174e-03		36.048
5		0.00		-1.20		3.568e-03		-30.167		1.208e-03		27.171
5		0.00		-0.80		3.509e-03		-22.966		1.159e-03		29.267
5		0.00		-0.40		3.392e-03		-27.166		1.246e-03		27.756
6		0.00		0.00		2.926e-03		-37.734		1.294e-03		34.276
6		0.00		0.40		3.078e-03		-31.162		1.281e-03		31.183
6		0.00		0.80		3.315e-03		-30.037		1.316e-03		26.279
6		0.00		1.20		3.216e-03		-37.075		1.344e-03		38.950
6		0.00		1.60		3.363e-03		-29.252		1.239e-03		33.793
6		0.00		2.00		3.344e-03		-34.557		1.252e-03		25.172
6		0.00		2.40		3.717e-03		-20.310		1.097e-03		25.073
6		0.00		2.80		4.105e-03		-37.712		1.271e-03		21.292
6		0.00		3.20		4.290e-03		-43.240		1.322e-03		24.187
6		0.00		3.60		4.656e-03		-38.297		1.398e-03		25.335
6		0.00		4.00		5.180e-03		-40.746		1.422e-03		19.096
6		0.00		4.40		6.160e-03		-46.097		1.343e-03		14.948
6		0.00		4.80		6.721e-03		-47.237		1.889e-03		15.370
6		0.00		5.20		7.593e-03		-42.873		1.915e-03		14.891
6		0.00		5.60		8.342e-03		-45.149		1.643e-03		13.507
6		0.00		6.00		9.141e-03		-44.703		1.782e-03		12.892
6		0.00		6.40		9.732e-03		-45.186		2.161e-03		12.302
6		0.00		6.80		1.080e-02		-47.153		1.928e-03		11.639
6		0.00		7.20		1.181e-02		-48.365		2.166e-03		10.764
6		0.00		7.60		1.235e-02		-43.671		2.384e-03		11.437
6		0.00		8.00		1.303e-02		-47.508		2.880e-03		12.895
6		0.00		8.40		1.438e-02		-49.823		2.543e-03		8.128
6		0.00		8.80		1.510e-02		-45.334		2.716e-03		8.842
6		0.00		9.20		1.572e-02		-52.832		3.538e-03		12.083
6		0.00		9.60		1.715e-02		-48.095		4.093e-03		9.489
6		0.00		10.00		1.900e-02		-49.167		3.487e-03		9.874
6		0.00		9.60		2.004e-02		-48.614		3.790e-03		7.885
6		0.00		9.20		1.991e-02		-50.321		4.969e-03		9.868
6		0.00		8.80		2.078e-02		-53.115		4.775e-03		10.789
6		0.00		8.40		2.139e-02		-51.490		3.955e-03		8.180
6		0.00		8.00		2.112e-02		-49.491		4.581e-03		12.662
6		0.00		7.60		2.052e-02		-50.791		5.181e-03		12.442
6		0.00		7.20		2.056e-02		-50.539		4.440e-03		10.062
6		0.00		6.80		2.092e-02		-48.918		3.708e-03		9.185
6		0.00		6.40		2.080e-02		-49.673		4.157e-03		10.532
6		0.00		6.00		2.060e-02		-50.563		4.406e-03		9.766
6		0.00		5.60		2.114e-02		-49.637		3.517e-03		7.264
6		0.00		5.20		2.131e-02		-48.968		3.357e-03		6.995
6		0.00		4.80		2.036e-02		-49.447		4.272e-03		12.642
6		0.00		4.40		2.074e-02		-48.509		4.426e-03		7.888
6		0.00		4.00		2.131e-02		-49.851		3.396e-03		8.727
6		0.00		3.60		2.109e-02		-48.373		3.311e-03		9.112
6		0.00		3.20		2.073e-02		-48.796		4.011e-03		10.953
6		0.00		2.80		2.076e-02		-52.478		4.245e-03		9.170
6		0.00		2.40		2.109e-02		-51.063		3.321e-03		8.518
6		0.00		2.00		2.119e-02		-49.919		3.619e-03		8.477
6		0.00		1.60		2.043e-02		-47.738		4.304e-03		10.346
6		0.00		1.20		2.054e-02		-51.088		3.963e-03		8.372
6		0.00		0.80		2.112e-02		-49.223		3.130e-03		9.273
6		0.00		0.40		2.077e-02		-49.898		3.599e-03		8.356
6		0.00		0.00		2.069e-02		-50.143		4.189e-03		8.762
6		0.00		-0.40		2.066e-02		-49.308		4.323e-03		9.439
6		0.00		-0.80		2.060e-02		-49.824		3.119e-03		8.398
6		0.00		-1.20		2.061e-02		-45.994		3.518e-03		8.315
6		0.00		-1.60		1.962e-02		-47.875		4.346e-03		8.896
6		0.00		-2.00		1.931e-02		-47.221		4.065e-03		9.027
6		0.00		-2.40		1.958e-02		-46.953		3.173e-03		7.604
6		0.00		-2.80		1.871e-02		-47.052		3.430e-03		7.697
6		0.00		-3.20		1.802e-02		-48.507		3.836e-03		8.172
6		0.00		-3.60		1.751e-02		-48.679		3.672e-03		9.889
6		0.00		-4.00		1.765e-02		-48.282		2.749e-03		8.867
6		0.00		-4.40		1.696e-02		-47.704		3.123e-03		8.928
6		0.00		-4.80		1.592e-02		-48.915		3.542e-03		13.800
6		0.00		-5.20		1.548e-02		-46.837		3.158e-03		9.290
6		0.00		-5.60		1.533e-02		-48.225		2.389e-03		8.235
6		0.00		-6.00		1.451e-02		-46.369		2.674e-03		11.514
6		0.00		-6.40		1.337e-02		-44.826		3.052e-03		10.398
6		0.00		-6.80		1.272e-02		-46.981		2.348e-03		12.183
6		0.00		-7.20		1.232e-02		-40.961		2.200e-03		8.966
6		0.00		-7.60		1.089e-02		-50.198		2.345e-03		12.260
6		0.00		-8.00		9.725e-03		-47.546		2.874e-03		20.836
6		0.00		-8.40		9.115e-03		-43.526		2.310e-03		11.545
6		0.00		-8.80		8.536e-03		-40.117		1.920e-03		14.833
6		0.00		-9.20		6.820e-03		-48.772		1.777e-03		17.743
6		0.00		-9.60		6.233e-03		-40.130		1.658e-03		21.163
6		0.00		-10.00		5.262e-03		-33.535		1.363e-03		23.060
6		0.00		-9.60		5.221e-03		-35.132		1.758e-03		18.943
6		0.00		-9.20		4.298e-03		-47.961		1.401e-03		22.023
6		0.00		-8.80		4.270e-03		-41.442		1.657e-03		27.607
6		0.00		-8.40		3.714e-03		-34.150		1.291e-03		26.394
6		0.00		-8.00		4.248e-03		-39.517		1.317e-03		24.463
6		0.00		-7.60		3.570e-03		-30.340		1.274e-03		23.211
6		0.00		-7.20		3.870e-03		-30.453		1.227e-03		27.393
6		0.00		-6.80		4.014e-03		-31.170		1.201e-03		24.821
6		0.00		-6.40		4.041e-03		-45.707		1.323e-03		30.908
6		0.00		-6.00		4.281e-03		-33.461		1.334e-03		21.616
6		0.00		-5.60		4.581e-03		-31.082		1.543e-03		23.001
6		0.00		-5.20		4.570e-03		-28.189		1.313e-03		18.207
6		0.00		-4.80		4.563e-03		-38.970		1.287e-03		17.906
6		0.00		-4.40		4.229e-03		-44.913		1.510e-03		23.707
6		0.00		-4.00		4.048e-03		-28.526		1.349e-03		24.045
6		0.00		-3.60		4.622e-03		-33.512		1.252e-03		21.571
6		0.00		-3.20		4.263e-03		-39.563		1.143e-03		21.512
6		0.00		-2.80		4.328e-03		-39.237		1.413e-03		22.162
6		0.00		-2.40		4.071e-03		-39.922		1.223e-03		25.624
6		0.00		-2.00		4.341e-03		-20.870		1.407e-03		24.524
6		0.00		-1.60		4.201e-03		-28.033		1.223e-03		23.058
6		0.00		-1.20		4.429e-03		-28.710		1.444e-03		22.878
6		0.00		-0.80		4.154e-03		-26.445		1.303e-03		24.215
6		0.00		-0.40		4.576e-03		-30.619		1.157e-03		20.841
7		0.00		0.00		4.257e-03		-33.323		1.165e-03		30.925
7		0.00		0.40		3.974e-03		-31.872		1.186e-03		23.569
7		0.00		0.80		4.066e-03		-38.522		1.183e-03		21.844
7		0.00		1.20		4.272e-03		-32.711		1.356e-03		27.606
7		0.00		1.60		4.263e-03		-38.008		1.354e-03		23.586
7		0.00		2.00		3.950e-03		-36.815		1.136e-03		21.984
7		0.00		2.40		4.247e-03		-32.319		1.155e-03		23.878
7		0.00		2.80		4.962e-03		-36.256		1.265e-03		20.560
7		0.00		3.20		5.263e-03		-34.355		1.533e-03		19.933
7		0.00		3.60		6.723e-03		-40.186		1.519e-03		12.665
7		0.00		4.00		6.371e-03		-40.466		1.541e-03		18.447
7		0.00		4.40		7.453e-03		-38.000		1.617e-03		13.587
7		0.00		4.80		8.006e-03		-39.668		1.869e-03		16.935
7		0.00		5.20		9.076e-03		-46.303		1.662e-03		14.057
7		0.00		5.60		9.720e-03		-48.121		2.009e-03		11.661
7		0.00		6.00		1.023e-02		-46.603		2.380e-03		12.429
7		0.00		6.40		1.072e-02		-47.368		2.001e-03		13.024
7		0.00		6.80		1.199e-02		-47.109		2.256e-03		11.866
7		0.00		7.20		1.246e-02		-48.883		2.655e-03		11.971
7		0.00		7.60		1.322e-02		-50.608		3.073e-03		10.931
7		0.00		8.00		1.426e-02		-50.215		2.705e-03		9.458
7		0.00		8.40		1.503e-02		-49.850		2.916e-03		10.122
7		0.00		8.80		1.506e-02		-50.076		3.585e-03		11.434
7		0.00		9.20		1.699e-02		-51.259		3.765e-03		11.255
7		0.00		9.60		1.849e-02		-50.094		3.551e-03		8.563
7		0.00		10.00		1.924e-02		-49.761		4.102e-03		12.481
7		0.00		9.60		2.014e-02		-52.307		4.891e-03		9.713
7		0.00		9.20		2.060e-02		-49.043		3.726e-03		8.484
7		0.00		8.80		2.188e-02		-48.034		3.664e-03		8.380
7		0.00		8.40		2.121e-02		-48.442		4.290e-03		10.162
7		0.00		8.00		2.112e-02		-51.213		4.400e-03		10.241
7		0.00		7.60		2.200e-02		-50.723		3.700e-03		9.031
7		0.00		7.20		2.219e-02		-49.232		3.931e-03		8.743
7		0.00		6.80		2.148e-02		-48.193		4.457e-03		10.184
7		0.00		6.40		2.142e-02		-49.967		4.446e-03		9.166
7		0.00		6.00		2.238e-02		-50.002		3.444e-03		8.822
7		0.00		5.60		2.186e-02		-48.760		3.885e-03		8.868
7		0.00		5.20		2.161e-02		-49.263		4.382e-03		10.172
7		0.00		4.80		2.173e-02		-47.242		3.887e-03		8.356
7		0.00		4.40		2.193e-02		-48.172		3.380e-03		7.896
7		0.00		4.00		2.149e-02		-50.813		4.199e-03		7.679
7		0.00		3.60		2.058e-02		-48.952		4.532e-03		6.736
7		0.00		3.20		2.136e-02		-47.892		3.400e-03		9.222
7		0.00		2.80		2.142e-02		-49.303		3.455e-03		8.695
7		0.00		2.40		2.027e-02		-48.275		4.293e-03		11.595
7		0.00		2.00		2.103e-02		-49.424		3.858e-03		8.464
7		0.00		1.60		2.145e-02		-48.676		3.206e-03		9.899
7		0.00		1.20		2.112e-02		-48.208		3.789e-03		8.909
7		0.00		0.80		2.006e-02		-49.908		4.503e-03		9.450
7		0.00		0.40		2.150e-02		-48.275		3.847e-03		7.992
7		0.00		0.00		2.124e-02		-49.581		3.227e-03		9.946
7		0.00		-0.40		2.119e-02		-48.216		3.944e-03		9.977
7		0.00		-0.80		2.068e-02		-48.576		4.136e-03		9.296
7		0.00		-1.20		2.057e-02		-50.603		3.042e-03		8.209
7		0.00		-1.60		2.011e-02		-46.628		3.606e-03		8.107
7		0.00		-2.00		1.949e-02		-48.861		4.341e-03		10.853
7		0.00		-2.40		1.932e-02		-47.726		3.684e-03		9.612
7		0.00		-2.80		1.906e-02		-49.213		3.056e-03		8.017
7		0.00		-3.20		1.821e-02		-47.176		3.397e-03		10.046
7		0.00		-3.60		1.747e-02		-46.555		3.813e-03		8.501
7		0.00		-4.00		1.742e-02		-46.267		3.228e-03		10.055
7		0.00		-4.40		1.728e-02		-47.918		2.965e-03		8.541
7		0.00		-4.80		1.603e-02		-44.884		3.578e-03		10.064
7		0.00		-5.20		1.513e-02		-49.997		3.741e-03		12.127
7		0.00		-5.60		1.514e-02		-47.175		2.838e-03		7.916
7		0.00		-6.00		1.438e-02		-48.100		2.714e-03		10.466
7		0.00		-6.40		1.324e-02		-48.008		3.368e-03		13.207
7		0.00		-6.80		1.266e-02		-47.990		3.115e-03		11.267
7		0.00		-7.20		1.236e-02		-45.568		2.345e-03		10.650
7		0.00		-7.60		1.109e-02		-50.438		2.282e-03		12.225
7		0.00		-8.00		9.923e-03		-44.647		2.525e-03		12.875
7		0.00		-8.40		9.251e-03		-44.179		2.035e-03		13.562
7		0.00		-8.80		8.572e-03		-45.763		1.825e-03		14.068
7		0.00		-9.20		7.889e-03		-45.232		1.896e-03		14.070
7		0.00		-9.60		6.703e-03		-49.207		1.945e-03		22.975
7		0.00		-10.00		5.842e-03		-33.421		1.569e-03		17.726
7		0.00		-9.60		5.556e-03		-39.200		1.430e-03		17.509
7		0.00		-9.20		5.242e-03		-44.651		1.288e-03		18.871
7		0.00		-8.80		4.953e-03		-36.161		1.321e-03		17.842
7		0.00		-8.40		4.662e-03		-35.251		1.574e-03		25.750
7		0.00		-8.00		4.828e-03		-39.379		1.304e-03		21.281
7		0.00		-7.60		4.534e-03		-35.262		1.182e-03		25.640
7		0.00		-7.20		4.374e-03		-39.512		1.397e-03		20.156
7		0.00		-6.80		4.290e-03		-37.519		1.349e-03		22.867
7		0.00		-6.40		4.384e-03		-42.993		1.262e-03		24.635
7		0.00		-6.00		4.289e-03		-31.552		1.259e-03		19.406
7		0.00		-5.60		4.381e-03		-30.586		1.483e-03		25.851
7		0.00		-5.20		4.452e-03		-36.795		1.355e-03		21.128
7		0.00		-4.80		4.756e-03		-36.207		1.262e-03		18.273
7		0.00		-4.40		4.542e-03		-47.002		1.358e-03		24.470
7		0.00		-4.00		4.722e-03		-48.224		1.405e-03		23.367
7		0.00		-3.60		4.780e-03		-27.786		1.412e-03		16.957
7		0.00		-3.20		4.784e-03		-32.247		1.421e-03		17.987
7		0.00		-2.80		4.810e-03		-32.006		1.332e-03		21.130
7		0.00		-2.40		4.792e-03		-38.405		1.397e-03		17.403
7		0.00		-2.00		4.767e-03		-33.139		1.354e-03		24.220
7		0.00		-1.60		4.663e-03		-30.007		1.450e-03		22.031
7		0.00		-1.20		4.503e-03		-33.011		1.225e-03		22.789
7		0.00		-0.80		4.518e-03		-39.834		1.493e-03		21.974
7		0.00		-0.40		4.795e-03		-25.372		1.373e-03		19.105
8		0.00		0.00		4.596e-03		-37.009		1.298e-03		25.404
8		0.00		0.40		4.467e-03		-44.876		1.224e-03		21.152
8		0.00		0.80		4.334e-03		-43.967		1.229e-03		19.008
8		0.00		1.20		4.277e-03		-30.662		1.295e-03		25.889
8		0.00		1.60		4.218e-03		-39.831		1.442e-03		27.564
8		0.00		2.00		4.751e-03		-28.413		1.257e-03		18.372
8		0.00		2.40		4.634e-03		-41.113		1.414e-03		21.272
8		0.00		2.80		4.913e-03		-34.379		1.593e-03		17.513
8		0.00		3.20		5.374e-03		-38.000		1.541e-03		19.160
8		0.00		3.60		6.025e-03		-35.397		1.542e-03		16.541
8		0.00		4.00		6.216e-03		-48.528		1.553e-03		19.814
8		0.00		4.40		7.127e-03		-46.980		1.885e-03		16.913
8		0.00		4.80		7.449e-03		-42.630		2.048e-03		16.700
8		0.00		5.20		8.305e-03		-50.253		1.963e-03		14.120
8		0.00		5.60		9.072e-03		-46.568		2.081e-03		14.664
8		0.00		6.00		9.669e-03		-46.751		2.569e-03		12.888
8		0.00		6.40		1.081e-02		-45.741		2.855e-03		13.617
8		0.00		6.80		1.160e-02		-49.040		2.528e-03		12.736
8		0.00		7.20		1.253e-02		-49.638		2.272e-03		11.727
8		0.00		7.60		1.295e-02		-50.485		2.668e-03		10.800
8		0.00		8.00		1.338e-02		-49.302		3.214e-03		12.016
8		0.00		8.40		1.423e-02		-52.467		2.831e-03		10.384
8		0.00		8.80		1.555e-02		-49.019		2.711e-03		11.201
8		0.00		9.20		1.654e-02		-48.628		3.469e-03		8.780
8		0.00		9.60		1.745e-02		-45.206		4.065e-03		11.455
8		0.00		10.00		1.859e-02		-49.281		3.831e-03		9.554
8		0.00		9.60		2.032e-02		-50.414		3.337e-03		10.032
8		0.00		9.20		2.040e-02		-49.728		3.780e-03		9.712
8		0.00		8.80		2.094e-02		-51.107		4.686e-03		11.025
8		0.00		8.40		2.105e-02		-50.145		4.369e-03		9.107
8		0.00		8.00		2.193e-02		-50.626		3.488e-03		7.657
8		0.00		7.60		2.161e-02		-47.522		3.811e-03		8.324
8		0.00		7.20		2.111e-02		-50.890		4.919e-03		10.784
8		0.00		6.80		2.154e-02		-49.519		4.002e-03		8.804
8		0.00		6.40		2.167e-02		-48.428		3.254e-03		8.511
8		0.00		6.00		2.204e-02		-49.661		3.800e-03		7.628
8		0.00		5.60		2.116e-02		-51.047		4.725e-03		11.335
8		0.00		5.20		2.139e-02		-49.873		4.148e-03		9.146
8		0.00		4.80		2.203e-02		-50.131		3.787e-03		8.323
8		0.00		4.40		2.231e-02		-47.776		3.854e-03		8.624
8		0.00		4.00		2.130e-02		-50.333		4.533e-03		8.840
8		0.00		3.60		2.123e-02		-49.969		3.953e-03		9.097
8		0.00		3.20		2.207e-02		-49.076		3.452e-03		8.223
8		0.00		2.80		2.146e-02		-48.193		3.532e-03		8.115
8		0.00		2.40		2.082e-02		-48.578		4.065e-03		9.199
8		0.00		2.00		2.084e-02		-48.878		3.723e-03		8.767
8		0.00		1.60		2.107e-02		-48.579		3.234e-03		8.096
8		0.00		1.20		2.104e-02		-46.904		3.373e-03		8.390
8		0.00		0.80		2.035e-02		-46.398		3.912e-03		10.366
8		0.00		0.40		2.067e-02		-50.973		3.801e-03		8.459
8		0.00		0.00		2.123e-02		-45.178		3.366e-03		7.656
8		0.00		-0.40		2.077e-02		-49.053		3.422e-03		7.742
8		0.00		-0.80		2.002e-02		-48.180		4.592e-03		12.851
8		0.00		-1.20		1.996e-02		-48.584		4.056e-03		9.747
8		0.00		-1.60		1.997e-02		-48.954		3.419e-03		9.001
8		0.00		-2.00		1.995e-02		-50.101		3.700e-03		8.872
8		0.00		-2.40		1.892e-02		-48.357		4.468e-03		12.039
8		0.00		-2.80		1.839e-02		-48.058		3.870e-03		10.437
8		0.00		-3.20		1.853e-02		-49.838		3.448e-03		8.828
8		0.00		-3.60		1.811e-02		-48.733		3.514e-03		8.542
8		0.00		-4.00		1.719e-02		-47.429		4.097e-03		10.376
8		0.00		-4.40		1.646e-02		-48.603		3.672e-03		9.540
8		0.00		-4.80		1.635e-02		-49.807		2.965e-03		9.195
8		0.00		-5.20		1.616e-02		-46.891		3.107e-03		9.833
8		0.00		-5.60		1.523e-02		-47.353		3.307e-03		9.650
8		0.00		-6.00		1.418e-02		-44.003		3.303e-03		10.982
8		0.00		-6.40		1.372e-02		-49.421		2.390e-03		9.353
8		0.00		-6.80		1.302e-02		-48.108		2.260e-03		13.562
8		0.00		-7.20		1.282e-02		-46.953		2.437e-03		12.377
8		0.00		-7.60		1.099e-02		-42.200		2.556e-03		11.826
8		0.00		-8.00		1.025e-02		-43.328		2.123e-03		12.618
8		0.00		-8.40		9.692e-03		-42.736		1.682e-03		13.578
8		0.00		-8.80		8.610e-03		-44.842		1.903e-03		12.742
8		0.00		-9.20		7.318e-03		-39.340		1.817e-03		15.883
8		0.00		-9.60		6.100e-03		-32.215		1.487e-03		16.090
8		0.00		-10.00		5.474e-03		-48.112		1.420e-03		20.105
8		0.00		-9.60		4.645e-03		-48.997		1.378e-03		19.918
8		0.00		-9.20		4.232e-03		-30.142		1.173e-03		24.965
8		0.00		-8.80		3.842e-03		-35.710		1.144e-03		30.975
8		0.00		-8.40		3.670e-03		-47.031		1.302e-03		30.457
8		0.00		-8.00		4.008e-03		-23.604		1.346e-03		26.078
8		0.00		-7.60		3.580e-03		-42.339		1.480e-03		30.066
8		0.00		-7.20		3.670e-03		-33.102		1.454e-03		27.141
8		0.00		-6.80		3.650e-03		-37.227		1.110e-03		31.128
8		0.00		-6.40		4.207e-03		-32.336		1.336e-03		24.415
8		0.00		-6.00		3.962e-03		-40.928		1.398e-03		24.528
8		0.00		-5.60		3.997e-03		-30.037		1.228e-03		27.258
8		0.00		-5.20		3.833e-03		-40.157		1.550e-03		27.169
8		0.00		-4.80		4.270e-03		-39.622		1.224e-03		25.317
8		0.00		-4.40		3.993e-03		-32.206		1.181e-03		25.231
8		0.00		-4.00		4.025e-03		-41.804		1.394e-03		19.435
8		0.00		-3.60		4.109e-03		-35.286		1.215e-03		24.149
8		0.00		-3.20		4.102e-03		-48.032		1.318e-03		20.091
8		0.00		-2.80		4.047e-03		-38.270		1.269e-03		21.577
8		0.00		-2.40		3.877e-03		-43.762		1.285e-03		28.672
8		0.00		-2.00		4.127e-03		-35.752		1.142e-03		26.835
8		0.00		-1.60		3.583e-03		-33.235		1.083e-03		27.760
8		0.00		-1.20		3.831e-03		-53.197		1.390e-03		23.890
8		0.00		-0.80		3.576e-03		-35.742		1.430e-03		29.162
8		0.00		-0.40		3.578e-03		-43.452		1.313e-03		25.304
