# Date of analysis: 2023-11-20 16;16
# 
# Loop index	Read Volt (V)	Write Volt (V)	Amplitude (a.u)	Phase (deg)	Sigma Amp (a.u)	Sigma Pha (deg)	
1		0.00		0.00		8.072e-03		-40.421		2.019e-03		14.686
1		0.00		0.40		3.212e-03		-39.382		1.187e-03		32.867
1		0.00		0.80		2.284e-03		75.995		9.798e-04		58.094
1		0.00		1.20		6.681e-03		126.016		2.059e-03		19.589
1		0.00		1.60		1.134e-02		125.119		3.162e-03		13.063
1		0.00		2.00		1.572e-02		124.581		4.271e-03		20.079
1		0.00		2.40		2.021e-02		127.452		5.713e-03		18.082
1		0.00		2.80		2.418e-02		127.266		6.922e-03		17.619
1		0.00		3.20		2.784e-02		129.929		8.227e-03		16.266
1		0.00		3.60		3.163e-02		127.551		9.167e-03		19.045
1		0.00		4.00		3.472e-02		127.521		1.047e-02		19.195
1		0.00		4.40		3.814e-02		128.156		1.140e-02		17.082
1		0.00		4.80		4.096e-02		129.013		1.219e-02		16.913
1		0.00		5.20		4.312e-02		128.097		1.325e-02		17.798
1		0.00		5.60		4.611e-02		129.286		1.331e-02		17.025
1		0.00		6.00		4.875e-02		129.616		1.412e-02		14.735
1		0.00		6.40		5.033e-02		128.957		1.455e-02		17.866
1		0.00		6.80		5.268e-02		128.991		1.559e-02		20.570
1		0.00		7.20		5.536e-02		131.507		1.573e-02		16.747
1		0.00		7.60		5.617e-02		134.892		1.594e-02		14.160
1		0.00		8.00		5.707e-02		132.097		1.621e-02		17.254
1		0.00		8.40		5.709e-02		129.698		1.752e-02		31.168
1		0.00		8.80		6.078e-02		127.190		1.824e-02		27.369
1		0.00		9.20		6.326e-02		131.451		1.843e-02		11.813
1		0.00		9.60		5.955e-02		130.328		1.842e-02		15.914
1		0.00		10.00		5.637e-02		125.390		1.897e-02		22.774
1		0.00		9.60		5.604e-02		125.759		1.868e-02		18.920
1		0.00		9.20		5.633e-02		129.807		1.819e-02		17.018
1		0.00		8.80		5.315e-02		127.351		1.726e-02		23.647
1		0.00		8.40		5.285e-02		131.001		1.463e-02		14.324
1		0.00		8.00		5.020e-02		132.733		1.260e-02		11.346
1		0.00		7.60		4.722e-02		131.879		1.219e-02		12.012
1		0.00		7.20		4.505e-02		131.373		1.110e-02		10.016
1		0.00		6.80		4.180e-02		128.977		1.029e-02		10.778
1		0.00		6.40		3.936e-02		129.846		9.488e-03		9.482
1		0.00		6.00		3.648e-02		131.909		7.994e-03		8.997
1		0.00		5.60		3.274e-02		130.577		6.745e-03		9.915
1		0.00		5.20		2.930e-02		131.439		6.306e-03		9.395
1		0.00		4.80		2.556e-02		131.967		5.707e-03		9.584
1		0.00		4.40		2.110e-02		131.187		4.757e-03		10.252
1		0.00		4.00		1.706e-02		133.856		4.147e-03		11.075
1		0.00		3.60		1.250e-02		133.120		3.190e-03		11.360
1		0.00		3.20		8.272e-03		133.135		2.178e-03		17.209
1		0.00		2.80		3.537e-03		97.247		1.330e-03		65.795
1		0.00		2.40		2.474e-03		-42.686		1.005e-03		44.316
1		0.00		2.00		6.383e-03		-54.773		2.163e-03		17.836
1		0.00		1.60		1.075e-02		-53.496		3.292e-03		14.447
1		0.00		1.20		1.631e-02		-52.115		4.285e-03		11.733
1		0.00		0.80		2.059e-02		-50.138		5.463e-03		12.182
1		0.00		0.40		2.572e-02		-49.143		6.491e-03		11.449
1		0.00		0.00		3.120e-02		-50.654		7.629e-03		10.240
1		0.00		-0.40		3.543e-02		-50.871		8.689e-03		9.999
1		0.00		-0.80		4.005e-02		-51.266		9.809e-03		12.025
1		0.00		-1.20		4.414e-02		-49.808		9.777e-03		10.309
1		0.00		-1.60		4.826e-02		-51.501		1.102e-02		12.301
1		0.00		-2.00		5.204e-02		-51.665		1.186e-02		12.638
1		0.00		-2.40		5.507e-02		-52.933		1.252e-02		12.028
1		0.00		-2.80		5.808e-02		-51.026		1.348e-02		10.710
1		0.00		-3.20		5.630e-02		-56.609		1.516e-02		16.750
1		0.00		-3.60		6.449e-02		-51.764		1.388e-02		8.847
1		0.00		-4.00		6.101e-02		-60.443		1.775e-02		19.969
1		0.00		-4.40		6.652e-02		-51.905		1.751e-02		17.814
1		0.00		-4.80		6.666e-02		-48.862		1.855e-02		19.479
1		0.00		-5.20		6.701e-02		-49.878		1.892e-02		21.370
1		0.00		-5.60		7.157e-02		-49.036		1.879e-02		15.457
1		0.00		-6.00		7.065e-02		-46.608		2.015e-02		15.918
1		0.00		-6.40		6.675e-02		-45.112		2.019e-02		22.136
1		0.00		-6.80		6.486e-02		-44.414		2.187e-02		23.840
1		0.00		-7.20		6.610e-02		-45.857		2.122e-02		20.939
1		0.00		-7.60		6.770e-02		-46.371		2.351e-02		23.357
1		0.00		-8.00		6.540e-02		-42.493		2.377e-02		26.289
1		0.00		-8.40		6.565e-02		-41.837		2.268e-02		24.722
1		0.00		-8.80		6.365e-02		-42.602		2.119e-02		25.386
1		0.00		-9.20		6.122e-02		-39.319		1.985e-02		17.939
1		0.00		-9.60		5.992e-02		-44.402		1.883e-02		16.669
1		0.00		-10.00		5.385e-02		-43.957		1.611e-02		14.345
1		0.00		-9.60		5.951e-02		-41.815		1.772e-02		15.399
1		0.00		-9.20		6.471e-02		-40.593		1.883e-02		15.488
1		0.00		-8.80		6.463e-02		-40.211		1.705e-02		14.958
1		0.00		-8.40		6.816e-02		-43.268		1.824e-02		16.937
1		0.00		-8.00		6.289e-02		-51.667		1.889e-02		23.959
1		0.00		-7.60		6.309e-02		-46.104		1.691e-02		18.528
1		0.00		-7.20		6.411e-02		-49.904		1.672e-02		17.061
1		0.00		-6.80		6.305e-02		-48.666		1.723e-02		16.201
1		0.00		-6.40		6.081e-02		-46.032		1.525e-02		11.481
1		0.00		-6.00		5.888e-02		-47.369		1.475e-02		9.284
1		0.00		-5.60		5.670e-02		-48.923		1.365e-02		7.329
1		0.00		-5.20		5.300e-02		-49.773		1.300e-02		6.301
1		0.00		-4.80		4.800e-02		-50.778		1.252e-02		8.442
1		0.00		-4.40		4.459e-02		-51.244		1.169e-02		7.577
1		0.00		-4.00		3.984e-02		-49.883		1.020e-02		7.453
1		0.00		-3.60		3.635e-02		-48.988		8.836e-03		8.242
1		0.00		-3.20		3.244e-02		-47.393		7.554e-03		8.175
1		0.00		-2.80		2.767e-02		-48.509		6.367e-03		8.895
1		0.00		-2.40		2.330e-02		-45.089		5.317e-03		11.109
1		0.00		-2.00		1.867e-02		-43.957		4.066e-03		10.202
1		0.00		-1.60		1.378e-02		-40.818		2.974e-03		13.191
1		0.00		-1.20		9.374e-03		-41.849		2.033e-03		14.494
1		0.00		-0.80		5.028e-03		-33.961		1.284e-03		23.338
1		0.00		-0.40		2.349e-03		55.251		9.001e-04		61.022
2		0.00		0.00		5.917e-03		107.044		2.039e-03		22.382
2		0.00		0.40		1.030e-02		123.491		2.588e-03		10.536
2		0.00		0.80		1.503e-02		127.954		3.766e-03		11.127
2		0.00		1.20		1.909e-02		126.509		4.197e-03		8.935
2		0.00		1.60		2.319e-02		126.191		5.200e-03		9.122
2		0.00		2.00		2.735e-02		127.127		5.824e-03		8.892
2		0.00		2.40		3.114e-02		127.685		6.949e-03		9.242
2		0.00		2.80		3.517e-02		128.128		7.420e-03		9.903
2		0.00		3.20		3.791e-02		128.044		8.027e-03		8.487
2		0.00		3.60		4.054e-02		128.687		8.463e-03		9.523
2		0.00		4.00		4.384e-02		130.591		8.854e-03		6.656
2		0.00		4.40		4.621e-02		131.272		9.879e-03		7.634
2		0.00		4.80		4.879e-02		130.531		1.119e-02		8.373
2		0.00		5.20		5.217e-02		131.452		1.269e-02		6.703
2		0.00		5.60		5.235e-02		130.894		1.356e-02		7.539
2		0.00		6.00		5.511e-02		131.951		1.529e-02		8.413
2		0.00		6.40		5.736e-02		129.945		1.632e-02		11.183
2		0.00		6.80		5.795e-02		127.559		1.696e-02		28.404
2		0.00		7.20		5.862e-02		128.683		1.813e-02		22.335
2		0.00		7.60		6.007e-02		130.786		1.934e-02		14.633
2		0.00		8.00		5.841e-02		129.905		1.943e-02		23.621
2		0.00		8.40		5.865e-02		128.440		1.883e-02		26.180
2		0.00		8.80		6.004e-02		126.933		1.979e-02		29.208
2		0.00		9.20		6.002e-02		131.554		1.909e-02		27.451
2		0.00		9.60		5.888e-02		129.046		1.931e-02		19.986
2		0.00		10.00		5.685e-02		131.031		1.823e-02		16.006
2		0.00		9.60		5.495e-02		125.734		1.782e-02		26.904
2		0.00		9.20		5.681e-02		127.044		1.662e-02		21.026
2		0.00		8.80		5.469e-02		130.407		1.474e-02		13.247
2		0.00		8.40		5.257e-02		131.953		1.300e-02		10.193
2		0.00		8.00		4.979e-02		131.223		1.319e-02		10.890
2		0.00		7.60		4.765e-02		130.684		1.132e-02		9.617
2		0.00		7.20		4.495e-02		131.683		1.154e-02		8.875
2		0.00		6.80		4.163e-02		130.931		1.079e-02		8.707
2		0.00		6.40		3.787e-02		131.998		1.036e-02		8.681
2		0.00		6.00		3.365e-02		130.881		9.584e-03		9.568
2		0.00		5.60		2.996e-02		130.651		8.807e-03		19.117
2		0.00		5.20		2.581e-02		128.679		7.901e-03		25.121
2		0.00		4.80		2.177e-02		128.824		6.909e-03		23.035
2		0.00		4.40		1.801e-02		128.910		5.496e-03		21.610
2		0.00		4.00		1.372e-02		129.594		4.167e-03		18.411
2		0.00		3.60		1.001e-02		129.961		3.023e-03		18.971
2		0.00		3.20		5.365e-03		123.235		1.878e-03		38.657
2		0.00		2.80		2.093e-03		39.865		8.394e-04		77.133
2		0.00		2.40		4.028e-03		-48.767		1.495e-03		27.088
2		0.00		2.00		8.192e-03		-58.218		2.231e-03		19.081
2		0.00		1.60		1.284e-02		-52.916		2.864e-03		12.715
2		0.00		1.20		1.770e-02		-51.617		3.951e-03		12.026
2		0.00		0.80		2.263e-02		-50.633		4.560e-03		9.081
2		0.00		0.40		2.701e-02		-50.867		5.406e-03		9.540
2		0.00		0.00		3.195e-02		-51.449		6.544e-03		8.934
2		0.00		-0.40		3.720e-02		-50.672		7.594e-03		7.264
2		0.00		-0.80		4.131e-02		-50.938		9.174e-03		8.486
2		0.00		-1.20		4.595e-02		-51.794		1.032e-02		7.216
2		0.00		-1.60		4.927e-02		-51.861		1.219e-02		7.316
2		0.00		-2.00		5.214e-02		-52.240		1.381e-02		8.763
2		0.00		-2.40		5.454e-02		-51.970		1.637e-02		9.931
2		0.00		-2.80		5.736e-02		-51.614		1.711e-02		9.278
2		0.00		-3.20		5.991e-02		-52.068		1.807e-02		10.568
2		0.00		-3.60		6.209e-02		-51.077		1.898e-02		12.856
2		0.00		-4.00		6.154e-02		-50.524		1.861e-02		16.321
2		0.00		-4.40		6.359e-02		-50.927		2.057e-02		17.241
2		0.00		-4.80		6.349e-02		-48.348		2.011e-02		18.653
2		0.00		-5.20		6.384e-02		-45.150		1.935e-02		15.373
2		0.00		-5.60		6.666e-02		-47.653		2.063e-02		18.919
2		0.00		-6.00		6.819e-02		-44.957		2.046e-02		17.209
2		0.00		-6.40		7.030e-02		-46.013		1.882e-02		15.199
2		0.00		-6.80		7.341e-02		-43.457		1.937e-02		16.776
2		0.00		-7.20		7.083e-02		-46.098		1.949e-02		21.184
2		0.00		-7.60		7.322e-02		-43.062		1.866e-02		17.784
2		0.00		-8.00		7.233e-02		-44.638		1.848e-02		20.348
2		0.00		-8.40		7.081e-02		-45.164		1.783e-02		17.564
2		0.00		-8.80		6.802e-02		-44.673		1.964e-02		23.703
2		0.00		-9.20		6.340e-02		-38.896		1.677e-02		18.000
2		0.00		-9.60		5.940e-02		-46.252		1.769e-02		17.206
2		0.00		-10.00		5.346e-02		-45.002		1.590e-02		12.554
2		0.00		-9.60		5.951e-02		-46.797		1.943e-02		14.076
2		0.00		-9.20		6.384e-02		-44.393		2.056e-02		14.657
2		0.00		-8.80		6.349e-02		-40.614		1.987e-02		15.274
2		0.00		-8.40		6.605e-02		-45.435		1.975e-02		14.826
2		0.00		-8.00		6.487e-02		-44.244		2.041e-02		18.245
2		0.00		-7.60		6.228e-02		-49.267		1.976e-02		18.079
2		0.00		-7.20		6.041e-02		-44.500		1.990e-02		17.934
2		0.00		-6.80		6.106e-02		-42.790		1.889e-02		18.863
2		0.00		-6.40		6.157e-02		-45.337		1.809e-02		14.494
2		0.00		-6.00		5.965e-02		-47.489		1.675e-02		13.222
2		0.00		-5.60		5.659e-02		-47.075		1.526e-02		10.183
2		0.00		-5.20		5.386e-02		-48.499		1.391e-02		10.790
2		0.00		-4.80		5.036e-02		-50.269		1.287e-02		13.590
2		0.00		-4.40		4.689e-02		-49.167		1.048e-02		8.969
2		0.00		-4.00		4.349e-02		-50.006		9.364e-03		9.815
2		0.00		-3.60		3.982e-02		-49.003		8.342e-03		9.747
2		0.00		-3.20		3.600e-02		-49.153		7.027e-03		9.060
2		0.00		-2.80		3.144e-02		-49.449		6.465e-03		9.731
2		0.00		-2.40		2.723e-02		-48.938		5.456e-03		9.811
2		0.00		-2.00		2.317e-02		-48.438		4.470e-03		9.698
2		0.00		-1.60		1.884e-02		-49.822		3.804e-03		9.812
2		0.00		-1.20		1.415e-02		-50.073		2.941e-03		12.263
2		0.00		-0.80		9.542e-03		-44.223		2.121e-03		14.492
2		0.00		-0.40		5.296e-03		-26.821		1.570e-03		21.571
3		0.00		0.00		2.194e-03		8.367		9.486e-04		59.659
3		0.00		0.40		4.451e-03		100.658		1.702e-03		39.989
3		0.00		0.80		8.550e-03		119.449		2.545e-03		24.547
3		0.00		1.20		1.290e-02		125.432		3.179e-03		9.834
3		0.00		1.60		1.729e-02		127.307		3.973e-03		9.901
3		0.00		2.00		2.096e-02		128.063		4.938e-03		8.270
3		0.00		2.40		2.476e-02		129.900		5.931e-03		9.975
3		0.00		2.80		2.783e-02		129.871		6.921e-03		8.556
3		0.00		3.20		3.104e-02		129.526		7.791e-03		8.726
3		0.00		3.60		3.403e-02		131.043		8.598e-03		8.179
3		0.00		4.00		3.676e-02		130.698		9.568e-03		8.286
3		0.00		4.40		3.948e-02		131.438		1.076e-02		7.260
3		0.00		4.80		4.091e-02		130.777		1.247e-02		8.589
3		0.00		5.20		4.220e-02		130.571		1.411e-02		10.596
3		0.00		5.60		4.381e-02		128.774		1.457e-02		12.652
3		0.00		6.00		4.617e-02		128.315		1.571e-02		14.950
3		0.00		6.40		4.863e-02		128.919		1.645e-02		16.102
3		0.00		6.80		5.028e-02		126.231		1.766e-02		22.670
3		0.00		7.20		5.254e-02		128.521		1.809e-02		17.320
3		0.00		7.60		5.323e-02		127.735		1.887e-02		19.723
3		0.00		8.00		5.639e-02		126.945		2.014e-02		24.466
3		0.00		8.40		5.729e-02		127.649		1.923e-02		23.385
3		0.00		8.80		5.985e-02		129.809		1.857e-02		19.922
3		0.00		9.20		6.032e-02		128.610		1.886e-02		22.107
3		0.00		9.60		5.787e-02		127.373		1.906e-02		31.586
3		0.00		10.00		5.571e-02		129.187		1.844e-02		24.294
3		0.00		9.60		5.690e-02		126.421		1.874e-02		30.972
3		0.00		9.20		5.749e-02		128.746		1.820e-02		22.477
3		0.00		8.80		5.450e-02		130.100		1.717e-02		17.468
3		0.00		8.40		5.280e-02		130.647		1.610e-02		17.016
3		0.00		8.00		4.995e-02		127.861		1.568e-02		23.399
3		0.00		7.60		4.754e-02		130.842		1.503e-02		15.377
3		0.00		7.20		4.404e-02		129.564		1.419e-02		14.441
3		0.00		6.80		4.105e-02		130.110		1.275e-02		11.202
3		0.00		6.40		3.783e-02		131.327		1.172e-02		11.603
3		0.00		6.00		3.461e-02		131.292		1.041e-02		9.908
3		0.00		5.60		3.152e-02		133.268		9.128e-03		9.356
3		0.00		5.20		2.823e-02		132.232		7.834e-03		8.055
3		0.00		4.80		2.482e-02		132.433		6.827e-03		9.504
3		0.00		4.40		2.031e-02		134.149		5.380e-03		9.194
3		0.00		4.00		1.644e-02		133.266		4.149e-03		10.141
3		0.00		3.60		1.210e-02		133.369		3.142e-03		9.865
3		0.00		3.20		7.419e-03		130.487		2.015e-03		15.239
3		0.00		2.80		3.058e-03		90.442		1.106e-03		67.548
3		0.00		2.40		2.622e-03		-54.922		1.132e-03		47.235
3		0.00		2.00		7.434e-03		-53.008		2.010e-03		18.427
3		0.00		1.60		1.209e-02		-51.738		2.473e-03		12.113
3		0.00		1.20		1.689e-02		-51.181		3.144e-03		11.623
3		0.00		0.80		2.211e-02		-53.413		4.255e-03		8.850
3		0.00		0.40		2.700e-02		-52.364		5.174e-03		10.127
3		0.00		0.00		3.147e-02		-51.351		6.295e-03		9.411
3		0.00		-0.40		3.619e-02		-50.118		7.814e-03		8.211
3		0.00		-0.80		3.973e-02		-49.866		8.691e-03		7.730
3		0.00		-1.20		4.335e-02		-51.474		9.784e-03		7.984
3		0.00		-1.60		4.689e-02		-51.418		1.098e-02		9.229
3		0.00		-2.00		5.052e-02		-52.609		1.304e-02		11.953
3		0.00		-2.40		5.272e-02		-53.528		1.552e-02		15.565
3		0.00		-2.80		5.608e-02		-53.282		1.656e-02		14.483
3		0.00		-3.20		5.762e-02		-51.523		1.747e-02		10.373
3		0.00		-3.60		6.056e-02		-52.708		1.875e-02		13.271
3		0.00		-4.00		6.487e-02		-51.260		1.841e-02		8.998
3		0.00		-4.40		6.334e-02		-49.633		1.771e-02		13.301
3		0.00		-4.80		6.560e-02		-47.992		1.765e-02		13.851
3		0.00		-5.20		6.974e-02		-49.142		1.776e-02		13.547
3		0.00		-5.60		7.195e-02		-47.608		1.785e-02		14.110
3		0.00		-6.00		7.042e-02		-42.643		1.540e-02		13.155
3		0.00		-6.40		6.821e-02		-43.542		1.927e-02		23.584
3		0.00		-6.80		6.934e-02		-46.799		1.542e-02		19.196
3		0.00		-7.20		7.197e-02		-40.853		1.854e-02		19.211
3		0.00		-7.60		7.171e-02		-46.424		1.855e-02		19.979
3		0.00		-8.00		7.032e-02		-41.709		1.987e-02		17.692
3		0.00		-8.40		6.865e-02		-46.734		2.044e-02		17.558
3		0.00		-8.80		6.710e-02		-45.422		2.265e-02		18.992
3		0.00		-9.20		6.365e-02		-46.896		2.210e-02		21.853
3		0.00		-9.60		5.855e-02		-40.915		2.059e-02		23.686
3		0.00		-10.00		5.281e-02		-34.236		1.841e-02		23.804
3		0.00		-9.60		5.833e-02		-39.907		2.079e-02		24.770
3		0.00		-9.20		6.135e-02		-42.360		2.031e-02		17.034
3		0.00		-8.80		6.489e-02		-44.295		2.027e-02		16.729
3		0.00		-8.40		6.795e-02		-45.797		1.996e-02		15.445
3		0.00		-8.00		7.007e-02		-43.900		1.622e-02		12.542
3		0.00		-7.60		6.985e-02		-43.618		1.576e-02		12.188
3		0.00		-7.20		6.684e-02		-44.213		1.486e-02		13.232
3		0.00		-6.80		6.639e-02		-46.488		1.525e-02		14.190
3		0.00		-6.40		6.278e-02		-47.813		1.435e-02		15.181
3		0.00		-6.00		6.058e-02		-47.225		1.420e-02		12.767
3		0.00		-5.60		5.888e-02		-47.656		1.367e-02		11.228
3		0.00		-5.20		5.600e-02		-49.135		1.376e-02		13.317
3		0.00		-4.80		5.229e-02		-50.411		1.271e-02		12.474
3		0.00		-4.40		4.954e-02		-50.242		1.269e-02		12.166
3		0.00		-4.00		4.511e-02		-51.474		1.188e-02		11.965
3		0.00		-3.60		4.053e-02		-50.331		1.128e-02		9.171
3		0.00		-3.20		3.712e-02		-48.733		9.919e-03		7.285
3		0.00		-2.80		3.301e-02		-49.549		7.989e-03		8.078
3		0.00		-2.40		2.906e-02		-49.337		6.484e-03		8.682
3		0.00		-2.00		2.549e-02		-48.964		5.211e-03		8.966
3		0.00		-1.60		2.065e-02		-47.023		3.967e-03		9.420
3		0.00		-1.20		1.580e-02		-45.300		3.227e-03		10.009
3		0.00		-0.80		1.124e-02		-43.718		2.601e-03		12.628
3		0.00		-0.40		7.061e-03		-38.736		1.894e-03		18.895
4		0.00		0.00		3.265e-03		-27.511		1.408e-03		33.867
4		0.00		0.40		2.803e-03		68.606		1.007e-03		53.600
4		0.00		0.80		6.670e-03		115.787		2.070e-03		32.518
4		0.00		1.20		1.101e-02		123.975		3.249e-03		15.130
4		0.00		1.60		1.437e-02		126.029		3.873e-03		11.466
4		0.00		2.00		1.881e-02		128.442		4.603e-03		8.144
4		0.00		2.40		2.279e-02		128.324		4.921e-03		8.738
4		0.00		2.80		2.641e-02		129.853		5.645e-03		8.429
4		0.00		3.20		3.005e-02		129.869		6.298e-03		8.294
4		0.00		3.60		3.339e-02		130.879		7.023e-03		8.284
4		0.00		4.00		3.573e-02		132.011		7.632e-03		8.538
4		0.00		4.40		3.867e-02		131.175		9.410e-03		10.252
4		0.00		4.80		4.077e-02		131.175		1.128e-02		13.431
4		0.00		5.20		4.324e-02		130.211		1.251e-02		15.999
4		0.00		5.60		4.525e-02		130.256		1.375e-02		16.174
4		0.00		6.00		4.763e-02		130.412		1.436e-02		10.894
4		0.00		6.40		5.037e-02		131.494		1.463e-02		8.084
4		0.00		6.80		5.354e-02		131.545		1.432e-02		8.338
4		0.00		7.20		5.458e-02		131.821		1.380e-02		9.300
4		0.00		7.60		5.523e-02		133.202		1.317e-02		7.688
4		0.00		8.00		5.831e-02		132.648		1.398e-02		9.336
4		0.00		8.40		5.740e-02		133.033		1.491e-02		12.076
4		0.00		8.80		5.849e-02		133.452		1.517e-02		12.225
4		0.00		9.20		5.912e-02		130.853		1.785e-02		16.379
4		0.00		9.60		5.740e-02		127.857		1.860e-02		22.810
4		0.00		10.00		5.542e-02		132.732		1.751e-02		17.093
4		0.00		9.60		5.631e-02		130.126		1.776e-02		22.398
4		0.00		9.20		5.569e-02		131.821		1.701e-02		15.180
4		0.00		8.80		5.453e-02		130.390		1.636e-02		14.620
4		0.00		8.40		5.213e-02		132.325		1.473e-02		8.553
4		0.00		8.00		4.976e-02		132.934		1.306e-02		7.543
4		0.00		7.60		4.630e-02		133.165		1.168e-02		8.951
4		0.00		7.20		4.297e-02		133.139		1.044e-02		7.600
4		0.00		6.80		3.978e-02		132.194		9.519e-03		9.437
4		0.00		6.40		3.655e-02		132.597		8.502e-03		8.759
4		0.00		6.00		3.301e-02		132.973		7.881e-03		8.762
4		0.00		5.60		2.934e-02		134.187		7.234e-03		10.214
4		0.00		5.20		2.554e-02		132.542		6.602e-03		12.147
4		0.00		4.80		2.176e-02		132.609		5.789e-03		15.248
4		0.00		4.40		1.753e-02		131.619		4.788e-03		20.139
4		0.00		4.00		1.317e-02		133.546		3.895e-03		20.867
4		0.00		3.60		8.886e-03		131.057		2.598e-03		23.102
4		0.00		3.20		4.091e-03		124.637		1.323e-03		43.378
4		0.00		2.80		1.990e-03		-32.570		7.711e-04		72.306
4		0.00		2.40		5.616e-03		-58.951		1.708e-03		19.065
4		0.00		2.00		1.072e-02		-55.024		2.318e-03		11.897
4		0.00		1.60		1.559e-02		-53.105		2.873e-03		10.741
4		0.00		1.20		2.105e-02		-52.403		3.795e-03		8.942
4		0.00		0.80		2.604e-02		-50.349		4.381e-03		9.018
4		0.00		0.40		3.117e-02		-50.248		4.832e-03		8.049
4		0.00		0.00		3.534e-02		-50.789		6.017e-03		7.772
4		0.00		-0.40		4.094e-02		-50.289		6.821e-03		7.645
4		0.00		-0.80		4.542e-02		-49.782		8.459e-03		8.057
4		0.00		-1.20		4.867e-02		-50.648		9.569e-03		10.410
4		0.00		-1.60		5.194e-02		-51.443		1.145e-02		11.806
4		0.00		-2.00		5.292e-02		-51.959		1.322e-02		15.145
4		0.00		-2.40		5.823e-02		-51.467		1.559e-02		12.484
4		0.00		-2.80		6.032e-02		-52.154		1.677e-02		11.765
4		0.00		-3.20		6.386e-02		-51.784		1.698e-02		9.676
4		0.00		-3.60		6.207e-02		-50.874		1.630e-02		12.937
4		0.00		-4.00		6.553e-02		-48.525		1.487e-02		10.751
4		0.00		-4.40		6.848e-02		-46.972		1.620e-02		13.900
4		0.00		-4.80		6.885e-02		-43.888		1.797e-02		16.319
4		0.00		-5.20		6.912e-02		-49.155		1.424e-02		16.740
4		0.00		-5.60		6.692e-02		-41.417		1.773e-02		22.156
4		0.00		-6.00		7.095e-02		-46.826		1.733e-02		17.906
4		0.00		-6.40		7.245e-02		-43.464		1.963e-02		22.034
4		0.00		-6.80		7.097e-02		-40.222		2.015e-02		20.368
4		0.00		-7.20		6.983e-02		-38.447		2.221e-02		23.233
4		0.00		-7.60		6.706e-02		-42.615		2.186e-02		23.807
4		0.00		-8.00		6.731e-02		-41.202		2.142e-02		24.316
4		0.00		-8.40		6.978e-02		-43.766		2.286e-02		23.602
4		0.00		-8.80		6.526e-02		-44.731		2.255e-02		24.261
4		0.00		-9.20		6.278e-02		-43.618		2.196e-02		19.417
4		0.00		-9.60		5.934e-02		-41.687		2.019e-02		17.412
4		0.00		-10.00		5.451e-02		-45.309		1.662e-02		10.640
4		0.00		-9.60		5.813e-02		-47.353		1.755e-02		16.502
4		0.00		-9.20		6.202e-02		-44.151		1.825e-02		16.261
4		0.00		-8.80		6.582e-02		-48.818		1.925e-02		18.592
4		0.00		-8.40		6.672e-02		-49.653		1.929e-02		20.672
4		0.00		-8.00		6.795e-02		-46.122		1.870e-02		16.232
4		0.00		-7.60		6.970e-02		-44.266		1.916e-02		13.647
4		0.00		-7.20		6.620e-02		-43.622		1.826e-02		15.079
4		0.00		-6.80		6.334e-02		-44.619		1.694e-02		14.913
4		0.00		-6.40		6.228e-02		-46.528		1.828e-02		17.639
4		0.00		-6.00		6.022e-02		-45.632		1.649e-02		12.265
4		0.00		-5.60		5.946e-02		-46.898		1.616e-02		12.172
4		0.00		-5.20		5.642e-02		-48.427		1.465e-02		7.848
4		0.00		-4.80		5.576e-02		-49.733		1.198e-02		5.644
4		0.00		-4.40		5.195e-02		-50.968		1.011e-02		5.438
4		0.00		-4.00		4.813e-02		-50.855		8.817e-03		5.861
4		0.00		-3.60		4.391e-02		-50.866		7.722e-03		6.878
4		0.00		-3.20		3.997e-02		-51.217		7.304e-03		8.513
4		0.00		-2.80		3.573e-02		-49.740		6.281e-03		6.847
4		0.00		-2.40		3.133e-02		-47.458		6.421e-03		8.929
4		0.00		-2.00		2.686e-02		-46.418		5.665e-03		9.340
4		0.00		-1.60		2.251e-02		-47.108		5.159e-03		13.505
4		0.00		-1.20		1.846e-02		-47.143		4.408e-03		10.638
4		0.00		-0.80		1.397e-02		-41.666		3.466e-03		14.863
4		0.00		-0.40		9.749e-03		-39.779		2.408e-03		12.041
5		0.00		0.00		4.974e-03		-23.729		1.604e-03		27.727
5		0.00		0.40		2.017e-03		-7.650		8.613e-04		59.828
5		0.00		0.80		4.379e-03		105.682		1.432e-03		35.573
5		0.00		1.20		8.797e-03		122.845		2.408e-03		22.089
5		0.00		1.60		1.266e-02		127.646		2.619e-03		10.312
5		0.00		2.00		1.722e-02		128.949		3.697e-03		8.463
5		0.00		2.40		2.142e-02		128.940		4.724e-03		9.648
5		0.00		2.80		2.477e-02		129.372		5.968e-03		12.764
5		0.00		3.20		2.777e-02		130.551		7.030e-03		13.889
5		0.00		3.60		3.127e-02		130.597		7.991e-03		14.952
5		0.00		4.00		3.405e-02		130.586		9.107e-03		12.194
5		0.00		4.40		3.701e-02		132.405		1.007e-02		7.904
5		0.00		4.80		3.998e-02		131.064		1.071e-02		8.649
5		0.00		5.20		4.227e-02		130.251		1.078e-02		8.131
5		0.00		5.60		4.517e-02		130.760		1.070e-02		8.116
5		0.00		6.00		4.628e-02		131.914		1.050e-02		8.043
5		0.00		6.40		4.825e-02		133.011		1.068e-02		8.304
5		0.00		6.80		4.815e-02		133.812		1.048e-02		8.052
5		0.00		7.20		4.969e-02		133.850		1.200e-02		9.547
5		0.00		7.60		5.165e-02		133.194		1.390e-02		11.141
5		0.00		8.00		5.297e-02		129.126		1.604e-02		17.486
5		0.00		8.40		5.344e-02		130.888		1.638e-02		19.087
5		0.00		8.80		5.655e-02		130.603		1.731e-02		20.595
5		0.00		9.20		5.784e-02		129.139		1.817e-02		24.516
5		0.00		9.60		5.814e-02		132.133		1.788e-02		18.755
5		0.00		10.00		5.722e-02		132.389		1.838e-02		17.589
5		0.00		9.60		5.677e-02		131.277		1.775e-02		13.969
5		0.00		9.20		5.707e-02		131.468		1.599e-02		8.481
5		0.00		8.80		5.591e-02		132.007		1.573e-02		8.391
5		0.00		8.40		5.288e-02		132.496		1.295e-02		7.709
5		0.00		8.00		5.041e-02		132.894		1.155e-02		7.437
5		0.00		7.60		4.686e-02		132.647		1.009e-02		7.167
5		0.00		7.20		4.354e-02		133.604		9.351e-03		7.408
5		0.00		6.80		4.020e-02		133.759		8.293e-03		7.175
5		0.00		6.40		3.680e-02		134.055		7.532e-03		7.369
5		0.00		6.00		3.302e-02		133.796		7.340e-03		8.169
5		0.00		5.60		3.008e-02		134.323		6.492e-03		8.478
5		0.00		5.20		2.594e-02		133.502		6.100e-03		10.378
5		0.00		4.80		2.214e-02		134.513		5.335e-03		11.153
5		0.00		4.40		1.841e-02		137.143		4.497e-03		13.625
5		0.00		4.00		1.407e-02		132.557		3.782e-03		16.351
5		0.00		3.60		9.875e-03		135.988		2.777e-03		20.357
5		0.00		3.20		5.053e-03		125.705		1.752e-03		42.697
5		0.00		2.80		1.677e-03		-10.047		6.630e-04		78.648
5		0.00		2.40		5.187e-03		-64.949		1.449e-03		19.400
5		0.00		2.00		1.008e-02		-60.504		2.477e-03		14.731
5		0.00		1.60		1.473e-02		-49.708		3.222e-03		8.926
5		0.00		1.20		1.969e-02		-48.753		4.009e-03		9.534
5		0.00		0.80		2.508e-02		-51.917		4.830e-03		9.070
5		0.00		0.40		3.006e-02		-50.830		5.299e-03		7.756
5		0.00		0.00		3.491e-02		-50.253		5.561e-03		6.969
5		0.00		-0.40		3.928e-02		-50.683		6.897e-03		7.271
5		0.00		-0.80		4.350e-02		-52.060		7.952e-03		6.196
5		0.00		-1.20		4.758e-02		-52.422		8.981e-03		6.789
5		0.00		-1.60		5.122e-02		-52.726		9.809e-03		7.075
5		0.00		-2.00		5.498e-02		-51.962		1.118e-02		8.492
5		0.00		-2.40		5.719e-02		-52.805		1.226e-02		10.724
5		0.00		-2.80		5.897e-02		-54.241		1.510e-02		14.022
5		0.00		-3.20		5.912e-02		-54.921		1.591e-02		16.636
5		0.00		-3.60		6.265e-02		-52.708		1.555e-02		12.834
5		0.00		-4.00		6.477e-02		-51.823		1.694e-02		16.169
5		0.00		-4.40		6.613e-02		-47.273		1.609e-02		11.067
5		0.00		-4.80		6.839e-02		-45.293		1.716e-02		10.791
5		0.00		-5.20		6.896e-02		-45.549		1.864e-02		13.360
5		0.00		-5.60		6.857e-02		-44.122		1.796e-02		14.395
5		0.00		-6.00		6.715e-02		-42.276		1.866e-02		15.602
5		0.00		-6.40		7.054e-02		-44.198		1.912e-02		19.208
5		0.00		-6.80		6.815e-02		-43.424		2.028e-02		17.122
5		0.00		-7.20		6.874e-02		-41.363		2.005e-02		20.193
5		0.00		-7.60		6.617e-02		-39.187		1.896e-02		21.521
5		0.00		-8.00		6.889e-02		-40.322		2.122e-02		22.168
5		0.00		-8.40		6.535e-02		-40.812		2.123e-02		26.159
5		0.00		-8.80		6.383e-02		-39.988		2.082e-02		24.512
5		0.00		-9.20		6.149e-02		-38.906		2.111e-02		24.794
5		0.00		-9.60		5.939e-02		-36.314		2.051e-02		25.543
5		0.00		-10.00		5.319e-02		-39.357		1.880e-02		19.721
5		0.00		-9.60		5.788e-02		-37.795		1.917e-02		20.807
5		0.00		-9.20		6.277e-02		-37.349		2.114e-02		21.005
5		0.00		-8.80		6.419e-02		-38.527		1.993e-02		21.846
5		0.00		-8.40		6.545e-02		-36.976		1.979e-02		21.710
5		0.00		-8.00		6.508e-02		-39.078		1.934e-02		21.931
5		0.00		-7.60		6.567e-02		-41.665		1.807e-02		15.337
5		0.00		-7.20		6.772e-02		-43.608		1.900e-02		13.752
5		0.00		-6.80		6.397e-02		-42.949		1.595e-02		11.489
5		0.00		-6.40		6.243e-02		-43.702		1.632e-02		13.343
5		0.00		-6.00		6.218e-02		-45.322		1.737e-02		10.171
5		0.00		-5.60		6.072e-02		-47.008		1.581e-02		8.363
5		0.00		-5.20		5.812e-02		-48.878		1.499e-02		11.467
5		0.00		-4.80		5.584e-02		-49.781		1.395e-02		9.625
5		0.00		-4.40		5.186e-02		-51.168		1.272e-02		11.522
5		0.00		-4.00		4.735e-02		-50.617		1.262e-02		11.794
5		0.00		-3.60		4.337e-02		-51.491		1.190e-02		12.129
5		0.00		-3.20		4.005e-02		-51.414		1.037e-02		11.573
5		0.00		-2.80		3.590e-02		-48.726		9.265e-03		11.810
5		0.00		-2.40		3.160e-02		-50.238		8.261e-03		11.148
5		0.00		-2.00		2.799e-02		-48.488		7.094e-03		14.250
5		0.00		-1.60		2.377e-02		-46.215		5.719e-03		11.160
5		0.00		-1.20		1.939e-02		-47.392		4.743e-03		11.394
5		0.00		-0.80		1.475e-02		-43.233		3.547e-03		10.902
5		0.00		-0.40		1.032e-02		-38.375		2.485e-03		13.046
6		0.00		0.00		6.035e-03		-38.066		1.800e-03		16.624
6		0.00		0.40		2.448e-03		6.207		1.118e-03		53.627
6		0.00		0.80		3.291e-03		94.300		1.259e-03		37.709
6		0.00		1.20		7.792e-03		122.894		2.487e-03		25.937
6		0.00		1.60		1.179e-02		124.503		3.003e-03		20.478
6		0.00		2.00		1.599e-02		127.136		4.110e-03		17.426
6		0.00		2.40		2.006e-02		129.772		4.808e-03		15.564
6		0.00		2.80		2.371e-02		128.751		5.733e-03		16.902
6		0.00		3.20		2.720e-02		129.572		6.505e-03		14.919
6		0.00		3.60		3.024e-02		129.271		7.739e-03		15.750
6		0.00		4.00		3.303e-02		130.257		8.511e-03		16.318
6		0.00		4.40		3.621e-02		131.202		9.618e-03		14.839
6		0.00		4.80		3.821e-02		129.911		1.023e-02		17.253
6		0.00		5.20		4.094e-02		130.486		1.118e-02		15.694
6		0.00		5.60		4.297e-02		130.103		1.171e-02		17.023
6		0.00		6.00		4.582e-02		130.763		1.290e-02		14.164
6		0.00		6.40		4.753e-02		129.439		1.376e-02		19.667
6		0.00		6.80		4.959e-02		130.457		1.446e-02		17.380
6		0.00		7.20		5.180e-02		130.978		1.534e-02		17.710
6		0.00		7.60		5.307e-02		132.429		1.481e-02		13.198
6		0.00		8.00		5.409e-02		131.057		1.610e-02		19.683
6		0.00		8.40		5.525e-02		134.876		1.626e-02		10.618
6		0.00		8.80		5.668e-02		133.724		1.683e-02		12.851
6		0.00		9.20		5.873e-02		131.389		1.796e-02		16.675
6		0.00		9.60		5.758e-02		129.409		1.768e-02		19.042
6		0.00		10.00		5.602e-02		132.708		1.723e-02		13.559
6		0.00		9.60		5.460e-02		133.448		1.585e-02		13.094
6		0.00		9.20		5.512e-02		130.667		1.710e-02		18.478
6		0.00		8.80		5.228e-02		129.453		1.624e-02		19.537
6		0.00		8.40		4.809e-02		131.546		1.499e-02		17.610
6		0.00		8.00		4.616e-02		130.750		1.474e-02		17.953
6		0.00		7.60		4.395e-02		133.026		1.320e-02		11.378
6		0.00		7.20		4.111e-02		132.087		1.229e-02		13.726
6		0.00		6.80		3.859e-02		132.874		1.106e-02		11.422
6		0.00		6.40		3.536e-02		132.982		9.779e-03		10.357
6		0.00		6.00		3.221e-02		134.510		8.618e-03		10.073
6		0.00		5.60		2.858e-02		133.730		7.286e-03		10.271
6		0.00		5.20		2.503e-02		133.764		6.299e-03		11.026
6		0.00		4.80		2.172e-02		134.302		4.915e-03		9.418
6		0.00		4.40		1.778e-02		135.419		3.802e-03		10.418
6		0.00		4.00		1.360e-02		135.459		3.002e-03		11.763
6		0.00		3.60		9.019e-03		138.709		1.977e-03		12.390
6		0.00		3.20		4.663e-03		126.131		1.370e-03		46.742
6		0.00		2.80		1.844e-03		-32.453		7.832e-04		64.589
6		0.00		2.40		5.623e-03		-56.506		1.461e-03		14.918
6		0.00		2.00		1.013e-02		-52.704		2.035e-03		12.186
6		0.00		1.60		1.503e-02		-50.815		3.077e-03		9.490
6		0.00		1.20		1.917e-02		-48.124		3.791e-03		8.728
6		0.00		0.80		2.388e-02		-51.358		4.820e-03		8.978
6		0.00		0.40		2.870e-02		-49.774		5.401e-03		8.156
6		0.00		0.00		3.315e-02		-49.585		6.756e-03		8.701
6		0.00		-0.40		3.799e-02		-48.012		7.443e-03		7.077
6		0.00		-0.80		4.225e-02		-49.701		8.665e-03		8.055
6		0.00		-1.20		4.609e-02		-50.666		9.933e-03		7.686
6		0.00		-1.60		5.005e-02		-50.402		1.097e-02		9.687
6		0.00		-2.00		5.298e-02		-51.733		1.237e-02		9.451
6		0.00		-2.40		5.576e-02		-51.584		1.340e-02		12.007
6		0.00		-2.80		5.894e-02		-52.532		1.378e-02		12.241
6		0.00		-3.20		6.040e-02		-52.811		1.534e-02		12.788
6		0.00		-3.60		6.191e-02		-52.052		1.572e-02		12.314
6		0.00		-4.00		6.322e-02		-51.031		1.635e-02		13.480
6		0.00		-4.40		6.498e-02		-45.162		1.733e-02		11.843
6		0.00		-4.80		6.506e-02		-44.972		1.882e-02		13.021
6		0.00		-5.20		6.696e-02		-47.491		1.807e-02		14.819
6		0.00		-5.60		6.726e-02		-45.007		1.938e-02		13.403
6		0.00		-6.00		6.460e-02		-42.398		1.859e-02		12.136
6		0.00		-6.40		6.572e-02		-44.227		2.029e-02		15.065
6		0.00		-6.80		6.365e-02		-45.942		2.013e-02		19.155
6		0.00		-7.20		6.717e-02		-39.184		2.305e-02		22.915
6		0.00		-7.60		6.378e-02		-40.573		2.179e-02		23.327
6		0.00		-8.00		6.400e-02		-41.277		2.265e-02		23.260
6		0.00		-8.40		6.440e-02		-43.577		2.293e-02		26.120
6		0.00		-8.80		6.201e-02		-41.381		2.131e-02		26.879
6		0.00		-9.20		6.045e-02		-37.898		2.226e-02		27.689
6		0.00		-9.60		5.747e-02		-37.718		2.085e-02		29.044
6		0.00		-10.00		5.197e-02		-37.223		1.813e-02		30.260
6		0.00		-9.60		5.902e-02		-41.638		1.933e-02		24.418
6		0.00		-9.20		6.213e-02		-38.507		1.916e-02		22.099
6		0.00		-8.80		6.443e-02		-40.467		1.882e-02		20.271
6		0.00		-8.40		6.594e-02		-40.703		2.032e-02		16.859
6		0.00		-8.00		6.407e-02		-41.212		1.875e-02		16.572
6		0.00		-7.60		6.626e-02		-42.851		1.743e-02		15.435
6		0.00		-7.20		6.568e-02		-43.516		1.645e-02		13.963
6		0.00		-6.80		6.542e-02		-45.513		1.663e-02		11.807
6		0.00		-6.40		6.446e-02		-46.484		1.597e-02		9.249
6		0.00		-6.00		6.131e-02		-47.683		1.401e-02		8.300
6		0.00		-5.60		5.910e-02		-48.487		1.404e-02		7.149
6		0.00		-5.20		5.741e-02		-48.918		1.244e-02		6.504
6		0.00		-4.80		5.439e-02		-49.729		1.155e-02		6.075
6		0.00		-4.40		5.034e-02		-50.661		1.011e-02		5.157
6		0.00		-4.00		4.751e-02		-50.656		9.624e-03		5.988
6		0.00		-3.60		4.361e-02		-50.388		8.332e-03		5.812
6		0.00		-3.20		4.006e-02		-50.524		7.392e-03		6.859
6		0.00		-2.80		3.639e-02		-49.391		6.580e-03		7.212
6		0.00		-2.40		3.239e-02		-50.334		5.877e-03		7.741
6		0.00		-2.00		2.808e-02		-48.043		4.935e-03		7.978
6		0.00		-1.60		2.392e-02		-48.365		4.262e-03		8.639
6		0.00		-1.20		1.907e-02		-43.788		3.474e-03		9.188
6		0.00		-0.80		1.496e-02		-42.864		2.733e-03		10.702
6		0.00		-0.40		1.062e-02		-43.255		2.231e-03		13.127
7		0.00		0.00		5.813e-03		-30.301		1.620e-03		17.166
7		0.00		0.40		2.598e-03		-29.412		1.108e-03		37.887
7		0.00		0.80		3.691e-03		104.372		1.250e-03		34.724
7		0.00		1.20		7.064e-03		119.820		2.091e-03		24.500
7		0.00		1.60		1.110e-02		126.747		2.970e-03		18.666
7		0.00		2.00		1.532e-02		129.506		4.097e-03		13.645
7		0.00		2.40		1.890e-02		128.578		5.272e-03		14.533
7		0.00		2.80		2.227e-02		131.580		6.594e-03		10.366
7		0.00		3.20		2.586e-02		131.022		7.515e-03		7.467
7		0.00		3.60		2.895e-02		130.405		8.089e-03		8.973
7		0.00		4.00		3.202e-02		131.202		8.256e-03		7.812
7		0.00		4.40		3.516e-02		131.652		8.545e-03		8.049
7		0.00		4.80		3.751e-02		131.055		8.629e-03		7.183
7		0.00		5.20		3.984e-02		132.118		8.595e-03		6.123
7		0.00		5.60		4.270e-02		133.231		9.575e-03		7.066
7		0.00		6.00		4.535e-02		133.194		9.861e-03		6.683
7		0.00		6.40		4.735e-02		133.736		1.064e-02		7.617
7		0.00		6.80		4.802e-02		134.942		1.186e-02		7.699
7		0.00		7.20		5.053e-02		133.453		1.327e-02		11.253
7		0.00		7.60		5.296e-02		133.664		1.509e-02		10.989
7		0.00		8.00		5.373e-02		131.683		1.615e-02		19.430
7		0.00		8.40		5.631e-02		130.637		1.733e-02		18.392
7		0.00		8.80		5.669e-02		129.765		1.750e-02		15.382
7		0.00		9.20		5.698e-02		131.568		1.675e-02		9.457
7		0.00		9.60		5.701e-02		131.661		1.610e-02		8.387
7		0.00		10.00		5.483e-02		132.702		1.557e-02		9.832
7		0.00		9.60		5.407e-02		130.165		1.540e-02		11.395
7		0.00		9.20		5.194e-02		130.442		1.362e-02		11.943
7		0.00		8.80		5.193e-02		134.639		1.200e-02		8.261
7		0.00		8.40		4.908e-02		134.902		1.252e-02		9.003
7		0.00		8.00		4.587e-02		133.494		1.212e-02		9.337
7		0.00		7.60		4.367e-02		133.004		1.249e-02		11.965
7		0.00		7.20		4.026e-02		132.098		1.212e-02		17.110
7		0.00		6.80		3.749e-02		130.716		1.144e-02		19.419
7		0.00		6.40		3.420e-02		131.701		1.036e-02		14.009
7		0.00		6.00		3.128e-02		133.752		8.632e-03		8.426
7		0.00		5.60		2.809e-02		133.938		6.881e-03		8.544
7		0.00		5.20		2.471e-02		135.336		5.287e-03		8.876
7		0.00		4.80		2.088e-02		135.325		4.522e-03		8.974
7		0.00		4.40		1.629e-02		134.322		3.611e-03		9.721
7		0.00		4.00		1.189e-02		137.773		2.905e-03		9.765
7		0.00		3.60		7.576e-03		134.922		2.050e-03		15.836
7		0.00		3.20		3.388e-03		101.853		1.233e-03		76.273
7		0.00		2.80		2.417e-03		-52.763		9.529e-04		47.507
7		0.00		2.40		6.796e-03		-64.179		2.043e-03		17.904
7		0.00		2.00		1.151e-02		-58.596		2.460e-03		9.317
7		0.00		1.60		1.599e-02		-53.842		3.336e-03		9.291
7		0.00		1.20		2.049e-02		-50.743		4.061e-03		9.536
7		0.00		0.80		2.460e-02		-50.189		5.469e-03		9.495
7		0.00		0.40		2.866e-02		-49.496		6.722e-03		9.405
7		0.00		0.00		3.318e-02		-51.805		8.234e-03		12.753
7		0.00		-0.40		3.698e-02		-51.733		1.012e-02		13.249
7		0.00		-0.80		4.154e-02		-51.051		1.134e-02		7.257
7		0.00		-1.20		4.622e-02		-51.326		1.076e-02		6.633
7		0.00		-1.60		5.007e-02		-52.248		1.037e-02		6.118
7		0.00		-2.00		5.281e-02		-52.078		1.075e-02		7.143
7		0.00		-2.40		5.547e-02		-51.649		1.241e-02		9.782
7		0.00		-2.80		5.706e-02		-53.376		1.474e-02		13.202
7		0.00		-3.20		5.997e-02		-51.594		1.605e-02		13.849
7		0.00		-3.60		6.213e-02		-51.751		1.705e-02		10.601
7		0.00		-4.00		6.443e-02		-51.963		1.667e-02		10.040
7		0.00		-4.40		6.620e-02		-51.453		1.492e-02		9.944
7		0.00		-4.80		6.799e-02		-48.791		1.387e-02		8.954
7		0.00		-5.20		6.667e-02		-47.148		1.382e-02		11.267
7		0.00		-5.60		6.892e-02		-47.746		1.825e-02		15.871
7		0.00		-6.00		7.018e-02		-47.516		1.913e-02		13.664
7		0.00		-6.40		6.696e-02		-44.127		2.004e-02		19.770
7		0.00		-6.80		6.736e-02		-44.345		2.149e-02		17.976
7		0.00		-7.20		6.933e-02		-44.020		2.017e-02		15.764
7		0.00		-7.60		7.320e-02		-43.480		1.836e-02		16.200
7		0.00		-8.00		6.933e-02		-47.462		1.768e-02		19.328
7		0.00		-8.40		6.819e-02		-43.182		1.874e-02		16.586
7		0.00		-8.80		6.716e-02		-39.750		2.128e-02		18.130
7		0.00		-9.20		6.111e-02		-39.304		2.144e-02		25.334
7		0.00		-9.60		5.680e-02		-38.146		1.943e-02		29.105
7		0.00		-10.00		5.237e-02		-41.847		1.790e-02		16.142
7		0.00		-9.60		5.946e-02		-42.278		1.770e-02		9.649
7		0.00		-9.20		6.253e-02		-43.139		1.684e-02		15.990
7		0.00		-8.80		6.662e-02		-42.222		1.620e-02		14.291
7		0.00		-8.40		6.828e-02		-41.762		1.771e-02		13.495
7		0.00		-8.00		6.799e-02		-43.301		1.927e-02		13.476
7		0.00		-7.60		6.473e-02		-45.438		1.990e-02		17.966
7		0.00		-7.20		6.224e-02		-41.622		1.779e-02		15.184
7		0.00		-6.80		6.425e-02		-44.908		1.748e-02		10.908
7		0.00		-6.40		6.482e-02		-47.662		1.547e-02		8.565
7		0.00		-6.00		6.218e-02		-48.462		1.250e-02		9.667
7		0.00		-5.60		5.863e-02		-48.863		1.255e-02		10.708
7		0.00		-5.20		5.647e-02		-47.504		1.317e-02		7.568
7		0.00		-4.80		5.229e-02		-50.069		1.387e-02		12.702
7		0.00		-4.40		4.928e-02		-52.313		1.416e-02		17.283
7		0.00		-4.00		4.576e-02		-50.671		1.329e-02		9.821
7		0.00		-3.60		4.258e-02		-50.390		1.080e-02		7.104
7		0.00		-3.20		3.972e-02		-51.057		8.340e-03		6.216
7		0.00		-2.80		3.606e-02		-51.345		6.675e-03		6.299
7		0.00		-2.40		3.187e-02		-50.528		6.055e-03		8.084
7		0.00		-2.00		2.763e-02		-49.262		5.840e-03		8.430
7		0.00		-1.60		2.341e-02		-48.540		5.257e-03		11.594
7		0.00		-1.20		1.926e-02		-47.677		4.911e-03		14.788
7		0.00		-0.80		1.499e-02		-46.208		3.714e-03		10.657
7		0.00		-0.40		1.131e-02		-41.703		2.637e-03		9.587
8		0.00		0.00		6.783e-03		-44.073		1.634e-03		15.354
8		0.00		0.40		2.932e-03		-14.799		1.284e-03		38.739
8		0.00		0.80		2.740e-03		78.927		1.103e-03		50.955
8		0.00		1.20		6.594e-03		123.770		1.794e-03		17.012
8		0.00		1.60		1.056e-02		129.085		2.640e-03		15.370
8		0.00		2.00		1.466e-02		130.082		3.694e-03		13.590
8		0.00		2.40		1.847e-02		128.895		4.509e-03		13.606
8		0.00		2.80		2.222e-02		130.137		5.632e-03		9.411
8		0.00		3.20		2.596e-02		131.746		5.996e-03		8.977
8		0.00		3.60		2.921e-02		131.112		6.332e-03		7.201
8		0.00		4.00		3.166e-02		131.108		6.901e-03		7.408
8		0.00		4.40		3.442e-02		132.265		8.245e-03		8.028
8		0.00		4.80		3.694e-02		132.069		9.825e-03		11.988
8		0.00		5.20		3.913e-02		129.749		1.116e-02		18.608
8		0.00		5.60		4.266e-02		129.838		1.272e-02		17.797
8		0.00		6.00		4.615e-02		131.954		1.296e-02		7.404
8		0.00		6.40		4.793e-02		132.650		1.176e-02		7.725
8		0.00		6.80		4.890e-02		132.948		1.093e-02		8.976
8		0.00		7.20		5.107e-02		133.095		1.185e-02		11.043
8		0.00		7.60		5.244e-02		133.571		1.304e-02		11.251
8		0.00		8.00		5.432e-02		132.479		1.521e-02		15.815
8		0.00		8.40		5.607e-02		130.455		1.714e-02		24.946
8		0.00		8.80		5.804e-02		130.662		1.816e-02		20.915
8		0.00		9.20		5.830e-02		132.033		1.757e-02		14.054
8		0.00		9.60		5.696e-02		133.324		1.519e-02		10.035
8		0.00		10.00		5.419e-02		132.722		1.347e-02		10.749
8		0.00		9.60		5.665e-02		131.275		1.339e-02		11.014
8		0.00		9.20		5.586e-02		131.882		1.438e-02		11.417
8		0.00		8.80		5.308e-02		131.518		1.424e-02		14.057
8		0.00		8.40		4.915e-02		131.854		1.463e-02		16.490
8		0.00		8.00		4.691e-02		130.146		1.518e-02		19.686
8		0.00		7.60		4.358e-02		130.057		1.510e-02		16.929
8		0.00		7.20		4.095e-02		132.553		1.300e-02		9.053
8		0.00		6.80		3.798e-02		133.280		9.836e-03		7.953
8		0.00		6.40		3.490e-02		133.200		7.988e-03		6.734
8		0.00		6.00		3.167e-02		133.689		7.310e-03		7.199
8		0.00		5.60		2.776e-02		134.015		6.810e-03		8.223
8		0.00		5.20		2.401e-02		135.376		6.271e-03		11.548
8		0.00		4.80		1.969e-02		134.790		5.372e-03		15.455
8		0.00		4.40		1.609e-02		135.106		4.288e-03		18.337
8		0.00		4.00		1.199e-02		137.048		2.915e-03		13.957
8		0.00		3.60		7.695e-03		137.453		1.971e-03		12.259
8		0.00		3.20		3.168e-03		95.518		1.140e-03		71.838
8		0.00		2.80		2.644e-03		-71.286		8.978e-04		52.209
8		0.00		2.40		7.110e-03		-66.106		1.610e-03		15.536
8		0.00		2.00		1.181e-02		-54.591		2.445e-03		11.909
8		0.00		1.60		1.633e-02		-48.802		3.231e-03		9.909
8		0.00		1.20		2.098e-02		-50.023		4.173e-03		9.135
8		0.00		0.80		2.545e-02		-49.666		5.386e-03		11.909
8		0.00		0.40		3.012e-02		-49.961		6.878e-03		10.797
8		0.00		0.00		3.425e-02		-50.390		8.065e-03		9.256
8		0.00		-0.40		3.897e-02		-51.121		8.419e-03		6.252
8		0.00		-0.80		4.373e-02		-50.453		8.123e-03		6.394
8		0.00		-1.20		4.826e-02		-51.604		8.631e-03		6.710
8		0.00		-1.60		5.138e-02		-51.471		8.855e-03		6.122
8		0.00		-2.00		5.548e-02		-51.868		1.064e-02		6.933
8		0.00		-2.40		5.620e-02		-52.273		1.278e-02		12.410
8		0.00		-2.80		5.765e-02		-51.312		1.535e-02		12.436
8		0.00		-3.20		6.002e-02		-51.402		1.784e-02		15.526
8		0.00		-3.60		6.190e-02		-52.562		1.826e-02		14.803
8		0.00		-4.00		6.466e-02		-49.619		1.743e-02		10.307
8		0.00		-4.40		6.642e-02		-49.442		1.394e-02		9.063
8		0.00		-4.80		6.967e-02		-46.075		1.359e-02		10.942
8		0.00		-5.20		6.758e-02		-48.268		1.538e-02		17.488
8		0.00		-5.60		6.745e-02		-49.279		1.626e-02		15.904
8		0.00		-6.00		7.053e-02		-47.027		1.883e-02		17.781
8		0.00		-6.40		7.104e-02		-44.362		1.881e-02		12.594
8		0.00		-6.80		6.877e-02		-43.919		2.013e-02		17.250
8		0.00		-7.20		6.604e-02		-41.249		1.923e-02		19.950
8		0.00		-7.60		6.748e-02		-43.007		2.151e-02		23.272
8		0.00		-8.00		6.896e-02		-43.009		2.064e-02		18.376
8		0.00		-8.40		6.975e-02		-45.296		2.021e-02		16.145
8		0.00		-8.80		6.974e-02		-44.107		2.003e-02		14.684
8		0.00		-9.20		6.416e-02		-43.549		1.986e-02		17.637
8		0.00		-9.60		5.951e-02		-46.478		1.700e-02		13.874
8		0.00		-10.00		5.114e-02		-44.353		1.466e-02		11.946
8		0.00		-9.60		5.671e-02		-43.228		1.887e-02		11.110
8		0.00		-9.20		5.942e-02		-42.790		2.036e-02		17.501
8		0.00		-8.80		6.043e-02		-41.249		2.102e-02		21.254
8		0.00		-8.40		6.183e-02		-39.600		2.079e-02		22.103
8		0.00		-8.00		6.420e-02		-43.537		2.074e-02		17.348
8		0.00		-7.60		6.489e-02		-41.398		1.812e-02		12.403
8		0.00		-7.20		6.674e-02		-45.899		1.559e-02		11.112
8		0.00		-6.80		6.639e-02		-46.046		1.427e-02		11.196
8		0.00		-6.40		6.268e-02		-47.723		1.293e-02		11.470
8		0.00		-6.00		6.091e-02		-46.218		1.173e-02		7.454
8		0.00		-5.60		5.784e-02		-47.831		1.318e-02		10.823
8		0.00		-5.20		5.688e-02		-49.443		1.350e-02		10.953
8		0.00		-4.80		5.308e-02		-49.946		1.301e-02		12.809
8		0.00		-4.40		4.993e-02		-50.299		1.241e-02		13.113
8		0.00		-4.00		4.661e-02		-50.416		1.153e-02		14.107
8		0.00		-3.60		4.324e-02		-50.167		1.133e-02		7.906
8		0.00		-3.20		3.971e-02		-50.347		9.457e-03		7.722
8		0.00		-2.80		3.587e-02		-49.522		7.627e-03		6.697
8		0.00		-2.40		3.238e-02		-50.078		6.084e-03		7.041
8		0.00		-2.00		2.794e-02		-48.527		4.774e-03		7.111
8		0.00		-1.60		2.434e-02		-48.873		4.259e-03		8.186
8		0.00		-1.20		1.983e-02		-47.957		3.447e-03		9.923
8		0.00		-0.80		1.540e-02		-46.830		2.773e-03		9.799
8		0.00		-0.40		1.082e-02		-40.877		2.177e-03		11.803
