# Date of analysis: 2024-03-08 10;58
# Segment other properties: height: -62.43890942145178, diff height: 524.6826360804635, deflection: 33.212911573929816, deflection error: 5.866848602608174, adhesion: 13.977233298497373, phase offset: 0
# 
# Loop index	Read Volt (V)	Write Volt (V)	Amplitude (a.u)	Phase (deg)	Sigma Amp (a.u)	Sigma Pha (deg)	
1		0.00		0.00		1.816e-02		-45.121		4.844e-03		21.256
1		0.00		0.40		1.382e-02		-42.270		3.842e-03		21.505
1		0.00		0.80		9.394e-03		-40.486		3.045e-03		21.469
1		0.00		1.20		6.302e-03		-45.861		2.519e-03		20.482
1		0.00		1.60		3.311e-03		-26.875		1.563e-03		53.936
1		0.00		2.00		3.482e-03		21.933		1.451e-03		80.459
1		0.00		2.40		4.436e-03		59.946		2.190e-03		64.860
1		0.00		2.80		6.782e-03		79.267		3.384e-03		51.793
1		0.00		3.20		8.670e-03		86.654		4.033e-03		52.281
1		0.00		3.60		9.423e-03		91.313		4.094e-03		42.114
1		0.00		4.00		1.049e-02		88.427		4.181e-03		50.050
1		0.00		4.40		1.315e-02		103.560		5.795e-03		36.920
1		0.00		4.80		1.415e-02		109.093		4.750e-03		36.187
1		0.00		5.20		1.485e-02		108.376		4.894e-03		26.803
1		0.00		5.60		1.692e-02		111.868		6.487e-03		23.759
1		0.00		6.00		1.827e-02		115.727		6.642e-03		28.776
1		0.00		6.40		1.882e-02		114.338		7.517e-03		36.642
1		0.00		6.80		2.093e-02		108.967		9.350e-03		44.093
1		0.00		7.20		2.079e-02		99.958		9.593e-03		48.660
1		0.00		7.60		2.297e-02		95.142		1.099e-02		55.270
1		0.00		8.00		2.114e-02		75.854		1.029e-02		63.942
1		0.00		8.40		2.228e-02		86.555		1.003e-02		59.950
1		0.00		8.80		2.182e-02		95.888		8.612e-03		45.608
1		0.00		9.20		2.405e-02		104.595		9.100e-03		35.804
1		0.00		9.60		2.562e-02		107.359		9.307e-03		33.999
1		0.00		10.00		2.490e-02		110.006		8.899e-03		28.160
1		0.00		9.60		2.607e-02		114.052		1.046e-02		22.212
1		0.00		9.20		2.740e-02		113.382		1.182e-02		28.583
1		0.00		8.80		2.795e-02		108.943		1.219e-02		24.993
1		0.00		8.40		2.919e-02		111.540		1.318e-02		29.903
1		0.00		8.00		2.692e-02		99.364		1.264e-02		43.274
1		0.00		7.60		2.509e-02		93.684		1.295e-02		49.546
1		0.00		7.20		2.413e-02		99.063		1.315e-02		35.581
1		0.00		6.80		2.277e-02		105.028		1.207e-02		29.821
1		0.00		6.40		2.242e-02		107.023		1.071e-02		28.194
1		0.00		6.00		2.075e-02		111.049		9.130e-03		24.349
1		0.00		5.60		2.177e-02		112.720		1.076e-02		24.924
1		0.00		5.20		2.057e-02		113.256		1.054e-02		26.346
1		0.00		4.80		1.925e-02		104.308		1.051e-02		34.661
1		0.00		4.40		1.888e-02		103.831		1.012e-02		41.887
1		0.00		4.00		1.588e-02		94.138		8.774e-03		49.385
1		0.00		3.60		1.367e-02		88.054		7.286e-03		52.668
1		0.00		3.20		1.018e-02		75.253		5.962e-03		61.971
1		0.00		2.80		7.780e-03		63.119		4.121e-03		68.192
1		0.00		2.40		6.447e-03		47.795		3.475e-03		68.870
1		0.00		2.00		5.530e-03		24.006		3.203e-03		73.232
1		0.00		1.60		5.223e-03		9.750		3.064e-03		60.426
1		0.00		1.20		7.212e-03		-13.679		3.860e-03		45.735
1		0.00		0.80		8.950e-03		-32.304		3.890e-03		30.313
1		0.00		0.40		1.190e-02		-37.063		4.019e-03		25.084
1		0.00		0.00		1.530e-02		-43.288		4.583e-03		22.245
1		0.00		-0.40		1.979e-02		-44.276		5.649e-03		19.611
1		0.00		-0.80		2.347e-02		-42.297		6.688e-03		24.683
1		0.00		-1.20		2.596e-02		-48.445		8.310e-03		22.474
1		0.00		-1.60		2.761e-02		-48.497		1.057e-02		22.076
1		0.00		-2.00		2.930e-02		-50.157		1.078e-02		24.016
1		0.00		-2.40		3.069e-02		-52.078		1.126e-02		25.193
1		0.00		-2.80		3.325e-02		-53.317		1.112e-02		24.193
1		0.00		-3.20		3.582e-02		-49.413		1.035e-02		18.361
1		0.00		-3.60		3.820e-02		-47.296		1.086e-02		18.617
1		0.00		-4.00		3.921e-02		-44.849		1.087e-02		15.766
1		0.00		-4.40		4.224e-02		-38.590		1.271e-02		16.628
1		0.00		-4.80		4.349e-02		-41.587		1.252e-02		15.539
1		0.00		-5.20		4.489e-02		-39.635		1.552e-02		17.294
1		0.00		-5.60		4.464e-02		-36.790		1.723e-02		30.557
1		0.00		-6.00		4.506e-02		-36.150		1.815e-02		33.825
1		0.00		-6.40		4.604e-02		-35.640		1.759e-02		39.588
1		0.00		-6.80		4.768e-02		-45.746		1.800e-02		30.716
1		0.00		-7.20		4.889e-02		-43.240		1.795e-02		22.322
1		0.00		-7.60		4.896e-02		-34.585		1.937e-02		21.068
1		0.00		-8.00		4.677e-02		-33.902		1.788e-02		25.769
1		0.00		-8.40		4.251e-02		-35.066		1.655e-02		27.695
1		0.00		-8.80		3.862e-02		-27.699		1.512e-02		25.589
1		0.00		-9.20		3.758e-02		-27.754		1.468e-02		22.947
1		0.00		-9.60		3.240e-02		-19.125		1.517e-02		27.361
1		0.00		-10.00		2.880e-02		-24.218		1.463e-02		39.632
1		0.00		-9.60		3.212e-02		-16.521		1.524e-02		51.877
1		0.00		-9.20		3.542e-02		-38.635		1.431e-02		43.303
1		0.00		-8.80		3.892e-02		-40.418		1.734e-02		31.621
1		0.00		-8.40		4.243e-02		-42.578		1.814e-02		23.232
1		0.00		-8.00		4.202e-02		-36.884		1.621e-02		22.938
1		0.00		-7.60		3.963e-02		-37.732		1.523e-02		20.548
1		0.00		-7.20		3.797e-02		-39.109		1.561e-02		21.889
1		0.00		-6.80		3.428e-02		-37.102		1.340e-02		22.426
1		0.00		-6.40		3.260e-02		-32.640		1.348e-02		23.313
1		0.00		-6.00		3.192e-02		-33.015		1.489e-02		23.989
1		0.00		-5.60		2.966e-02		-36.375		1.393e-02		33.749
1		0.00		-5.20		2.898e-02		-46.064		1.353e-02		32.676
1		0.00		-4.80		2.822e-02		-47.274		1.335e-02		23.631
1		0.00		-4.40		2.616e-02		-47.649		1.227e-02		21.509
1		0.00		-4.00		2.481e-02		-52.916		1.165e-02		23.344
1		0.00		-3.60		2.281e-02		-52.065		1.090e-02		23.727
1		0.00		-3.20		1.856e-02		-52.828		9.186e-03		24.594
1		0.00		-2.80		1.734e-02		-53.229		8.613e-03		21.622
1		0.00		-2.40		1.615e-02		-51.547		8.308e-03		22.662
1		0.00		-2.00		1.549e-02		-49.596		8.024e-03		22.859
1		0.00		-1.60		1.278e-02		-50.368		7.474e-03		33.266
1		0.00		-1.20		1.129e-02		-51.328		6.297e-03		35.343
1		0.00		-0.80		9.788e-03		-60.719		5.121e-03		22.213
1		0.00		-0.40		7.932e-03		-61.003		3.945e-03		23.776
2		0.00		0.00		4.457e-03		-5.850		2.491e-03		60.664
2		0.00		0.40		7.988e-03		58.479		5.385e-03		52.633
2		0.00		0.80		1.016e-02		77.586		5.953e-03		46.721
2		0.00		1.20		1.397e-02		85.815		7.474e-03		44.797
2		0.00		1.60		1.828e-02		93.516		9.181e-03		37.943
2		0.00		2.00		1.900e-02		90.779		1.000e-02		45.930
2		0.00		2.40		2.120e-02		90.144		1.101e-02		38.925
2		0.00		2.80		1.952e-02		89.281		1.046e-02		32.789
2		0.00		3.20		2.071e-02		92.256		1.081e-02		26.400
2		0.00		3.60		2.064e-02		98.587		9.447e-03		26.280
2		0.00		4.00		2.466e-02		99.809		1.113e-02		23.796
2		0.00		4.40		2.858e-02		102.530		1.253e-02		23.207
2		0.00		4.80		3.427e-02		111.680		1.503e-02		22.836
2		0.00		5.20		3.472e-02		111.954		1.636e-02		33.155
2		0.00		5.60		3.325e-02		115.921		1.693e-02		29.025
2		0.00		6.00		3.187e-02		108.340		1.668e-02		30.846
2		0.00		6.40		3.086e-02		104.178		1.682e-02		31.544
2		0.00		6.80		3.223e-02		98.132		1.800e-02		39.543
2		0.00		7.20		2.847e-02		103.597		1.518e-02		32.858
2		0.00		7.60		2.526e-02		100.198		1.352e-02		33.856
2		0.00		8.00		2.660e-02		105.433		1.241e-02		29.305
2		0.00		8.40		3.105e-02		102.889		1.385e-02		30.166
2		0.00		8.80		3.045e-02		116.062		1.373e-02		27.381
2		0.00		9.20		3.094e-02		120.439		1.388e-02		25.229
2		0.00		9.60		3.100e-02		112.306		1.410e-02		25.582
2		0.00		10.00		2.737e-02		116.119		1.363e-02		33.288
2		0.00		9.60		2.862e-02		110.127		1.365e-02		40.745
2		0.00		9.20		2.842e-02		92.556		1.532e-02		46.436
2		0.00		8.80		2.937e-02		96.615		1.519e-02		47.013
2		0.00		8.40		2.610e-02		99.829		1.326e-02		39.233
2		0.00		8.00		2.216e-02		103.286		1.040e-02		35.073
2		0.00		7.60		2.157e-02		108.132		9.257e-03		34.907
2		0.00		7.20		2.398e-02		113.001		1.179e-02		31.558
2		0.00		6.80		2.061e-02		113.559		9.091e-03		32.385
2		0.00		6.40		1.839e-02		119.206		8.200e-03		30.812
2		0.00		6.00		1.768e-02		120.895		7.734e-03		27.240
2		0.00		5.60		1.588e-02		122.740		7.339e-03		32.508
2		0.00		5.20		1.379e-02		114.693		6.819e-03		48.518
2		0.00		4.80		1.240e-02		103.826		6.694e-03		54.534
2		0.00		4.40		9.712e-03		91.690		5.326e-03		63.573
2		0.00		4.00		7.851e-03		85.112		4.105e-03		71.880
2		0.00		3.60		6.409e-03		56.341		3.525e-03		86.403
2		0.00		3.20		5.002e-03		34.858		2.695e-03		94.107
2		0.00		2.80		4.588e-03		-14.045		2.395e-03		99.702
2		0.00		2.40		4.593e-03		-45.628		2.528e-03		79.580
2		0.00		2.00		5.670e-03		-61.710		3.417e-03		47.832
2		0.00		1.60		8.234e-03		-61.330		3.795e-03		19.149
2		0.00		1.20		1.170e-02		-55.170		3.949e-03		16.244
2		0.00		0.80		1.432e-02		-51.189		4.561e-03		13.663
2		0.00		0.40		1.782e-02		-47.454		5.129e-03		11.567
2		0.00		0.00		2.105e-02		-47.255		5.990e-03		11.966
2		0.00		-0.40		2.436e-02		-46.842		7.602e-03		12.721
2		0.00		-0.80		2.824e-02		-47.832		8.294e-03		12.012
2		0.00		-1.20		3.124e-02		-47.551		1.015e-02		13.378
2		0.00		-1.60		3.237e-02		-44.637		1.153e-02		17.369
2		0.00		-2.00		3.379e-02		-43.600		1.327e-02		21.161
2		0.00		-2.40		3.474e-02		-41.718		1.362e-02		30.043
2		0.00		-2.80		3.549e-02		-47.099		1.380e-02		33.554
2		0.00		-3.20		3.741e-02		-53.556		1.327e-02		20.442
2		0.00		-3.60		3.924e-02		-47.956		1.348e-02		16.174
2		0.00		-4.00		3.933e-02		-44.108		1.296e-02		17.695
2		0.00		-4.40		4.139e-02		-39.701		1.434e-02		16.576
2		0.00		-4.80		3.948e-02		-38.739		1.382e-02		19.777
2		0.00		-5.20		4.070e-02		-39.352		1.466e-02		19.792
2		0.00		-5.60		4.081e-02		-39.690		1.420e-02		20.885
2		0.00		-6.00		3.917e-02		-33.565		1.363e-02		21.929
2		0.00		-6.40		3.961e-02		-29.479		1.435e-02		19.062
2		0.00		-6.80		3.914e-02		-26.559		1.412e-02		19.820
2		0.00		-7.20		3.889e-02		-22.601		1.634e-02		22.130
2		0.00		-7.60		3.993e-02		-22.663		1.755e-02		23.367
2		0.00		-8.00		3.944e-02		-23.977		1.784e-02		27.517
2		0.00		-8.40		4.081e-02		-37.036		1.746e-02		36.286
2		0.00		-8.80		4.351e-02		-35.906		1.772e-02		35.064
2		0.00		-9.20		3.854e-02		-39.529		1.673e-02		46.009
2		0.00		-9.60		3.371e-02		-40.167		1.505e-02		37.210
2		0.00		-10.00		2.944e-02		-42.405		1.264e-02		33.119
2		0.00		-9.60		3.174e-02		-48.714		1.208e-02		29.440
2		0.00		-9.20		3.416e-02		-48.092		1.157e-02		28.268
2		0.00		-8.80		3.835e-02		-44.219		1.267e-02		24.699
2		0.00		-8.40		4.063e-02		-43.287		1.232e-02		24.579
2		0.00		-8.00		4.187e-02		-39.887		1.138e-02		20.623
2		0.00		-7.60		4.040e-02		-41.273		1.042e-02		23.242
2		0.00		-7.20		3.881e-02		-39.056		1.020e-02		22.970
2		0.00		-6.80		3.865e-02		-39.363		1.047e-02		20.354
2		0.00		-6.40		3.689e-02		-41.156		9.365e-03		18.667
2		0.00		-6.00		3.607e-02		-38.926		9.603e-03		17.039
2		0.00		-5.60		3.479e-02		-40.152		8.381e-03		15.873
2		0.00		-5.20		3.297e-02		-40.460		7.352e-03		14.705
2		0.00		-4.80		3.144e-02		-40.747		7.467e-03		13.360
2		0.00		-4.40		3.026e-02		-38.494		7.619e-03		10.872
2		0.00		-4.00		2.839e-02		-39.761		7.185e-03		12.173
2		0.00		-3.60		2.760e-02		-41.912		6.822e-03		10.951
2		0.00		-3.20		2.639e-02		-43.219		7.520e-03		10.891
2		0.00		-2.80		2.446e-02		-43.026		7.466e-03		12.045
2		0.00		-2.40		2.253e-02		-41.614		6.702e-03		12.132
2		0.00		-2.00		2.083e-02		-41.694		6.561e-03		13.894
2		0.00		-1.60		1.889e-02		-42.919		6.117e-03		14.896
2		0.00		-1.20		1.619e-02		-38.730		5.229e-03		20.151
2		0.00		-0.80		1.409e-02		-43.219		4.679e-03		18.123
2		0.00		-0.40		1.223e-02		-40.486		4.584e-03		22.022
3		0.00		0.00		9.351e-03		-42.579		3.688e-03		24.560
3		0.00		0.40		7.419e-03		-44.552		2.762e-03		29.425
3		0.00		0.80		5.119e-03		-38.449		2.420e-03		33.600
3		0.00		1.20		3.559e-03		-55.452		1.654e-03		32.949
3		0.00		1.60		2.333e-03		-51.863		1.159e-03		52.573
3		0.00		2.00		1.820e-03		-13.180		8.557e-04		88.336
3		0.00		2.40		2.656e-03		53.891		1.165e-03		86.768
3		0.00		2.80		3.955e-03		89.337		1.716e-03		79.952
3		0.00		3.20		4.818e-03		89.414		2.013e-03		86.272
3		0.00		3.60		6.031e-03		111.718		2.771e-03		48.882
3		0.00		4.00		6.723e-03		111.575		2.518e-03		59.125
3		0.00		4.40		7.827e-03		113.654		2.930e-03		53.462
3		0.00		4.80		8.777e-03		117.742		3.388e-03		46.950
3		0.00		5.20		9.302e-03		108.117		3.873e-03		57.356
3		0.00		5.60		9.995e-03		112.042		4.250e-03		54.858
3		0.00		6.00		1.089e-02		110.377		4.772e-03		61.544
3		0.00		6.40		1.122e-02		107.138		4.543e-03		63.679
3		0.00		6.80		1.251e-02		115.101		5.383e-03		56.088
3		0.00		7.20		1.226e-02		108.615		5.620e-03		62.459
3		0.00		7.60		1.277e-02		97.877		5.938e-03		75.273
3		0.00		8.00		1.368e-02		91.959		5.954e-03		79.166
3		0.00		8.40		1.392e-02		97.293		6.174e-03		77.259
3		0.00		8.80		1.261e-02		89.368		5.902e-03		84.218
3		0.00		9.20		1.241e-02		75.547		5.977e-03		90.895
3		0.00		9.60		1.235e-02		87.496		6.089e-03		83.122
3		0.00		10.00		1.102e-02		62.647		5.299e-03		99.225
3		0.00		9.60		1.168e-02		80.702		5.130e-03		90.010
3		0.00		9.20		1.100e-02		79.193		5.184e-03		91.501
3		0.00		8.80		1.130e-02		77.534		5.077e-03		87.964
3		0.00		8.40		9.882e-03		74.064		4.342e-03		89.600
3		0.00		8.00		9.499e-03		78.032		4.281e-03		80.214
3		0.00		7.60		8.985e-03		76.006		4.222e-03		85.652
3		0.00		7.20		9.072e-03		96.550		4.237e-03		65.496
3		0.00		6.80		8.329e-03		108.312		3.745e-03		60.261
3		0.00		6.40		7.772e-03		100.347		4.058e-03		67.823
3		0.00		6.00		6.774e-03		93.066		3.475e-03		80.267
3		0.00		5.60		6.180e-03		85.377		3.449e-03		88.425
3		0.00		5.20		5.366e-03		81.069		2.960e-03		87.257
3		0.00		4.80		4.235e-03		69.078		2.511e-03		92.837
3		0.00		4.40		3.272e-03		39.175		1.949e-03		100.910
3		0.00		4.00		3.015e-03		3.700		1.251e-03		108.063
3		0.00		3.60		2.662e-03		-4.807		1.056e-03		84.174
3		0.00		3.20		3.292e-03		-71.230		1.614e-03		48.399
3		0.00		2.80		4.808e-03		-71.835		2.433e-03		37.048
3		0.00		2.40		6.902e-03		-62.622		2.740e-03		29.713
3		0.00		2.00		9.152e-03		-54.784		3.219e-03		22.299
3		0.00		1.60		1.098e-02		-58.948		3.708e-03		21.432
3		0.00		1.20		1.358e-02		-54.548		4.607e-03		18.755
3		0.00		0.80		1.539e-02		-53.901		5.309e-03		21.652
3		0.00		0.40		1.774e-02		-55.881		6.482e-03		21.974
3		0.00		0.00		2.063e-02		-53.681		7.210e-03		21.443
3		0.00		-0.40		2.256e-02		-52.910		8.221e-03		20.761
3		0.00		-0.80		2.442e-02		-50.692		9.183e-03		23.741
3		0.00		-1.20		2.637e-02		-49.888		1.024e-02		23.905
3		0.00		-1.60		2.832e-02		-51.806		1.129e-02		25.319
3		0.00		-2.00		2.864e-02		-53.406		1.109e-02		26.727
3		0.00		-2.40		3.038e-02		-53.360		1.190e-02		30.225
3		0.00		-2.80		3.192e-02		-51.403		1.221e-02		36.309
3		0.00		-3.20		3.194e-02		-51.941		1.202e-02		38.108
3		0.00		-3.60		3.370e-02		-53.065		1.211e-02		34.549
3		0.00		-4.00		3.445e-02		-58.195		1.196e-02		28.839
3		0.00		-4.40		3.619e-02		-57.443		1.186e-02		26.042
3		0.00		-4.80		3.748e-02		-52.129		1.078e-02		22.665
3		0.00		-5.20		3.851e-02		-50.948		1.060e-02		22.113
3		0.00		-5.60		4.000e-02		-51.691		1.129e-02		23.398
3		0.00		-6.00		4.082e-02		-49.728		1.105e-02		22.075
3		0.00		-6.40		4.128e-02		-49.586		1.167e-02		22.214
3		0.00		-6.80		4.165e-02		-46.507		1.158e-02		22.810
3		0.00		-7.20		4.314e-02		-47.980		1.157e-02		19.965
3		0.00		-7.60		4.506e-02		-44.948		1.226e-02		19.928
3		0.00		-8.00		4.382e-02		-46.763		1.247e-02		20.777
3		0.00		-8.40		4.335e-02		-49.635		1.321e-02		21.096
3		0.00		-8.80		3.988e-02		-45.859		1.251e-02		20.203
3		0.00		-9.20		3.738e-02		-47.281		1.245e-02		20.309
3		0.00		-9.60		3.408e-02		-47.418		1.115e-02		18.309
3		0.00		-10.00		2.829e-02		-46.793		9.485e-03		20.685
3		0.00		-9.60		3.246e-02		-42.892		1.127e-02		18.199
3		0.00		-9.20		3.479e-02		-39.446		1.140e-02		18.093
3		0.00		-8.80		3.657e-02		-34.160		1.215e-02		18.708
3		0.00		-8.40		3.772e-02		-33.825		1.218e-02		17.977
3		0.00		-8.00		3.804e-02		-36.981		1.221e-02		18.796
3		0.00		-7.60		3.820e-02		-36.528		1.269e-02		18.708
3		0.00		-7.20		3.657e-02		-38.710		1.318e-02		20.221
3		0.00		-6.80		3.650e-02		-42.494		1.284e-02		18.616
3		0.00		-6.40		3.625e-02		-44.441		1.305e-02		19.177
3		0.00		-6.00		3.436e-02		-46.787		1.278e-02		18.111
3		0.00		-5.60		3.377e-02		-46.491		1.281e-02		18.999
3		0.00		-5.20		3.162e-02		-48.099		1.233e-02		19.362
3		0.00		-4.80		3.008e-02		-47.905		1.153e-02		20.549
3		0.00		-4.40		2.804e-02		-50.836		1.054e-02		22.539
3		0.00		-4.00		2.538e-02		-53.815		9.447e-03		19.098
3		0.00		-3.60		2.306e-02		-57.055		8.300e-03		18.407
3		0.00		-3.20		2.100e-02		-55.458		7.252e-03		20.186
3		0.00		-2.80		1.964e-02		-57.068		6.225e-03		20.896
3		0.00		-2.40		1.859e-02		-55.803		5.372e-03		19.500
3		0.00		-2.00		1.671e-02		-55.816		4.191e-03		17.899
3		0.00		-1.60		1.455e-02		-52.445		3.949e-03		18.857
3		0.00		-1.20		1.280e-02		-51.296		3.464e-03		19.361
3		0.00		-0.80		1.099e-02		-54.393		2.785e-03		19.257
3		0.00		-0.40		8.968e-03		-48.813		2.280e-03		18.702
4		0.00		0.00		7.143e-03		-45.959		2.291e-03		20.139
4		0.00		0.40		5.123e-03		-46.719		2.047e-03		25.740
4		0.00		0.80		4.031e-03		-47.983		1.684e-03		26.191
4		0.00		1.20		2.622e-03		-37.912		1.141e-03		66.146
4		0.00		1.60		2.595e-03		8.846		1.179e-03		96.051
4		0.00		2.00		3.112e-03		54.598		1.655e-03		90.081
4		0.00		2.40		4.453e-03		78.015		2.291e-03		82.841
4		0.00		2.80		6.135e-03		109.397		3.370e-03		69.487
4		0.00		3.20		6.832e-03		96.368		3.381e-03		74.565
4		0.00		3.60		7.819e-03		118.321		3.589e-03		46.726
4		0.00		4.00		8.311e-03		113.144		3.677e-03		45.604
4		0.00		4.40		9.746e-03		125.242		4.307e-03		28.261
4		0.00		4.80		1.110e-02		123.382		4.486e-03		42.024
4		0.00		5.20		1.185e-02		131.316		4.455e-03		20.936
4		0.00		5.60		1.307e-02		133.556		4.991e-03		22.839
4		0.00		6.00		1.403e-02		128.159		5.464e-03		36.571
4		0.00		6.40		1.398e-02		132.894		5.392e-03		26.130
4		0.00		6.80		1.470e-02		136.605		5.705e-03		22.990
4		0.00		7.20		1.394e-02		137.407		5.241e-03		24.770
4		0.00		7.60		1.538e-02		129.472		6.112e-03		35.348
4		0.00		8.00		1.581e-02		109.893		6.540e-03		56.488
4		0.00		8.40		1.697e-02		112.314		6.755e-03		55.441
4		0.00		8.80		1.780e-02		117.957		6.926e-03		46.922
4		0.00		9.20		1.916e-02		116.354		7.244e-03		54.584
4		0.00		9.60		1.937e-02		120.417		6.890e-03		30.372
4		0.00		10.00		1.949e-02		116.483		7.637e-03		48.421
4		0.00		9.60		1.968e-02		121.035		8.041e-03		38.986
4		0.00		9.20		1.811e-02		117.142		7.000e-03		48.241
4		0.00		8.80		1.703e-02		120.536		6.372e-03		54.627
4		0.00		8.40		1.614e-02		128.498		6.113e-03		47.164
4		0.00		8.00		1.655e-02		128.538		6.983e-03		38.353
4		0.00		7.60		1.592e-02		130.463		6.789e-03		31.158
4		0.00		7.20		1.512e-02		118.280		7.212e-03		51.434
4		0.00		6.80		1.359e-02		109.063		6.728e-03		55.845
4		0.00		6.40		1.230e-02		107.703		6.546e-03		65.446
4		0.00		6.00		1.166e-02		114.391		6.119e-03		43.343
4		0.00		5.60		1.026e-02		108.323		4.837e-03		58.550
4		0.00		5.20		8.880e-03		115.102		4.545e-03		51.143
4		0.00		4.80		7.606e-03		109.616		3.900e-03		54.695
4		0.00		4.40		7.230e-03		97.589		4.166e-03		68.607
4		0.00		4.00		6.196e-03		69.115		3.645e-03		73.511
4		0.00		3.60		4.595e-03		59.964		2.017e-03		83.672
4		0.00		3.20		4.658e-03		15.700		1.761e-03		103.523
4		0.00		2.80		4.324e-03		-29.666		1.944e-03		85.348
4		0.00		2.40		5.226e-03		-79.344		2.667e-03		50.866
4		0.00		2.00		6.054e-03		-65.329		3.839e-03		35.730
4		0.00		1.60		7.622e-03		-60.585		3.854e-03		29.042
4		0.00		1.20		9.591e-03		-59.402		4.373e-03		20.370
4		0.00		0.80		1.139e-02		-59.599		4.903e-03		19.305
4		0.00		0.40		1.348e-02		-59.459		4.724e-03		24.229
4		0.00		0.00		1.572e-02		-57.580		5.014e-03		21.988
4		0.00		-0.40		1.836e-02		-55.226		5.318e-03		21.098
4		0.00		-0.80		2.095e-02		-54.137		5.688e-03		18.945
4		0.00		-1.20		2.378e-02		-54.862		6.106e-03		17.641
4		0.00		-1.60		2.637e-02		-50.870		6.609e-03		15.678
4		0.00		-2.00		2.875e-02		-48.704		7.182e-03		14.343
4		0.00		-2.40		3.204e-02		-46.904		8.437e-03		11.011
4		0.00		-2.80		3.315e-02		-48.238		9.636e-03		12.807
4		0.00		-3.20		3.363e-02		-48.969		1.090e-02		12.801
4		0.00		-3.60		3.568e-02		-50.300		1.188e-02		16.886
4		0.00		-4.00		3.576e-02		-52.374		1.264e-02		17.629
4		0.00		-4.40		3.677e-02		-52.756		1.359e-02		21.831
4		0.00		-4.80		3.749e-02		-51.190		1.389e-02		25.303
4		0.00		-5.20		3.759e-02		-56.549		1.348e-02		26.079
4		0.00		-5.60		3.852e-02		-55.492		1.262e-02		23.738
4		0.00		-6.00		4.077e-02		-50.938		1.231e-02		22.063
4		0.00		-6.40		4.037e-02		-52.029		1.344e-02		24.018
4		0.00		-6.80		4.207e-02		-53.049		1.564e-02		24.202
4		0.00		-7.20		4.372e-02		-48.570		1.501e-02		21.138
4		0.00		-7.60		4.363e-02		-41.837		1.350e-02		20.314
4		0.00		-8.00		4.292e-02		-38.122		1.357e-02		18.558
4		0.00		-8.40		4.010e-02		-39.251		1.498e-02		22.106
4		0.00		-8.80		3.706e-02		-41.430		1.500e-02		26.145
4		0.00		-9.20		3.504e-02		-41.736		1.440e-02		32.036
4		0.00		-9.60		3.274e-02		-37.459		1.405e-02		37.348
4		0.00		-10.00		2.832e-02		-48.147		1.225e-02		36.675
4		0.00		-9.60		3.085e-02		-45.436		1.376e-02		38.197
4		0.00		-9.20		3.304e-02		-47.818		1.349e-02		34.379
4		0.00		-8.80		3.654e-02		-51.694		1.357e-02		28.139
4		0.00		-8.40		3.812e-02		-52.753		1.254e-02		27.554
4		0.00		-8.00		3.953e-02		-50.645		1.313e-02		24.602
4		0.00		-7.60		3.949e-02		-50.831		1.365e-02		24.341
4		0.00		-7.20		3.914e-02		-49.091		1.317e-02		21.852
4		0.00		-6.80		3.795e-02		-48.445		1.282e-02		20.939
4		0.00		-6.40		3.651e-02		-43.629		1.099e-02		17.177
4		0.00		-6.00		3.441e-02		-39.138		1.032e-02		15.744
4		0.00		-5.60		3.306e-02		-39.821		1.005e-02		15.853
4		0.00		-5.20		3.098e-02		-42.812		9.565e-03		17.222
4		0.00		-4.80		3.018e-02		-47.931		9.412e-03		16.683
4		0.00		-4.40		2.869e-02		-50.775		8.789e-03		17.405
4		0.00		-4.00		2.669e-02		-50.202		8.803e-03		18.496
4		0.00		-3.60		2.487e-02		-51.356		8.602e-03		17.657
4		0.00		-3.20		2.203e-02		-52.732		8.170e-03		22.027
4		0.00		-2.80		2.051e-02		-53.853		7.325e-03		22.640
4		0.00		-2.40		1.830e-02		-55.751		6.512e-03		20.563
4		0.00		-2.00		1.659e-02		-58.676		5.719e-03		21.329
4		0.00		-1.60		1.435e-02		-57.437		4.798e-03		21.297
4		0.00		-1.20		1.205e-02		-58.635		4.082e-03		23.106
4		0.00		-0.80		1.084e-02		-52.023		3.260e-03		24.134
4		0.00		-0.40		8.685e-03		-54.810		2.852e-03		19.602
5		0.00		0.00		6.549e-03		-55.468		2.383e-03		24.392
5		0.00		0.40		5.338e-03		-58.631		2.084e-03		27.555
5		0.00		0.80		3.522e-03		-62.166		1.563e-03		37.682
5		0.00		1.20		2.629e-03		-46.973		1.030e-03		74.135
5		0.00		1.60		2.519e-03		9.059		1.233e-03		95.679
5		0.00		2.00		3.168e-03		62.842		1.566e-03		88.434
5		0.00		2.40		4.754e-03		102.768		2.620e-03		64.116
5		0.00		2.80		6.119e-03		97.475		3.233e-03		70.842
5		0.00		3.20		7.436e-03		110.329		3.734e-03		57.196
5		0.00		3.60		9.047e-03		117.894		4.564e-03		47.182
5		0.00		4.00		1.023e-02		107.831		4.880e-03		53.949
5		0.00		4.40		1.163e-02		113.533		5.570e-03		55.120
5		0.00		4.80		1.162e-02		116.366		5.567e-03		39.388
5		0.00		5.20		1.244e-02		113.922		5.836e-03		39.021
5		0.00		5.60		1.303e-02		119.706		6.037e-03		32.033
5		0.00		6.00		1.378e-02		125.813		5.599e-03		26.215
5		0.00		6.40		1.432e-02		123.461		5.964e-03		32.574
5		0.00		6.80		1.464e-02		124.243		5.216e-03		26.869
5		0.00		7.20		1.563e-02		123.674		6.120e-03		30.755
5		0.00		7.60		1.700e-02		129.387		6.483e-03		25.435
5		0.00		8.00		1.787e-02		125.873		6.803e-03		37.695
5		0.00		8.40		1.886e-02		131.482		6.769e-03		28.806
5		0.00		8.80		1.907e-02		130.249		6.906e-03		28.193
5		0.00		9.20		1.947e-02		125.395		6.702e-03		41.850
5		0.00		9.60		2.014e-02		123.238		7.048e-03		46.103
5		0.00		10.00		1.857e-02		125.021		6.989e-03		39.667
5		0.00		9.60		1.875e-02		124.801		6.772e-03		47.463
5		0.00		9.20		1.846e-02		131.846		6.138e-03		31.971
5		0.00		8.80		1.799e-02		138.829		5.968e-03		21.236
5		0.00		8.40		1.788e-02		138.965		6.506e-03		20.727
5		0.00		8.00		1.835e-02		136.140		6.766e-03		28.326
5		0.00		7.60		1.655e-02		137.694		6.172e-03		25.970
5		0.00		7.20		1.469e-02		133.343		6.018e-03		30.899
5		0.00		6.80		1.412e-02		132.007		6.159e-03		31.688
5		0.00		6.40		1.288e-02		128.732		5.867e-03		41.882
5		0.00		6.00		1.221e-02		119.912		6.111e-03		54.053
5		0.00		5.60		1.072e-02		113.701		5.662e-03		62.786
5		0.00		5.20		8.952e-03		91.000		4.841e-03		84.800
5		0.00		4.80		8.189e-03		84.264		4.600e-03		83.566
5		0.00		4.40		7.059e-03		75.814		3.964e-03		87.559
5		0.00		4.00		5.790e-03		65.567		3.142e-03		86.871
5		0.00		3.60		5.255e-03		49.695		2.526e-03		89.451
5		0.00		3.20		4.496e-03		44.979		2.282e-03		89.316
5		0.00		2.80		3.970e-03		-34.235		2.145e-03		85.292
5		0.00		2.40		4.539e-03		-59.401		2.384e-03		68.692
5		0.00		2.00		5.921e-03		-82.132		3.054e-03		36.037
5		0.00		1.60		8.021e-03		-67.014		3.404e-03		23.229
5		0.00		1.20		9.993e-03		-62.860		3.387e-03		20.424
5		0.00		0.80		1.165e-02		-60.292		3.658e-03		19.751
5		0.00		0.40		1.435e-02		-58.985		4.017e-03		17.915
5		0.00		0.00		1.676e-02		-55.956		4.155e-03		15.861
5		0.00		-0.40		1.971e-02		-52.398		4.681e-03		15.394
5		0.00		-0.80		2.217e-02		-52.064		5.288e-03		15.682
5		0.00		-1.20		2.428e-02		-51.193		6.115e-03		15.584
5		0.00		-1.60		2.722e-02		-47.785		6.883e-03		15.376
5		0.00		-2.00		2.947e-02		-49.894		7.762e-03		16.433
5		0.00		-2.40		3.025e-02		-49.674		8.455e-03		17.467
5		0.00		-2.80		3.162e-02		-52.492		9.218e-03		18.959
5		0.00		-3.20		3.364e-02		-51.569		1.053e-02		18.363
5		0.00		-3.60		3.587e-02		-49.871		1.127e-02		18.814
5		0.00		-4.00		3.611e-02		-51.847		1.198e-02		19.457
5		0.00		-4.40		3.785e-02		-54.514		1.304e-02		18.253
5		0.00		-4.80		3.879e-02		-53.648		1.380e-02		20.570
5		0.00		-5.20		4.015e-02		-53.505		1.409e-02		20.264
5		0.00		-5.60		4.010e-02		-53.831		1.380e-02		21.592
5		0.00		-6.00		3.944e-02		-56.094		1.363e-02		24.402
5		0.00		-6.40		4.107e-02		-54.616		1.384e-02		23.236
5		0.00		-6.80		4.151e-02		-54.792		1.388e-02		22.967
5		0.00		-7.20		4.312e-02		-51.796		1.445e-02		23.038
5		0.00		-7.60		4.433e-02		-53.451		1.590e-02		25.491
5		0.00		-8.00		4.358e-02		-55.312		1.628e-02		25.467
5		0.00		-8.40		4.195e-02		-54.569		1.629e-02		24.831
5		0.00		-8.80		4.051e-02		-50.329		1.460e-02		22.835
5		0.00		-9.20		3.742e-02		-51.555		1.398e-02		22.931
5		0.00		-9.60		3.424e-02		-47.706		1.179e-02		21.190
5		0.00		-10.00		3.016e-02		-46.484		1.045e-02		20.616
5		0.00		-9.60		3.355e-02		-46.829		1.148e-02		21.315
5		0.00		-9.20		3.523e-02		-43.861		1.241e-02		25.613
5		0.00		-8.80		3.852e-02		-44.408		1.357e-02		24.665
5		0.00		-8.40		4.062e-02		-45.565		1.469e-02		22.408
5		0.00		-8.00		4.307e-02		-43.042		1.520e-02		22.500
5		0.00		-7.60		4.280e-02		-43.339		1.596e-02		19.494
5		0.00		-7.20		4.065e-02		-41.260		1.517e-02		27.111
5		0.00		-6.80		3.921e-02		-46.837		1.542e-02		25.155
5		0.00		-6.40		3.798e-02		-48.343		1.454e-02		17.924
5		0.00		-6.00		3.618e-02		-50.166		1.347e-02		21.131
5		0.00		-5.60		3.388e-02		-52.321		1.259e-02		24.301
5		0.00		-5.20		3.132e-02		-54.597		1.146e-02		26.196
5		0.00		-4.80		2.871e-02		-55.285		9.865e-03		27.085
5		0.00		-4.40		2.671e-02		-54.691		8.794e-03		27.455
5		0.00		-4.00		2.470e-02		-57.383		8.371e-03		28.591
5		0.00		-3.60		2.270e-02		-56.630		7.391e-03		26.577
5		0.00		-3.20		2.014e-02		-55.638		6.538e-03		27.662
5		0.00		-2.80		1.862e-02		-55.283		5.778e-03		26.745
5		0.00		-2.40		1.745e-02		-59.576		5.102e-03		26.840
5		0.00		-2.00		1.550e-02		-55.108		4.615e-03		26.716
5		0.00		-1.60		1.361e-02		-54.799		4.070e-03		24.341
5		0.00		-1.20		1.143e-02		-53.371		3.210e-03		24.536
5		0.00		-0.80		9.597e-03		-52.235		2.786e-03		24.080
5		0.00		-0.40		8.009e-03		-55.171		2.603e-03		25.238
6		0.00		0.00		6.435e-03		-56.281		2.156e-03		22.311
6		0.00		0.40		4.882e-03		-62.138		1.705e-03		29.595
6		0.00		0.80		3.516e-03		-58.374		1.523e-03		59.731
6		0.00		1.20		2.855e-03		-25.376		1.096e-03		88.465
6		0.00		1.60		2.926e-03		15.031		1.390e-03		97.256
6		0.00		2.00		3.737e-03		57.981		2.142e-03		94.445
6		0.00		2.40		5.326e-03		108.668		3.242e-03		57.627
6		0.00		2.80		6.341e-03		116.061		3.481e-03		62.315
6		0.00		3.20		7.867e-03		130.995		3.793e-03		47.511
6		0.00		3.60		9.064e-03		137.952		3.963e-03		21.092
6		0.00		4.00		9.979e-03		138.897		4.310e-03		21.337
6		0.00		4.40		1.041e-02		138.259		4.321e-03		24.207
6		0.00		4.80		1.162e-02		137.040		4.790e-03		18.639
6		0.00		5.20		1.181e-02		134.318		4.863e-03		20.691
6		0.00		5.60		1.298e-02		137.659		5.063e-03		17.008
6		0.00		6.00		1.386e-02		133.365		5.530e-03		21.833
6		0.00		6.40		1.403e-02		129.452		5.670e-03		22.994
6		0.00		6.80		1.441e-02		127.902		5.830e-03		28.093
6		0.00		7.20		1.404e-02		120.329		5.549e-03		42.525
6		0.00		7.60		1.569e-02		113.576		6.437e-03		58.467
6		0.00		8.00		1.701e-02		118.076		7.263e-03		44.681
6		0.00		8.40		1.619e-02		122.368		6.718e-03		38.299
6		0.00		8.80		1.716e-02		124.179		7.057e-03		37.406
6		0.00		9.20		1.816e-02		121.645		7.041e-03		41.820
6		0.00		9.60		1.815e-02		123.840		7.059e-03		41.313
6		0.00		10.00		1.805e-02		120.353		7.058e-03		43.894
6		0.00		9.60		1.826e-02		123.578		6.523e-03		35.846
6		0.00		9.20		1.954e-02		128.896		6.772e-03		27.774
6		0.00		8.80		1.947e-02		132.109		7.144e-03		27.853
6		0.00		8.40		1.721e-02		121.773		6.805e-03		41.371
6		0.00		8.00		1.688e-02		122.889		6.589e-03		43.757
6		0.00		7.60		1.603e-02		124.242		6.159e-03		32.794
6		0.00		7.20		1.479e-02		131.297		6.068e-03		25.031
6		0.00		6.80		1.387e-02		127.255		5.879e-03		32.594
6		0.00		6.40		1.212e-02		132.955		5.322e-03		23.982
6		0.00		6.00		1.084e-02		136.000		4.748e-03		23.449
6		0.00		5.60		9.736e-03		122.597		4.548e-03		54.248
6		0.00		5.20		8.815e-03		104.150		4.551e-03		74.730
6		0.00		4.80		7.367e-03		95.297		3.770e-03		79.657
6		0.00		4.40		6.367e-03		83.953		3.473e-03		83.349
6		0.00		4.00		5.665e-03		59.427		2.881e-03		90.313
6		0.00		3.60		4.593e-03		51.584		2.290e-03		86.030
6		0.00		3.20		4.402e-03		-3.719		2.258e-03		89.950
6		0.00		2.80		4.330e-03		-43.820		2.994e-03		79.444
6		0.00		2.40		5.072e-03		-67.582		3.578e-03		53.212
6		0.00		2.00		6.297e-03		-77.100		4.239e-03		38.918
6		0.00		1.60		7.685e-03		-71.268		3.962e-03		28.089
6		0.00		1.20		9.640e-03		-67.647		4.001e-03		25.620
6		0.00		0.80		1.238e-02		-58.913		4.094e-03		23.169
6		0.00		0.40		1.439e-02		-55.774		4.368e-03		20.699
6		0.00		0.00		1.687e-02		-55.084		4.670e-03		18.796
6		0.00		-0.40		1.983e-02		-55.417		5.579e-03		17.800
6		0.00		-0.80		2.298e-02		-52.237		6.403e-03		16.904
6		0.00		-1.20		2.545e-02		-50.040		7.036e-03		19.245
6		0.00		-1.60		2.765e-02		-52.879		7.968e-03		21.740
6		0.00		-2.00		2.917e-02		-49.288		9.035e-03		18.624
6		0.00		-2.40		3.173e-02		-49.367		1.058e-02		23.739
6		0.00		-2.80		3.428e-02		-51.019		1.131e-02		22.972
6		0.00		-3.20		3.457e-02		-53.079		1.208e-02		22.917
6		0.00		-3.60		3.555e-02		-54.994		1.202e-02		20.511
6		0.00		-4.00		3.686e-02		-57.138		1.279e-02		22.837
6		0.00		-4.40		3.773e-02		-57.003		1.225e-02		22.819
6		0.00		-4.80		3.844e-02		-57.501		1.235e-02		23.595
6		0.00		-5.20		3.937e-02		-56.322		1.152e-02		23.452
6		0.00		-5.60		4.016e-02		-55.856		1.151e-02		24.740
6		0.00		-6.00		4.092e-02		-54.521		1.162e-02		25.994
6		0.00		-6.40		4.316e-02		-50.866		1.174e-02		22.304
6		0.00		-6.80		4.454e-02		-51.841		1.317e-02		21.855
6		0.00		-7.20		4.501e-02		-53.257		1.385e-02		23.134
6		0.00		-7.60		4.503e-02		-51.951		1.460e-02		23.535
6		0.00		-8.00		4.606e-02		-49.168		1.216e-02		20.406
6		0.00		-8.40		4.623e-02		-46.824		1.300e-02		19.839
6		0.00		-8.80		4.293e-02		-43.733		1.208e-02		20.284
6		0.00		-9.20		3.895e-02		-45.745		1.264e-02		23.974
6		0.00		-9.60		3.315e-02		-48.636		1.170e-02		28.709
6		0.00		-10.00		2.867e-02		-49.226		1.035e-02		29.851
6		0.00		-9.60		3.341e-02		-44.897		1.263e-02		32.095
6		0.00		-9.20		3.765e-02		-39.329		1.357e-02		34.763
6		0.00		-8.80		3.931e-02		-43.343		1.366e-02		33.147
6		0.00		-8.40		3.946e-02		-46.324		1.357e-02		27.085
6		0.00		-8.00		4.053e-02		-49.207		1.413e-02		22.093
6		0.00		-7.60		3.968e-02		-48.812		1.442e-02		20.132
6		0.00		-7.20		3.854e-02		-51.019		1.327e-02		21.970
6		0.00		-6.80		3.776e-02		-51.119		1.174e-02		22.150
6		0.00		-6.40		3.421e-02		-51.163		1.017e-02		23.912
6		0.00		-6.00		3.210e-02		-50.996		9.496e-03		24.129
6		0.00		-5.60		3.045e-02		-48.084		8.313e-03		23.001
6		0.00		-5.20		2.840e-02		-48.902		7.430e-03		22.667
6		0.00		-4.80		2.666e-02		-49.856		6.917e-03		21.986
6		0.00		-4.40		2.512e-02		-50.761		5.495e-03		20.075
6		0.00		-4.00		2.347e-02		-48.414		5.369e-03		18.626
6		0.00		-3.60		2.223e-02		-48.825		4.931e-03		17.271
6		0.00		-3.20		1.997e-02		-47.210		4.884e-03		19.692
6		0.00		-2.80		1.799e-02		-45.668		4.670e-03		22.769
6		0.00		-2.40		1.690e-02		-44.510		4.303e-03		25.641
6		0.00		-2.00		1.483e-02		-46.208		4.025e-03		26.256
6		0.00		-1.60		1.285e-02		-44.818		4.048e-03		27.449
6		0.00		-1.20		1.080e-02		-50.747		3.798e-03		22.314
6		0.00		-0.80		9.276e-03		-43.181		3.516e-03		27.298
6		0.00		-0.40		7.432e-03		-44.708		3.018e-03		29.048
7		0.00		0.00		5.096e-03		-52.721		2.593e-03		29.225
7		0.00		0.40		3.574e-03		-54.599		2.011e-03		65.775
7		0.00		0.80		2.960e-03		-25.345		1.564e-03		86.678
7		0.00		1.20		3.278e-03		11.695		1.358e-03		95.086
7		0.00		1.60		4.064e-03		68.560		2.091e-03		91.884
7		0.00		2.00		5.222e-03		96.469		2.764e-03		79.634
7		0.00		2.40		6.900e-03		115.710		3.706e-03		60.213
7		0.00		2.80		8.333e-03		130.855		3.925e-03		33.817
7		0.00		3.20		1.080e-02		130.027		5.115e-03		26.651
7		0.00		3.60		1.134e-02		129.428		5.013e-03		27.439
7		0.00		4.00		1.158e-02		127.383		5.031e-03		37.755
7		0.00		4.40		1.264e-02		123.639		5.964e-03		33.123
7		0.00		4.80		1.442e-02		120.649		6.544e-03		37.050
7		0.00		5.20		1.457e-02		111.474		6.486e-03		47.120
7		0.00		5.60		1.459e-02		108.356		6.354e-03		51.018
7		0.00		6.00		1.499e-02		102.689		6.475e-03		49.403
7		0.00		6.40		1.532e-02		106.519		6.344e-03		41.201
7		0.00		6.80		1.564e-02		112.878		6.322e-03		36.836
7		0.00		7.20		1.759e-02		120.351		6.396e-03		29.066
7		0.00		7.60		1.791e-02		120.713		6.478e-03		29.447
7		0.00		8.00		1.839e-02		125.623		6.535e-03		25.592
7		0.00		8.40		2.015e-02		128.792		7.209e-03		23.213
7		0.00		8.80		2.054e-02		128.101		7.201e-03		26.498
7		0.00		9.20		2.096e-02		136.913		6.732e-03		18.519
7		0.00		9.60		2.058e-02		132.980		7.201e-03		20.023
7		0.00		10.00		2.004e-02		131.567		7.543e-03		23.025
7		0.00		9.60		2.062e-02		126.025		7.989e-03		30.322
7		0.00		9.20		2.017e-02		115.923		7.592e-03		50.164
7		0.00		8.80		1.858e-02		109.005		7.472e-03		54.660
7		0.00		8.40		1.739e-02		104.299		7.422e-03		58.754
7		0.00		8.00		1.703e-02		110.688		7.391e-03		47.346
7		0.00		7.60		1.703e-02		115.714		6.964e-03		37.122
7		0.00		7.20		1.593e-02		117.166		6.210e-03		33.997
7		0.00		6.80		1.584e-02		124.162		6.255e-03		25.213
7		0.00		6.40		1.562e-02		123.754		6.669e-03		28.356
7		0.00		6.00		1.432e-02		127.266		6.509e-03		25.149
7		0.00		5.60		1.307e-02		138.097		6.261e-03		21.380
7		0.00		5.20		1.173e-02		127.214		5.978e-03		48.825
7		0.00		4.80		1.063e-02		105.441		5.595e-03		67.910
7		0.00		4.40		9.290e-03		93.871		4.815e-03		80.915
7		0.00		4.00		7.284e-03		70.391		3.352e-03		91.196
7		0.00		3.60		6.291e-03		52.469		2.348e-03		93.933
7		0.00		3.20		5.672e-03		33.078		1.900e-03		91.470
7		0.00		2.80		4.779e-03		-16.930		2.050e-03		94.474
7		0.00		2.40		4.885e-03		-42.757		2.532e-03		75.881
7		0.00		2.00		5.726e-03		-74.767		3.142e-03		41.415
7		0.00		1.60		7.123e-03		-66.539		3.835e-03		23.548
7		0.00		1.20		8.578e-03		-57.538		3.916e-03		22.704
7		0.00		0.80		1.213e-02		-61.837		4.243e-03		22.748
7		0.00		0.40		1.485e-02		-53.041		4.676e-03		21.117
7		0.00		0.00		1.702e-02		-54.265		4.603e-03		16.643
7		0.00		-0.40		2.016e-02		-51.984		5.068e-03		15.260
7		0.00		-0.80		2.434e-02		-51.349		5.841e-03		14.128
7		0.00		-1.20		2.664e-02		-52.931		6.260e-03		15.034
7		0.00		-1.60		2.955e-02		-51.969		6.896e-03		14.808
7		0.00		-2.00		3.228e-02		-52.465		7.566e-03		18.652
7		0.00		-2.40		3.438e-02		-52.740		8.798e-03		17.760
7		0.00		-2.80		3.640e-02		-50.050		9.339e-03		15.712
7		0.00		-3.20		3.811e-02		-51.170		1.081e-02		17.566
7		0.00		-3.60		3.910e-02		-54.411		1.169e-02		15.753
7		0.00		-4.00		4.065e-02		-54.696		1.248e-02		18.252
7		0.00		-4.40		4.097e-02		-55.398		1.263e-02		21.182
7		0.00		-4.80		4.084e-02		-57.063		1.317e-02		23.360
7		0.00		-5.20		4.162e-02		-56.417		1.437e-02		22.420
7		0.00		-5.60		4.150e-02		-57.713		1.404e-02		23.465
7		0.00		-6.00		4.180e-02		-56.820		1.432e-02		23.562
7		0.00		-6.40		4.319e-02		-55.150		1.446e-02		25.095
7		0.00		-6.80		4.373e-02		-55.039		1.532e-02		24.460
7		0.00		-7.20		4.484e-02		-53.798		1.548e-02		22.206
7		0.00		-7.60		4.582e-02		-53.325		1.615e-02		22.838
7		0.00		-8.00		4.568e-02		-49.673		1.509e-02		21.745
7		0.00		-8.40		4.584e-02		-46.472		1.379e-02		20.534
7		0.00		-8.80		4.380e-02		-42.492		1.313e-02		21.038
7		0.00		-9.20		3.999e-02		-43.908		1.338e-02		22.911
7		0.00		-9.60		3.557e-02		-48.109		1.279e-02		24.231
7		0.00		-10.00		3.088e-02		-44.743		1.157e-02		27.669
7		0.00		-9.60		3.475e-02		-44.788		1.402e-02		32.396
7		0.00		-9.20		4.019e-02		-46.612		1.551e-02		27.603
7		0.00		-8.80		4.203e-02		-43.851		1.610e-02		26.220
7		0.00		-8.40		4.302e-02		-46.099		1.628e-02		19.589
7		0.00		-8.00		4.265e-02		-49.247		1.557e-02		21.898
7		0.00		-7.60		4.332e-02		-53.554		1.566e-02		21.095
7		0.00		-7.20		4.072e-02		-53.922		1.359e-02		22.066
7		0.00		-6.80		4.021e-02		-54.102		1.282e-02		22.380
7		0.00		-6.40		3.887e-02		-52.256		1.227e-02		20.108
7		0.00		-6.00		3.720e-02		-51.955		1.152e-02		19.857
7		0.00		-5.60		3.586e-02		-50.847		1.047e-02		18.377
7		0.00		-5.20		3.459e-02		-50.773		9.561e-03		15.877
7		0.00		-4.80		3.242e-02		-49.515		8.647e-03		15.006
7		0.00		-4.40		2.988e-02		-51.537		8.155e-03		17.410
7		0.00		-4.00		2.865e-02		-52.960		8.131e-03		18.005
7		0.00		-3.60		2.629e-02		-54.218		7.785e-03		20.237
7		0.00		-3.20		2.386e-02		-54.138		7.563e-03		21.928
7		0.00		-2.80		2.182e-02		-54.482		7.229e-03		22.762
7		0.00		-2.40		1.983e-02		-57.212		6.789e-03		23.417
7		0.00		-2.00		1.762e-02		-57.078		6.176e-03		24.387
7		0.00		-1.60		1.500e-02		-60.003		4.948e-03		26.939
7		0.00		-1.20		1.323e-02		-56.891		4.259e-03		22.452
7		0.00		-0.80		1.102e-02		-51.177		3.597e-03		22.002
7		0.00		-0.40		9.609e-03		-53.857		3.072e-03		18.936
8		0.00		0.00		7.817e-03		-55.004		2.443e-03		20.418
8		0.00		0.40		6.121e-03		-59.140		2.255e-03		21.593
8		0.00		0.80		4.459e-03		-68.981		1.732e-03		30.768
8		0.00		1.20		3.043e-03		-67.732		1.376e-03		57.932
8		0.00		1.60		2.679e-03		-19.329		9.894e-04		96.856
8		0.00		2.00		3.488e-03		61.850		1.742e-03		87.030
8		0.00		2.40		4.833e-03		85.725		2.712e-03		73.826
8		0.00		2.80		5.713e-03		103.247		2.830e-03		72.381
8		0.00		3.20		7.290e-03		115.180		3.447e-03		43.678
8		0.00		3.60		8.298e-03		127.936		3.596e-03		30.329
8		0.00		4.00		1.026e-02		134.536		3.931e-03		19.095
8		0.00		4.40		1.138e-02		131.145		4.117e-03		23.956
8		0.00		4.80		1.250e-02		132.714		4.595e-03		20.059
8		0.00		5.20		1.276e-02		135.813		4.686e-03		17.805
8		0.00		5.60		1.303e-02		130.814		4.929e-03		23.257
8		0.00		6.00		1.401e-02		126.259		5.499e-03		27.228
8		0.00		6.40		1.483e-02		120.531		6.218e-03		34.699
8		0.00		6.80		1.574e-02		121.480		6.763e-03		40.875
8		0.00		7.20		1.520e-02		127.440		5.854e-03		29.792
8		0.00		7.60		1.631e-02		130.440		6.285e-03		25.977
8		0.00		8.00		1.816e-02		130.605		6.197e-03		24.796
8		0.00		8.40		2.024e-02		129.897		7.406e-03		29.868
8		0.00		8.80		2.053e-02		133.705		7.506e-03		20.868
8		0.00		9.20		2.037e-02		129.615		7.386e-03		17.757
8		0.00		9.60		1.913e-02		132.032		6.954e-03		19.216
8		0.00		10.00		1.868e-02		130.596		7.009e-03		24.470
8		0.00		9.60		1.938e-02		127.385		7.577e-03		28.715
8		0.00		9.20		1.926e-02		123.279		8.306e-03		37.144
8		0.00		8.80		1.859e-02		129.017		7.757e-03		32.658
8		0.00		8.40		1.841e-02		124.748		7.929e-03		43.398
8		0.00		8.00		1.851e-02		127.545		7.560e-03		31.956
8		0.00		7.60		1.699e-02		121.181		6.909e-03		40.554
8		0.00		7.20		1.605e-02		125.186		6.314e-03		38.489
8		0.00		6.80		1.551e-02		132.453		6.529e-03		23.340
8		0.00		6.40		1.507e-02		132.903		6.092e-03		21.363
8		0.00		6.00		1.330e-02		133.190		5.081e-03		19.918
8		0.00		5.60		1.178e-02		137.390		4.929e-03		20.205
8		0.00		5.20		9.376e-03		121.849		4.737e-03		57.892
8		0.00		4.80		7.992e-03		97.360		4.116e-03		74.687
8		0.00		4.40		6.830e-03		83.812		3.340e-03		79.905
8		0.00		4.00		6.003e-03		69.879		2.851e-03		84.497
8		0.00		3.60		5.125e-03		59.532		2.387e-03		90.440
8		0.00		3.20		4.289e-03		24.634		2.291e-03		88.507
8		0.00		2.80		4.024e-03		-23.043		2.679e-03		84.998
8		0.00		2.40		4.728e-03		-79.188		3.296e-03		53.676
8		0.00		2.00		6.279e-03		-82.048		3.499e-03		26.148
8		0.00		1.60		8.351e-03		-68.163		3.442e-03		22.355
8		0.00		1.20		1.062e-02		-60.550		3.759e-03		19.327
8		0.00		0.80		1.317e-02		-57.812		4.097e-03		16.687
8		0.00		0.40		1.609e-02		-56.913		4.657e-03		18.339
8		0.00		0.00		1.920e-02		-57.555		5.320e-03		19.727
8		0.00		-0.40		2.195e-02		-57.183		6.595e-03		18.739
8		0.00		-0.80		2.473e-02		-56.997		7.964e-03		17.501
8		0.00		-1.20		2.676e-02		-56.231		8.901e-03		20.323
8		0.00		-1.60		2.797e-02		-56.144		9.962e-03		21.877
8		0.00		-2.00		2.833e-02		-56.937		1.024e-02		21.962
8		0.00		-2.40		3.015e-02		-59.341		1.118e-02		23.621
8		0.00		-2.80		3.176e-02		-59.682		1.107e-02		22.049
8		0.00		-3.20		3.433e-02		-59.534		1.093e-02		21.026
8		0.00		-3.60		3.671e-02		-57.024		1.115e-02		19.256
8		0.00		-4.00		3.820e-02		-54.967		1.148e-02		18.425
8		0.00		-4.40		3.816e-02		-49.532		1.100e-02		20.937
8		0.00		-4.80		4.046e-02		-48.999		1.192e-02		21.518
8		0.00		-5.20		4.269e-02		-48.897		1.373e-02		20.243
8		0.00		-5.60		4.427e-02		-52.986		1.595e-02		18.927
8		0.00		-6.00		4.484e-02		-51.923		1.747e-02		19.209
8		0.00		-6.40		4.371e-02		-54.407		1.746e-02		22.425
8		0.00		-6.80		4.354e-02		-57.062		1.699e-02		24.771
8		0.00		-7.20		4.358e-02		-59.989		1.580e-02		25.574
8		0.00		-7.60		4.555e-02		-56.677		1.578e-02		25.383
8		0.00		-8.00		4.613e-02		-54.469		1.619e-02		25.652
8		0.00		-8.40		4.467e-02		-51.113		1.512e-02		23.158
8		0.00		-8.80		4.173e-02		-45.939		1.340e-02		23.127
8		0.00		-9.20		3.650e-02		-41.661		1.273e-02		26.324
8		0.00		-9.60		3.331e-02		-49.051		1.267e-02		27.582
8		0.00		-10.00		3.040e-02		-44.195		1.157e-02		31.675
8		0.00		-9.60		3.580e-02		-40.204		1.468e-02		34.553
8		0.00		-9.20		3.747e-02		-40.602		1.551e-02		30.557
8		0.00		-8.80		3.881e-02		-51.067		1.441e-02		25.329
8		0.00		-8.40		4.096e-02		-53.767		1.422e-02		24.726
8		0.00		-8.00		4.276e-02		-53.400		1.358e-02		24.732
8		0.00		-7.60		4.366e-02		-51.294		1.297e-02		23.059
8		0.00		-7.20		4.292e-02		-48.532		1.008e-02		18.660
8		0.00		-6.80		4.168e-02		-46.377		8.549e-03		15.781
8		0.00		-6.40		4.031e-02		-43.846		9.441e-03		15.104
8		0.00		-6.00		3.840e-02		-45.722		9.741e-03		18.555
8		0.00		-5.60		3.587e-02		-48.739		1.078e-02		22.034
8		0.00		-5.20		3.311e-02		-48.630		1.061e-02		23.430
8		0.00		-4.80		3.001e-02		-52.856		9.407e-03		25.362
8		0.00		-4.40		2.765e-02		-50.856		9.060e-03		24.073
8		0.00		-4.00		2.458e-02		-52.429		8.194e-03		27.967
8		0.00		-3.60		2.269e-02		-50.242		7.632e-03		24.959
8		0.00		-3.20		2.045e-02		-49.889		6.268e-03		24.853
8		0.00		-2.80		1.924e-02		-48.591		5.218e-03		22.379
8		0.00		-2.40		1.804e-02		-51.157		4.343e-03		19.035
8		0.00		-2.00		1.646e-02		-48.483		4.244e-03		17.957
8		0.00		-1.60		1.382e-02		-51.865		4.245e-03		18.800
8		0.00		-1.20		1.187e-02		-48.069		3.976e-03		23.389
8		0.00		-0.80		9.953e-03		-53.175		3.727e-03		28.239
8		0.00		-0.40		7.787e-03		-53.717		3.416e-03		26.106
