# Date of analysis: 2024-03-08 10;59
# Segment other properties: height: -68.3474134767225, diff height: 520.0074971676632, deflection: 33.27607677566839, deflection error: 2.400282222237207, adhesion: 38.83421330578272, phase offset: 0
# 
# Loop index	Read Volt (V)	Write Volt (V)	Amplitude (a.u)	Phase (deg)	Sigma Amp (a.u)	Sigma Pha (deg)	
1		0.00		0.00		6.391e-03		9.795		4.920e-03		44.275
1		0.00		0.40		7.970e-03		-53.107		1.937e-03		13.864
1		0.00		0.80		3.275e-03		-45.377		1.143e-03		29.972
1		0.00		1.20		2.765e-03		82.020		1.153e-03		43.425
1		0.00		1.60		6.841e-03		123.865		1.513e-03		20.022
1		0.00		2.00		1.136e-02		123.920		2.625e-03		18.786
1		0.00		2.40		1.620e-02		125.566		3.426e-03		12.408
1		0.00		2.80		2.042e-02		126.520		3.779e-03		9.990
1		0.00		3.20		2.495e-02		127.987		4.292e-03		9.722
1		0.00		3.60		2.879e-02		129.438		5.091e-03		8.698
1		0.00		4.00		3.239e-02		131.326		5.527e-03		9.276
1		0.00		4.40		3.585e-02		129.649		7.509e-03		13.397
1		0.00		4.80		3.924e-02		130.214		8.771e-03		12.142
1		0.00		5.20		4.222e-02		130.452		9.199e-03		8.919
1		0.00		5.60		4.610e-02		129.714		8.988e-03		8.192
1		0.00		6.00		4.843e-02		131.302		8.216e-03		8.076
1		0.00		6.40		4.963e-02		133.177		8.699e-03		6.912
1		0.00		6.80		5.064e-02		131.030		1.162e-02		17.058
1		0.00		7.20		5.171e-02		129.338		1.408e-02		20.022
1		0.00		7.60		5.539e-02		131.824		1.576e-02		11.805
1		0.00		8.00		5.770e-02		132.589		1.441e-02		10.484
1		0.00		8.40		6.028e-02		132.741		1.307e-02		9.803
1		0.00		8.80		6.187e-02		134.594		1.333e-02		8.966
1		0.00		9.20		6.024e-02		127.420		1.716e-02		22.377
1		0.00		9.60		5.946e-02		131.094		1.801e-02		18.582
1		0.00		10.00		5.997e-02		133.341		1.736e-02		8.282
1		0.00		9.60		6.067e-02		132.589		1.585e-02		9.869
1		0.00		9.20		6.241e-02		132.795		1.363e-02		8.326
1		0.00		8.80		5.907e-02		132.038		1.293e-02		11.930
1		0.00		8.40		5.504e-02		131.483		1.284e-02		13.465
1		0.00		8.00		5.250e-02		129.912		1.340e-02		19.113
1		0.00		7.60		5.263e-02		130.128		1.311e-02		16.456
1		0.00		7.20		4.894e-02		131.673		1.147e-02		8.646
1		0.00		6.80		4.635e-02		130.571		9.221e-03		8.972
1		0.00		6.40		4.310e-02		132.318		7.368e-03		5.874
1		0.00		6.00		3.893e-02		131.422		7.634e-03		9.762
1		0.00		5.60		3.497e-02		130.999		7.761e-03		11.846
1		0.00		5.20		3.148e-02		131.576		7.503e-03		12.718
1		0.00		4.80		2.776e-02		131.750		6.359e-03		9.261
1		0.00		4.40		2.395e-02		132.245		4.820e-03		9.521
1		0.00		4.00		1.973e-02		131.509		3.857e-03		11.242
1		0.00		3.60		1.536e-02		134.594		3.141e-03		13.233
1		0.00		3.20		1.108e-02		129.708		2.607e-03		24.086
1		0.00		2.80		6.392e-03		121.270		1.761e-03		22.566
1		0.00		2.40		2.671e-03		89.396		1.024e-03		60.831
1		0.00		2.00		3.245e-03		-54.142		1.195e-03		27.364
1		0.00		1.60		7.808e-03		-50.698		2.246e-03		11.928
1		0.00		1.20		1.230e-02		-49.874		3.108e-03		10.966
1		0.00		0.80		1.655e-02		-46.695		4.285e-03		11.958
1		0.00		0.40		2.206e-02		-48.988		4.736e-03		10.733
1		0.00		0.00		2.680e-02		-49.023		4.562e-03		9.623
1		0.00		-0.40		3.193e-02		-50.243		5.155e-03		7.755
1		0.00		-0.80		3.624e-02		-49.772		5.976e-03		7.114
1		0.00		-1.20		3.933e-02		-51.200		7.650e-03		8.214
1		0.00		-1.60		4.484e-02		-52.516		9.410e-03		8.150
1		0.00		-2.00		4.887e-02		-53.067		8.507e-03		6.999
1		0.00		-2.40		5.334e-02		-52.794		8.968e-03		9.120
1		0.00		-2.80		5.554e-02		-51.183		9.312e-03		7.610
1		0.00		-3.20		5.852e-02		-52.268		1.212e-02		8.830
1		0.00		-3.60		5.991e-02		-49.090		1.432e-02		16.582
1		0.00		-4.00		6.069e-02		-50.528		1.313e-02		9.911
1		0.00		-4.40		6.577e-02		-49.120		1.206e-02		8.653
1		0.00		-4.80		6.111e-02		-50.172		1.452e-02		19.199
1		0.00		-5.20		6.205e-02		-45.049		1.345e-02		14.838
1		0.00		-5.60		6.611e-02		-43.507		1.992e-02		18.674
1		0.00		-6.00		6.346e-02		-43.433		1.848e-02		19.077
1		0.00		-6.40		6.842e-02		-47.483		1.896e-02		20.914
1		0.00		-6.80		7.006e-02		-38.834		1.781e-02		17.300
1		0.00		-7.20		6.704e-02		-48.529		1.701e-02		25.326
1		0.00		-7.60		6.725e-02		-36.282		2.134e-02		20.402
1		0.00		-8.00		7.031e-02		-43.719		2.071e-02		20.174
1		0.00		-8.40		6.381e-02		-35.901		1.674e-02		21.964
1		0.00		-8.80		6.877e-02		-43.106		1.685e-02		18.816
1		0.00		-9.20		6.747e-02		-42.629		1.546e-02		14.556
1		0.00		-9.60		6.136e-02		-45.002		1.674e-02		14.445
1		0.00		-10.00		5.588e-02		-40.914		1.598e-02		12.343
1		0.00		-9.60		6.097e-02		-39.807		1.731e-02		16.338
1		0.00		-9.20		6.418e-02		-42.487		1.561e-02		13.724
1		0.00		-8.80		6.526e-02		-40.518		1.670e-02		14.631
1		0.00		-8.40		6.284e-02		-38.386		1.498e-02		15.906
1		0.00		-8.00		6.706e-02		-49.671		1.892e-02		18.128
1		0.00		-7.60		6.561e-02		-44.678		1.705e-02		14.809
1		0.00		-7.20		6.264e-02		-45.087		1.585e-02		11.386
1		0.00		-6.80		6.308e-02		-49.081		1.323e-02		9.057
1		0.00		-6.40		5.877e-02		-49.845		1.318e-02		14.485
1		0.00		-6.00		5.700e-02		-49.085		1.285e-02		10.677
1		0.00		-5.60		5.325e-02		-51.298		1.388e-02		14.514
1		0.00		-5.20		5.048e-02		-48.779		1.341e-02		8.882
1		0.00		-4.80		4.718e-02		-51.300		1.094e-02		7.072
1		0.00		-4.40		4.441e-02		-51.422		7.801e-03		6.014
1		0.00		-4.00		3.952e-02		-52.856		7.047e-03		7.822
1		0.00		-3.60		3.424e-02		-50.053		6.357e-03		8.043
1		0.00		-3.20		3.037e-02		-50.195		6.072e-03		8.795
1		0.00		-2.80		2.601e-02		-49.612		5.295e-03		10.912
1		0.00		-2.40		2.163e-02		-47.679		3.526e-03		9.387
1		0.00		-2.00		1.761e-02		-45.064		2.685e-03		9.158
1		0.00		-1.60		1.291e-02		-44.344		2.084e-03		10.917
1		0.00		-1.20		8.067e-03		-42.774		1.830e-03		16.759
1		0.00		-0.80		3.477e-03		-26.197		1.363e-03		32.028
1		0.00		-0.40		2.435e-03		66.439		1.155e-03		53.341
2		0.00		0.00		6.095e-03		118.774		1.629e-03		17.884
2		0.00		0.40		1.055e-02		122.482		2.431e-03		12.433
2		0.00		0.80		1.519e-02		128.024		2.747e-03		8.552
2		0.00		1.20		1.901e-02		127.337		3.719e-03		10.936
2		0.00		1.60		2.262e-02		129.203		5.356e-03		11.235
2		0.00		2.00		2.702e-02		127.890		5.945e-03		8.081
2		0.00		2.40		3.157e-02		128.133		5.655e-03		7.869
2		0.00		2.80		3.569e-02		130.357		5.983e-03		6.848
2		0.00		3.20		3.835e-02		130.691		7.300e-03		7.580
2		0.00		3.60		4.015e-02		129.981		9.551e-03		13.052
2		0.00		4.00		4.218e-02		130.142		1.022e-02		10.165
2		0.00		4.40		4.524e-02		130.020		9.939e-03		8.429
2		0.00		4.80		4.911e-02		129.582		9.027e-03		6.139
2		0.00		5.20		5.062e-02		132.772		9.534e-03		7.248
2		0.00		5.60		5.187e-02		130.305		1.194e-02		15.140
2		0.00		6.00		5.595e-02		130.354		1.356e-02		12.449
2		0.00		6.40		5.838e-02		131.799		1.517e-02		7.836
2		0.00		6.80		5.987e-02		132.535		1.345e-02		9.982
2		0.00		7.20		6.048e-02		134.166		1.257e-02		11.707
2		0.00		7.60		5.965e-02		133.900		1.263e-02		25.958
2		0.00		8.00		5.956e-02		127.584		1.511e-02		29.331
2		0.00		8.40		6.190e-02		129.544		1.724e-02		26.777
2		0.00		8.80		6.731e-02		135.086		1.731e-02		13.909
2		0.00		9.20		6.680e-02		128.792		1.719e-02		23.489
2		0.00		9.60		6.561e-02		130.701		1.596e-02		31.607
2		0.00		10.00		6.101e-02		131.713		1.583e-02		22.754
2		0.00		9.60		6.228e-02		125.813		1.964e-02		23.948
2		0.00		9.20		6.108e-02		126.082		1.951e-02		34.026
2		0.00		8.80		6.137e-02		128.128		1.777e-02		20.977
2		0.00		8.40		5.912e-02		126.038		1.815e-02		37.170
2		0.00		8.00		5.694e-02		132.972		1.686e-02		10.753
2		0.00		7.60		5.594e-02		132.368		1.305e-02		7.793
2		0.00		7.20		5.323e-02		130.809		1.185e-02		9.769
2		0.00		6.80		5.091e-02		131.056		1.032e-02		7.780
2		0.00		6.40		4.662e-02		132.637		8.677e-03		6.995
2		0.00		6.00		4.439e-02		132.732		8.455e-03		8.639
2		0.00		5.60		4.096e-02		131.153		8.551e-03		12.576
2		0.00		5.20		3.738e-02		130.849		8.221e-03		14.749
2		0.00		4.80		3.347e-02		131.886		7.484e-03		11.092
2		0.00		4.40		3.051e-02		132.032		6.493e-03		9.350
2		0.00		4.00		2.636e-02		131.114		5.211e-03		8.631
2		0.00		3.60		2.242e-02		131.319		3.749e-03		9.024
2		0.00		3.20		1.778e-02		131.996		2.966e-03		10.806
2		0.00		2.80		1.345e-02		130.833		2.352e-03		10.852
2		0.00		2.40		9.262e-03		134.857		1.559e-03		13.393
2		0.00		2.00		4.577e-03		114.100		1.214e-03		20.191
2		0.00		1.60		1.882e-03		5.005		7.452e-04		65.239
2		0.00		1.20		5.091e-03		-49.529		1.410e-03		21.140
2		0.00		0.80		9.594e-03		-46.542		2.472e-03		12.806
2		0.00		0.40		1.401e-02		-52.520		3.200e-03		10.689
2		0.00		0.00		1.904e-02		-47.577		3.887e-03		10.066
2		0.00		-0.40		2.344e-02		-48.850		4.111e-03		8.949
2		0.00		-0.80		2.783e-02		-52.463		5.078e-03		8.614
2		0.00		-1.20		3.223e-02		-51.338		5.751e-03		8.434
2		0.00		-1.60		3.546e-02		-50.918		6.567e-03		8.288
2		0.00		-2.00		3.969e-02		-51.233		7.947e-03		8.955
2		0.00		-2.40		4.375e-02		-51.146		9.427e-03		9.471
2		0.00		-2.80		4.696e-02		-52.416		1.068e-02		10.526
2		0.00		-3.20		5.070e-02		-52.343		1.161e-02		8.450
2		0.00		-3.60		5.548e-02		-53.501		1.202e-02		7.731
2		0.00		-4.00		5.843e-02		-54.608		1.205e-02		10.981
2		0.00		-4.40		5.981e-02		-53.000		1.092e-02		9.504
2		0.00		-4.80		6.392e-02		-51.917		1.302e-02		10.509
2		0.00		-5.20		6.402e-02		-49.604		1.353e-02		12.374
2		0.00		-5.60		6.373e-02		-46.473		1.661e-02		14.952
2		0.00		-6.00		6.435e-02		-43.677		1.855e-02		20.391
2		0.00		-6.40		6.302e-02		-45.611		1.959e-02		24.184
2		0.00		-6.80		6.327e-02		-42.141		1.854e-02		21.009
2		0.00		-7.20		6.873e-02		-48.313		1.934e-02		17.141
2		0.00		-7.60		6.767e-02		-48.032		1.972e-02		21.657
2		0.00		-8.00		6.519e-02		-41.024		1.970e-02		25.438
2		0.00		-8.40		6.431e-02		-35.288		1.832e-02		20.540
2		0.00		-8.80		6.426e-02		-44.265		1.897e-02		21.492
2		0.00		-9.20		6.309e-02		-38.549		2.004e-02		13.268
2		0.00		-9.60		5.823e-02		-43.276		1.900e-02		16.749
2		0.00		-10.00		5.345e-02		-37.919		1.593e-02		18.106
2		0.00		-9.60		5.999e-02		-44.283		1.673e-02		6.939
2		0.00		-9.20		6.402e-02		-42.688		1.586e-02		8.279
2		0.00		-8.80		6.476e-02		-42.076		1.427e-02		11.609
2		0.00		-8.40		6.437e-02		-45.289		1.600e-02		16.463
2		0.00		-8.00		6.556e-02		-47.547		1.565e-02		14.150
2		0.00		-7.60		6.592e-02		-48.739		1.684e-02		11.764
2		0.00		-7.20		6.160e-02		-48.293		1.550e-02		16.083
2		0.00		-6.80		6.238e-02		-49.889		1.498e-02		14.664
2		0.00		-6.40		5.871e-02		-48.396		1.386e-02		8.292
2		0.00		-6.00		5.602e-02		-49.271		1.178e-02		6.630
2		0.00		-5.60		5.321e-02		-49.733		9.892e-03		7.216
2		0.00		-5.20		4.836e-02		-49.112		8.004e-03		6.884
2		0.00		-4.80		4.434e-02		-50.384		7.511e-03		7.168
2		0.00		-4.40		3.968e-02		-49.561		7.411e-03		8.630
2		0.00		-4.00		3.490e-02		-49.738		7.757e-03		10.204
2		0.00		-3.60		3.124e-02		-49.777		7.316e-03		10.986
2		0.00		-3.20		2.727e-02		-49.376		6.331e-03		9.567
2		0.00		-2.80		2.353e-02		-48.333		4.763e-03		9.273
2		0.00		-2.40		1.971e-02		-47.458		3.455e-03		8.876
2		0.00		-2.00		1.548e-02		-50.840		2.408e-03		7.822
2		0.00		-1.60		1.127e-02		-43.572		1.941e-03		14.440
2		0.00		-1.20		6.610e-03		-39.833		1.486e-03		14.982
2		0.00		-0.80		2.592e-03		-11.940		9.536e-04		47.700
2		0.00		-0.40		3.036e-03		93.835		1.208e-03		33.482
3		0.00		0.00		6.992e-03		121.120		1.784e-03		16.974
3		0.00		0.40		1.157e-02		128.028		2.645e-03		11.564
3		0.00		0.80		1.611e-02		128.599		2.830e-03		8.712
3		0.00		1.20		2.034e-02		130.940		3.557e-03		7.358
3		0.00		1.60		2.468e-02		128.235		3.911e-03		8.092
3		0.00		2.00		2.847e-02		130.074		4.780e-03		7.662
3		0.00		2.40		3.205e-02		129.114		6.138e-03		10.476
3		0.00		2.80		3.497e-02		130.683		7.721e-03		12.814
3		0.00		3.20		3.743e-02		128.669		9.405e-03		11.782
3		0.00		3.60		3.985e-02		130.426		9.971e-03		8.164
3		0.00		4.00		4.300e-02		131.310		9.720e-03		7.047
3		0.00		4.40		4.595e-02		129.726		9.423e-03		6.986
3		0.00		4.80		4.782e-02		130.810		1.019e-02		8.768
3		0.00		5.20		4.888e-02		131.249		1.061e-02		10.633
3		0.00		5.60		5.034e-02		129.699		1.301e-02		17.274
3		0.00		6.00		5.380e-02		128.252		1.557e-02		21.155
3		0.00		6.40		5.621e-02		129.955		1.559e-02		15.612
3		0.00		6.80		5.791e-02		131.436		1.503e-02		8.146
3		0.00		7.20		6.028e-02		132.271		1.398e-02		10.847
3		0.00		7.60		6.187e-02		127.069		1.440e-02		40.874
3		0.00		8.00		6.454e-02		131.468		1.419e-02		12.289
3		0.00		8.40		6.334e-02		129.244		1.617e-02		16.880
3		0.00		8.80		6.656e-02		132.329		1.716e-02		15.182
3		0.00		9.20		6.703e-02		132.071		1.830e-02		15.097
3		0.00		9.60		6.594e-02		131.311		1.807e-02		16.920
3		0.00		10.00		6.439e-02		133.158		1.685e-02		18.708
3		0.00		9.60		6.516e-02		132.649		1.551e-02		14.174
3		0.00		9.20		6.474e-02		135.238		1.451e-02		8.921
3		0.00		8.80		6.148e-02		133.218		1.561e-02		14.329
3		0.00		8.40		5.684e-02		130.530		1.642e-02		17.961
3		0.00		8.00		5.650e-02		128.819		1.603e-02		18.369
3		0.00		7.60		5.371e-02		129.420		1.482e-02		17.914
3		0.00		7.20		5.257e-02		129.412		1.471e-02		14.985
3		0.00		6.80		5.009e-02		132.193		1.249e-02		7.497
3		0.00		6.40		4.748e-02		132.042		1.007e-02		8.062
3		0.00		6.00		4.392e-02		132.564		8.264e-03		7.038
3		0.00		5.60		4.070e-02		132.623		8.419e-03		8.662
3		0.00		5.20		3.682e-02		132.238		8.661e-03		12.665
3		0.00		4.80		3.349e-02		130.448		8.014e-03		15.019
3		0.00		4.40		3.026e-02		131.335		7.329e-03		13.426
3		0.00		4.00		2.637e-02		132.078		5.773e-03		9.071
3		0.00		3.60		2.278e-02		132.476		4.186e-03		9.161
3		0.00		3.20		1.914e-02		131.772		3.358e-03		10.726
3		0.00		2.80		1.477e-02		131.221		2.879e-03		10.081
3		0.00		2.40		1.019e-02		132.462		2.410e-03		16.369
3		0.00		2.00		5.976e-03		122.234		1.769e-03		24.798
3		0.00		1.60		1.977e-03		54.870		8.721e-04		71.794
3		0.00		1.20		3.578e-03		-50.006		1.301e-03		31.695
3		0.00		0.80		7.936e-03		-51.921		1.770e-03		16.933
3		0.00		0.40		1.220e-02		-50.171		2.386e-03		12.929
3		0.00		0.00		1.611e-02		-47.017		3.589e-03		10.694
3		0.00		-0.40		2.056e-02		-46.385		4.802e-03		11.677
3		0.00		-0.80		2.417e-02		-47.979		6.340e-03		11.978
3		0.00		-1.20		2.880e-02		-49.744		6.824e-03		9.728
3		0.00		-1.60		3.358e-02		-51.748		6.720e-03		8.289
3		0.00		-2.00		3.707e-02		-51.933		7.096e-03		7.905
3		0.00		-2.40		4.091e-02		-52.102		7.791e-03		7.287
3		0.00		-2.80		4.361e-02		-51.930		9.912e-03		10.402
3		0.00		-3.20		4.693e-02		-52.940		1.272e-02		13.268
3		0.00		-3.60		5.014e-02		-52.519		1.342e-02		8.771
3		0.00		-4.00		5.458e-02		-53.444		1.228e-02		7.839
3		0.00		-4.40		5.911e-02		-53.269		1.143e-02		8.391
3		0.00		-4.80		5.848e-02		-52.272		1.257e-02		10.982
3		0.00		-5.20		6.185e-02		-49.865		1.399e-02		10.770
3		0.00		-5.60		6.166e-02		-49.558		1.538e-02		13.419
3		0.00		-6.00		6.474e-02		-46.454		1.700e-02		10.460
3		0.00		-6.40		6.729e-02		-45.875		1.872e-02		12.929
3		0.00		-6.80		6.870e-02		-46.622		1.759e-02		14.017
3		0.00		-7.20		7.110e-02		-45.123		1.900e-02		17.808
3		0.00		-7.60		6.781e-02		-46.369		1.862e-02		21.582
3		0.00		-8.00		6.704e-02		-46.306		1.881e-02		21.996
3		0.00		-8.40		6.810e-02		-43.244		2.042e-02		18.049
3		0.00		-8.80		6.486e-02		-41.056		1.949e-02		21.315
3		0.00		-9.20		6.080e-02		-38.558		1.830e-02		19.054
3		0.00		-9.60		6.044e-02		-42.061		1.758e-02		10.113
3		0.00		-10.00		5.390e-02		-43.045		1.345e-02		6.490
3		0.00		-9.60		5.817e-02		-44.113		1.559e-02		11.068
3		0.00		-9.20		6.052e-02		-44.729		1.721e-02		15.843
3		0.00		-8.80		6.514e-02		-48.233		1.882e-02		16.534
3		0.00		-8.40		6.319e-02		-41.716		1.806e-02		12.827
3		0.00		-8.00		6.220e-02		-42.282		1.719e-02		21.076
3		0.00		-7.60		6.283e-02		-46.522		1.662e-02		9.318
3		0.00		-7.20		6.368e-02		-48.339		1.405e-02		9.829
3		0.00		-6.80		6.096e-02		-47.652		1.165e-02		8.305
3		0.00		-6.40		5.541e-02		-49.085		1.096e-02		10.533
3		0.00		-6.00		5.429e-02		-49.565		1.134e-02		10.492
3		0.00		-5.60		5.060e-02		-49.661		1.164e-02		11.881
3		0.00		-5.20		4.782e-02		-50.389		1.133e-02		11.576
3		0.00		-4.80		4.406e-02		-50.651		9.972e-03		7.454
3		0.00		-4.40		4.046e-02		-51.463		7.375e-03		6.795
3		0.00		-4.00		3.607e-02		-51.400		6.108e-03		7.847
3		0.00		-3.60		3.133e-02		-50.649		5.151e-03		8.171
3		0.00		-3.20		2.703e-02		-48.816		5.230e-03		9.567
3		0.00		-2.80		2.294e-02		-51.499		5.399e-03		12.413
3		0.00		-2.40		1.838e-02		-50.186		4.535e-03		11.766
3		0.00		-2.00		1.451e-02		-45.803		3.351e-03		9.174
3		0.00		-1.60		1.060e-02		-41.301		2.092e-03		12.931
3		0.00		-1.20		6.638e-03		-38.494		1.486e-03		16.664
3		0.00		-0.80		2.471e-03		-32.775		1.054e-03		38.452
3		0.00		-0.40		2.885e-03		98.479		1.090e-03		43.472
4		0.00		0.00		6.842e-03		124.189		2.009e-03		16.977
4		0.00		0.40		1.083e-02		124.417		2.872e-03		13.460
4		0.00		0.80		1.530e-02		127.489		3.292e-03		9.468
4		0.00		1.20		1.982e-02		126.745		3.614e-03		6.954
4		0.00		1.60		2.430e-02		130.351		4.001e-03		8.083
4		0.00		2.00		2.742e-02		129.832		4.694e-03		7.507
4		0.00		2.40		3.186e-02		131.162		5.744e-03		10.845
4		0.00		2.80		3.490e-02		130.282		7.188e-03		10.688
4		0.00		3.20		3.750e-02		129.353		8.543e-03		9.562
4		0.00		3.60		4.055e-02		130.313		8.279e-03		8.011
4		0.00		4.00		4.311e-02		131.360		7.366e-03		6.081
4		0.00		4.40		4.601e-02		132.486		7.626e-03		5.824
4		0.00		4.80		4.774e-02		131.989		8.839e-03		8.128
4		0.00		5.20		4.914e-02		130.405		1.168e-02		12.372
4		0.00		5.60		5.132e-02		129.799		1.359e-02		13.519
4		0.00		6.00		5.377e-02		131.393		1.489e-02		7.900
4		0.00		6.40		5.654e-02		132.381		1.245e-02		7.542
4		0.00		6.80		5.783e-02		132.125		1.178e-02		7.159
4		0.00		7.20		5.919e-02		130.895		1.320e-02		11.175
4		0.00		7.60		5.904e-02		132.352		1.526e-02		13.599
4		0.00		8.00		6.242e-02		132.168		1.754e-02		17.629
4		0.00		8.40		6.418e-02		131.625		1.808e-02		13.231
4		0.00		8.80		6.558e-02		131.910		1.732e-02		11.417
4		0.00		9.20		6.581e-02		131.112		1.512e-02		16.546
4		0.00		9.60		6.558e-02		125.648		1.834e-02		27.764
4		0.00		10.00		6.535e-02		131.252		1.696e-02		12.849
4		0.00		9.60		6.394e-02		130.250		1.846e-02		27.359
4		0.00		9.20		6.613e-02		130.166		1.800e-02		21.414
4		0.00		8.80		6.319e-02		133.343		1.626e-02		13.307
4		0.00		8.40		6.237e-02		133.502		1.290e-02		9.292
4		0.00		8.00		6.015e-02		135.195		1.090e-02		6.666
4		0.00		7.60		5.607e-02		131.850		1.309e-02		13.366
4		0.00		7.20		5.478e-02		131.362		1.208e-02		10.537
4		0.00		6.80		5.227e-02		132.157		1.240e-02		9.983
4		0.00		6.40		4.837e-02		130.326		1.272e-02		16.212
4		0.00		6.00		4.519e-02		131.626		1.202e-02		8.759
4		0.00		5.60		4.157e-02		131.821		9.389e-03		7.614
4		0.00		5.20		3.893e-02		130.380		7.726e-03		7.672
4		0.00		4.80		3.464e-02		130.956		6.910e-03		8.182
4		0.00		4.40		3.079e-02		131.110		6.426e-03		10.971
4		0.00		4.00		2.648e-02		131.300		5.941e-03		13.790
4		0.00		3.60		2.275e-02		129.542		5.501e-03		17.377
4		0.00		3.20		1.877e-02		132.600		4.336e-03		9.355
4		0.00		2.80		1.513e-02		131.889		3.081e-03		11.202
4		0.00		2.40		1.132e-02		132.639		1.997e-03		11.373
4		0.00		2.00		6.650e-03		131.080		1.622e-03		15.288
4		0.00		1.60		2.719e-03		94.161		1.081e-03		65.654
4		0.00		1.20		2.810e-03		-53.739		1.202e-03		32.905
4		0.00		0.80		6.725e-03		-52.969		1.919e-03		17.262
4		0.00		0.40		1.132e-02		-44.507		2.633e-03		11.900
4		0.00		0.00		1.528e-02		-49.920		3.392e-03		10.988
4		0.00		-0.40		2.007e-02		-48.874		3.485e-03		8.849
4		0.00		-0.80		2.498e-02		-48.867		4.081e-03		9.391
4		0.00		-1.20		2.839e-02		-49.440		4.617e-03		7.722
4		0.00		-1.60		3.266e-02		-49.130		6.012e-03		7.151
4		0.00		-2.00		3.642e-02		-51.385		8.200e-03		12.943
4		0.00		-2.40		3.967e-02		-51.659		9.563e-03		10.036
4		0.00		-2.80		4.324e-02		-53.231		1.002e-02		7.976
4		0.00		-3.20		4.815e-02		-52.637		9.491e-03		7.336
4		0.00		-3.60		5.246e-02		-52.974		8.910e-03		6.059
4		0.00		-4.00		5.414e-02		-52.699		1.038e-02		8.890
4		0.00		-4.40		5.733e-02		-53.468		1.217e-02		13.196
4		0.00		-4.80		5.943e-02		-49.803		1.456e-02		9.519
4		0.00		-5.20		6.006e-02		-48.528		1.672e-02		16.232
4		0.00		-5.60		6.261e-02		-48.934		1.555e-02		9.961
4		0.00		-6.00		6.462e-02		-48.618		1.370e-02		11.003
4		0.00		-6.40		6.418e-02		-42.937		1.271e-02		12.756
4		0.00		-6.80		6.715e-02		-44.213		1.421e-02		12.026
4		0.00		-7.20		6.965e-02		-41.859		1.852e-02		14.638
4		0.00		-7.60		6.574e-02		-41.347		1.791e-02		19.927
4		0.00		-8.00		6.707e-02		-40.688		1.721e-02		15.755
4		0.00		-8.40		6.819e-02		-40.940		1.656e-02		16.145
4		0.00		-8.80		6.850e-02		-41.421		1.660e-02		17.702
4		0.00		-9.20		6.412e-02		-41.106		1.573e-02		12.423
4		0.00		-9.60		6.112e-02		-45.274		1.675e-02		12.541
4		0.00		-10.00		5.337e-02		-45.983		1.457e-02		16.261
4		0.00		-9.60		6.012e-02		-40.822		1.787e-02		17.062
4		0.00		-9.20		6.121e-02		-38.981		1.750e-02		15.026
4		0.00		-8.80		6.770e-02		-42.201		1.618e-02		8.814
4		0.00		-8.40		6.336e-02		-47.042		1.789e-02		19.125
4		0.00		-8.00		6.488e-02		-50.092		1.814e-02		18.044
4		0.00		-7.60		6.112e-02		-48.880		1.740e-02		17.250
4		0.00		-7.20		6.134e-02		-46.982		1.699e-02		13.002
4		0.00		-6.80		6.059e-02		-47.899		1.508e-02		8.063
4		0.00		-6.40		5.831e-02		-49.078		1.187e-02		7.762
4		0.00		-6.00		5.392e-02		-50.071		1.071e-02		10.527
4		0.00		-5.60		5.076e-02		-48.081		1.001e-02		7.014
4		0.00		-5.20		4.790e-02		-47.986		1.056e-02		9.707
4		0.00		-4.80		4.408e-02		-50.332		1.004e-02		8.476
4		0.00		-4.40		4.029e-02		-50.375		7.348e-03		7.199
4		0.00		-4.00		3.653e-02		-51.259		5.533e-03		6.709
4		0.00		-3.60		3.217e-02		-49.883		5.763e-03		8.055
4		0.00		-3.20		2.788e-02		-49.718		5.043e-03		10.710
4		0.00		-2.80		2.322e-02		-47.048		4.781e-03		8.428
4		0.00		-2.40		1.962e-02		-47.665		3.339e-03		8.844
4		0.00		-2.00		1.541e-02		-46.621		2.380e-03		10.533
4		0.00		-1.60		1.087e-02		-42.485		1.797e-03		12.976
4		0.00		-1.20		6.572e-03		-37.011		1.379e-03		18.597
4		0.00		-0.80		2.217e-03		-44.812		9.625e-04		46.045
4		0.00		-0.40		3.212e-03		93.716		1.129e-03		43.038
5		0.00		0.00		7.149e-03		118.138		1.549e-03		13.467
5		0.00		0.40		1.153e-02		126.701		1.881e-03		10.081
5		0.00		0.80		1.549e-02		129.163		2.654e-03		8.733
5		0.00		1.20		1.935e-02		127.141		3.909e-03		12.355
5		0.00		1.60		2.269e-02		127.870		4.951e-03		11.920
5		0.00		2.00		2.738e-02		129.874		5.528e-03		7.697
5		0.00		2.40		3.174e-02		130.443		5.109e-03		7.532
5		0.00		2.80		3.505e-02		129.737		6.009e-03		7.746
5		0.00		3.20		3.807e-02		131.138		7.202e-03		7.707
5		0.00		3.60		4.019e-02		130.989		9.490e-03		12.844
5		0.00		4.00		4.279e-02		130.985		9.667e-03		8.296
5		0.00		4.40		4.602e-02		132.076		8.518e-03		5.730
5		0.00		4.80		4.830e-02		131.251		8.361e-03		6.182
5		0.00		5.20		4.967e-02		132.448		9.753e-03		6.268
5		0.00		5.60		5.170e-02		129.306		1.284e-02		16.181
5		0.00		6.00		5.473e-02		130.275		1.357e-02		12.225
5		0.00		6.40		5.797e-02		131.728		1.225e-02		5.240
5		0.00		6.80		5.938e-02		133.995		1.070e-02		5.951
5		0.00		7.20		5.957e-02		132.960		1.258e-02		10.500
5		0.00		7.60		6.206e-02		131.740		1.585e-02		13.257
5		0.00		8.00		6.149e-02		131.738		1.728e-02		21.279
5		0.00		8.40		6.232e-02		127.577		1.732e-02		34.998
5		0.00		8.80		6.317e-02		133.594		1.527e-02		14.060
5		0.00		9.20		6.191e-02		126.058		1.701e-02		30.303
5		0.00		9.60		6.243e-02		125.584		1.856e-02		22.518
5		0.00		10.00		6.138e-02		128.952		1.917e-02		27.049
5		0.00		9.60		6.168e-02		128.738		1.947e-02		25.030
5		0.00		9.20		6.423e-02		133.771		1.688e-02		9.391
5		0.00		8.80		6.174e-02		127.658		1.505e-02		41.077
5		0.00		8.40		5.911e-02		130.904		1.602e-02		15.865
5		0.00		8.00		5.856e-02		129.264		1.567e-02		16.760
5		0.00		7.60		5.639e-02		130.624		1.401e-02		17.965
5		0.00		7.20		5.483e-02		132.393		1.282e-02		7.395
5		0.00		6.80		5.235e-02		133.244		9.856e-03		6.240
5		0.00		6.40		4.801e-02		131.611		8.894e-03		8.277
5		0.00		6.00		4.584e-02		132.881		8.585e-03		7.550
5		0.00		5.60		4.223e-02		131.050		9.638e-03		14.498
5		0.00		5.20		3.876e-02		131.709		8.992e-03		9.601
5		0.00		4.80		3.532e-02		131.959		6.492e-03		6.606
5		0.00		4.40		3.159e-02		132.031		5.210e-03		7.602
5		0.00		4.00		2.770e-02		133.313		5.296e-03		9.974
5		0.00		3.60		2.320e-02		129.478		5.066e-03		14.246
5		0.00		3.20		1.894e-02		131.267		4.169e-03		10.524
5		0.00		2.80		1.535e-02		131.471		2.729e-03		10.260
5		0.00		2.40		1.109e-02		130.631		2.069e-03		11.320
5		0.00		2.00		7.002e-03		127.078		1.671e-03		17.188
5		0.00		1.60		2.690e-03		94.095		1.062e-03		55.339
5		0.00		1.20		2.521e-03		-45.891		9.228e-04		41.209
5		0.00		0.80		6.646e-03		-49.468		1.715e-03		14.666
5		0.00		0.40		1.104e-02		-47.048		2.335e-03		11.399
5		0.00		0.00		1.556e-02		-45.409		3.265e-03		9.573
5		0.00		-0.40		1.944e-02		-49.969		4.411e-03		11.908
5		0.00		-0.80		2.425e-02		-50.890		4.555e-03		8.727
5		0.00		-1.20		2.948e-02		-49.814		4.424e-03		7.984
5		0.00		-1.60		3.331e-02		-50.622		5.281e-03		7.522
5		0.00		-2.00		3.644e-02		-51.050		7.802e-03		9.584
5		0.00		-2.40		4.015e-02		-51.612		8.419e-03		8.151
5		0.00		-2.80		4.513e-02		-52.280		7.343e-03		6.263
5		0.00		-3.20		4.797e-02		-51.793		8.348e-03		6.117
5		0.00		-3.60		5.049e-02		-53.386		1.133e-02		11.780
5		0.00		-4.00		5.494e-02		-52.690		1.304e-02		9.487
5		0.00		-4.40		5.939e-02		-52.523		1.087e-02		5.834
5		0.00		-4.80		5.855e-02		-50.510		1.070e-02		9.693
5		0.00		-5.20		6.075e-02		-49.181		1.457e-02		12.296
5		0.00		-5.60		6.317e-02		-45.297		1.730e-02		15.395
5		0.00		-6.00		6.707e-02		-48.470		1.565e-02		10.180
5		0.00		-6.40		6.636e-02		-49.956		1.777e-02		16.948
5		0.00		-6.80		6.490e-02		-42.932		1.770e-02		10.542
5		0.00		-7.20		6.581e-02		-44.569		1.857e-02		14.421
5		0.00		-7.60		6.829e-02		-44.992		1.749e-02		13.285
5		0.00		-8.00		6.555e-02		-39.169		1.790e-02		18.288
5		0.00		-8.40		6.469e-02		-38.130		1.778e-02		15.052
5		0.00		-8.80		6.369e-02		-41.310		2.102e-02		26.326
5		0.00		-9.20		6.266e-02		-42.130		1.850e-02		11.148
5		0.00		-9.60		6.000e-02		-42.960		1.495e-02		9.955
5		0.00		-10.00		5.337e-02		-44.911		1.348e-02		10.481
5		0.00		-9.60		5.922e-02		-48.029		1.631e-02		13.881
5		0.00		-9.20		6.269e-02		-42.319		1.646e-02		15.873
5		0.00		-8.80		6.615e-02		-43.180		1.495e-02		9.239
5		0.00		-8.40		6.458e-02		-44.052		1.545e-02		14.246
5		0.00		-8.00		6.630e-02		-46.147		1.498e-02		10.095
5		0.00		-7.60		6.508e-02		-47.814		1.689e-02		16.328
5		0.00		-7.20		6.497e-02		-47.200		1.534e-02		7.510
5		0.00		-6.80		6.228e-02		-49.076		1.130e-02		8.312
5		0.00		-6.40		5.730e-02		-47.006		9.885e-03		6.899
5		0.00		-6.00		5.437e-02		-49.069		1.238e-02		8.735
5		0.00		-5.60		5.082e-02		-48.421		1.234e-02		8.289
5		0.00		-5.20		4.765e-02		-49.192		9.695e-03		6.672
5		0.00		-4.80		4.443e-02		-50.160		7.564e-03		6.347
5		0.00		-4.40		3.952e-02		-49.707		7.686e-03		7.728
5		0.00		-4.00		3.459e-02		-50.044		7.794e-03		12.288
5		0.00		-3.60		3.079e-02		-48.447		6.987e-03		8.982
5		0.00		-3.20		2.728e-02		-50.501		4.592e-03		7.886
5		0.00		-2.80		2.389e-02		-48.664		3.545e-03		8.341
5		0.00		-2.40		1.876e-02		-46.737		3.122e-03		8.609
5		0.00		-2.00		1.447e-02		-43.460		3.283e-03		10.300
5		0.00		-1.60		1.052e-02		-40.693		2.168e-03		12.078
5		0.00		-1.20		6.376e-03		-39.330		1.385e-03		14.180
5		0.00		-0.80		2.536e-03		-24.598		9.686e-04		41.182
5		0.00		-0.40		3.470e-03		105.527		1.396e-03		35.601
6		0.00		0.00		7.604e-03		121.274		2.103e-03		17.451
6		0.00		0.40		1.173e-02		126.417		2.519e-03		10.955
6		0.00		0.80		1.596e-02		126.458		2.853e-03		9.814
6		0.00		1.20		2.030e-02		128.157		3.366e-03		7.249
6		0.00		1.60		2.364e-02		128.836		4.690e-03		10.459
6		0.00		2.00		2.739e-02		129.109		5.951e-03		10.545
6		0.00		2.40		3.094e-02		130.874		6.546e-03		8.233
6		0.00		2.80		3.537e-02		130.479		5.999e-03		6.255
6		0.00		3.20		3.743e-02		129.760		6.948e-03		7.497
6		0.00		3.60		3.939e-02		129.889		9.165e-03		12.627
6		0.00		4.00		4.151e-02		129.715		1.098e-02		13.830
6		0.00		4.40		4.478e-02		130.574		1.087e-02		7.372
6		0.00		4.80		4.781e-02		131.419		9.663e-03		6.553
6		0.00		5.20		4.888e-02		132.060		1.036e-02		7.927
6		0.00		5.60		4.994e-02		129.521		1.281e-02		12.505
6		0.00		6.00		5.264e-02		129.910		1.478e-02		17.483
6		0.00		6.40		5.578e-02		131.423		1.531e-02		7.790
6		0.00		6.80		5.827e-02		131.748		1.297e-02		8.928
6		0.00		7.20		5.751e-02		131.025		1.463e-02		14.428
6		0.00		7.60		5.983e-02		129.118		1.663e-02		17.883
6		0.00		8.00		6.251e-02		128.628		1.729e-02		20.992
6		0.00		8.40		6.273e-02		132.303		1.599e-02		14.298
6		0.00		8.80		6.689e-02		135.092		1.408e-02		9.549
6		0.00		9.20		6.408e-02		126.452		1.688e-02		24.371
6		0.00		9.60		6.403e-02		131.114		1.900e-02		28.540
6		0.00		10.00		6.383e-02		130.815		1.867e-02		19.319
6		0.00		9.60		6.389e-02		129.417		1.688e-02		22.121
6		0.00		9.20		6.587e-02		133.229		1.526e-02		9.973
6		0.00		8.80		6.136e-02		129.909		1.548e-02		16.787
6		0.00		8.40		5.888e-02		129.202		1.610e-02		18.616
6		0.00		8.00		5.962e-02		130.404		1.559e-02		14.120
6		0.00		7.60		5.660e-02		131.821		1.513e-02		7.307
6		0.00		7.20		5.500e-02		132.071		1.208e-02		7.309
6		0.00		6.80		5.054e-02		132.759		9.981e-03		8.222
6		0.00		6.40		4.694e-02		131.476		1.098e-02		11.504
6		0.00		6.00		4.452e-02		130.232		1.149e-02		15.910
6		0.00		5.60		4.135e-02		131.964		1.065e-02		9.901
6		0.00		5.20		3.833e-02		131.953		7.405e-03		9.040
6		0.00		4.80		3.526e-02		131.546		6.126e-03		7.328
6		0.00		4.40		3.127e-02		132.880		6.370e-03		9.141
6		0.00		4.00		2.720e-02		132.537		6.483e-03		13.146
6		0.00		3.60		2.398e-02		131.716		5.205e-03		8.965
6		0.00		3.20		2.028e-02		132.342		3.576e-03		8.840
6		0.00		2.80		1.623e-02		131.534		2.991e-03		8.853
6		0.00		2.40		1.149e-02		131.704		2.126e-03		12.525
6		0.00		2.00		7.139e-03		125.635		1.831e-03		20.441
6		0.00		1.60		3.131e-03		105.397		1.023e-03		45.955
6		0.00		1.20		2.251e-03		-34.195		9.058e-04		51.526
6		0.00		0.80		6.315e-03		-46.855		1.542e-03		14.283
6		0.00		0.40		1.096e-02		-45.743		2.218e-03		12.687
6		0.00		0.00		1.510e-02		-46.034		3.197e-03		10.655
6		0.00		-0.40		1.905e-02		-46.883		4.509e-03		9.261
6		0.00		-0.80		2.363e-02		-48.972		4.588e-03		7.693
6		0.00		-1.20		2.770e-02		-52.314		5.136e-03		7.941
6		0.00		-1.60		3.109e-02		-49.846		6.348e-03		8.700
6		0.00		-2.00		3.442e-02		-52.878		8.140e-03		13.323
6		0.00		-2.40		3.825e-02		-51.590		9.806e-03		10.070
6		0.00		-2.80		4.247e-02		-52.353		9.767e-03		7.308
6		0.00		-3.20		4.672e-02		-52.404		8.587e-03		6.182
6		0.00		-3.60		4.896e-02		-53.324		9.641e-03		8.832
6		0.00		-4.00		5.154e-02		-53.199		1.192e-02		10.985
6		0.00		-4.40		5.453e-02		-53.765		1.504e-02		13.343
6		0.00		-4.80		5.890e-02		-51.915		1.507e-02		8.468
6		0.00		-5.20		6.263e-02		-51.050		1.337e-02		9.429
6		0.00		-5.60		6.276e-02		-49.862		1.283e-02		12.166
6		0.00		-6.00		6.436e-02		-50.837		1.553e-02		16.037
6		0.00		-6.40		6.434e-02		-47.034		1.592e-02		12.419
6		0.00		-6.80		6.577e-02		-45.598		1.616e-02		12.970
6		0.00		-7.20		6.824e-02		-43.082		1.720e-02		13.720
6		0.00		-7.60		6.914e-02		-46.952		1.684e-02		17.231
6		0.00		-8.00		7.227e-02		-42.251		1.770e-02		17.499
6		0.00		-8.40		7.055e-02		-40.922		1.774e-02		11.515
6		0.00		-8.80		6.821e-02		-41.075		1.855e-02		13.897
6		0.00		-9.20		6.433e-02		-40.137		1.848e-02		24.939
6		0.00		-9.60		6.017e-02		-40.990		1.803e-02		17.380
6		0.00		-10.00		5.415e-02		-43.754		1.437e-02		6.948
6		0.00		-9.60		5.891e-02		-44.400		1.595e-02		9.932
6		0.00		-9.20		6.017e-02		-45.893		1.699e-02		13.633
6		0.00		-8.80		6.222e-02		-46.278		1.804e-02		18.485
6		0.00		-8.40		6.444e-02		-45.508		1.869e-02		14.003
6		0.00		-8.00		6.244e-02		-44.949		1.785e-02		15.277
6		0.00		-7.60		6.449e-02		-46.577		1.629e-02		8.598
6		0.00		-7.20		6.492e-02		-47.720		1.524e-02		9.910
6		0.00		-6.80		5.962e-02		-48.525		1.203e-02		9.562
6		0.00		-6.40		5.758e-02		-48.069		1.244e-02		9.785
6		0.00		-6.00		5.378e-02		-50.108		1.288e-02		13.973
6		0.00		-5.60		5.085e-02		-49.930		1.239e-02		16.055
6		0.00		-5.20		4.799e-02		-48.446		1.070e-02		6.473
6		0.00		-4.80		4.460e-02		-50.535		8.711e-03		6.419
6		0.00		-4.40		4.006e-02		-50.782		6.382e-03		6.847
6		0.00		-4.00		3.592e-02		-50.484		5.981e-03		7.129
6		0.00		-3.60		3.171e-02		-50.750		5.992e-03		8.242
6		0.00		-3.20		2.713e-02		-48.870		5.833e-03		11.847
6		0.00		-2.80		2.297e-02		-49.784		5.313e-03		11.047
6		0.00		-2.40		1.889e-02		-49.512		3.553e-03		8.892
6		0.00		-2.00		1.471e-02		-43.966		2.534e-03		9.106
6		0.00		-1.60		1.086e-02		-43.369		2.117e-03		11.886
6		0.00		-1.20		6.547e-03		-41.194		1.676e-03		14.752
6		0.00		-0.80		2.551e-03		-27.157		9.924e-04		35.887
6		0.00		-0.40		2.632e-03		85.834		1.097e-03		55.905
7		0.00		0.00		6.498e-03		113.535		1.947e-03		13.097
7		0.00		0.40		1.056e-02		125.951		2.422e-03		8.908
7		0.00		0.80		1.458e-02		128.095		2.825e-03		8.871
7		0.00		1.20		1.902e-02		128.883		3.754e-03		9.927
7		0.00		1.60		2.201e-02		129.164		4.965e-03		12.709
7		0.00		2.00		2.560e-02		129.527		6.213e-03		14.192
7		0.00		2.40		2.907e-02		129.327		6.586e-03		8.844
7		0.00		2.80		3.341e-02		129.364		6.287e-03		6.333
7		0.00		3.20		3.720e-02		130.284		6.092e-03		5.421
7		0.00		3.60		3.949e-02		130.989		6.551e-03		5.876
7		0.00		4.00		4.193e-02		131.658		8.444e-03		8.251
7		0.00		4.40		4.392e-02		130.323		1.026e-02		11.630
7		0.00		4.80		4.701e-02		129.721		1.153e-02		9.257
7		0.00		5.20		5.077e-02		130.662		1.115e-02		5.679
7		0.00		5.60		5.208e-02		132.676		9.855e-03		5.800
7		0.00		6.00		5.371e-02		132.955		9.904e-03		7.263
7		0.00		6.40		5.533e-02		130.266		1.284e-02		12.720
7		0.00		6.80		5.709e-02		129.371		1.573e-02		20.207
7		0.00		7.20		5.950e-02		130.833		1.689e-02		11.289
7		0.00		7.60		6.253e-02		132.946		1.444e-02		7.871
7		0.00		8.00		6.143e-02		133.346		1.385e-02		12.115
7		0.00		8.40		6.255e-02		132.631		1.554e-02		13.701
7		0.00		8.80		6.380e-02		128.053		1.915e-02		31.659
7		0.00		9.20		6.464e-02		128.450		1.936e-02		22.046
7		0.00		9.60		6.229e-02		126.866		1.839e-02		31.208
7		0.00		10.00		6.486e-02		132.031		1.745e-02		10.234
7		0.00		9.60		6.583e-02		131.390		1.595e-02		13.527
7		0.00		9.20		6.343e-02		131.913		1.608e-02		16.272
7		0.00		8.80		6.226e-02		132.873		1.562e-02		12.114
7		0.00		8.40		6.143e-02		131.783		1.608e-02		14.862
7		0.00		8.00		6.000e-02		130.176		1.630e-02		15.311
7		0.00		7.60		5.909e-02		132.410		1.393e-02		6.539
7		0.00		7.20		5.517e-02		132.780		1.058e-02		6.557
7		0.00		6.80		5.121e-02		132.784		9.384e-03		7.164
7		0.00		6.40		4.861e-02		132.441		1.039e-02		9.122
7		0.00		6.00		4.485e-02		131.702		1.061e-02		14.049
7		0.00		5.60		4.239e-02		131.831		1.012e-02		14.310
7		0.00		5.20		3.889e-02		131.435		8.438e-03		7.674
7		0.00		4.80		3.560e-02		131.926		6.748e-03		7.075
7		0.00		4.40		3.121e-02		132.385		5.759e-03		8.800
7		0.00		4.00		2.722e-02		132.409		5.599e-03		9.612
7		0.00		3.60		2.285e-02		129.590		5.487e-03		13.034
7		0.00		3.20		1.905e-02		129.557		4.867e-03		14.757
7		0.00		2.80		1.495e-02		130.346		3.352e-03		12.884
7		0.00		2.40		1.115e-02		134.627		2.079e-03		8.789
7		0.00		2.00		7.055e-03		132.786		1.554e-03		13.495
7		0.00		1.60		3.069e-03		98.050		1.039e-03		47.870
7		0.00		1.20		2.255e-03		-34.201		9.690e-04		46.218
7		0.00		0.80		5.782e-03		-39.518		1.906e-03		21.402
7		0.00		0.40		1.021e-02		-47.421		2.222e-03		11.861
7		0.00		0.00		1.507e-02		-49.723		2.686e-03		10.704
7		0.00		-0.40		1.917e-02		-49.565		3.319e-03		7.138
7		0.00		-0.80		2.354e-02		-49.701		4.168e-03		8.461
7		0.00		-1.20		2.706e-02		-49.540		5.448e-03		9.911
7		0.00		-1.60		3.044e-02		-50.642		7.049e-03		8.933
7		0.00		-2.00		3.489e-02		-51.002		7.154e-03		7.454
7		0.00		-2.40		3.922e-02		-52.176		6.756e-03		7.303
7		0.00		-2.80		4.202e-02		-50.707		7.739e-03		7.108
7		0.00		-3.20		4.569e-02		-51.297		9.645e-03		9.995
7		0.00		-3.60		4.884e-02		-51.943		1.150e-02		10.222
7		0.00		-4.00		5.171e-02		-53.769		1.318e-02		8.133
7		0.00		-4.40		5.602e-02		-51.754		1.204e-02		8.061
7		0.00		-4.80		5.887e-02		-51.200		1.116e-02		7.189
7		0.00		-5.20		5.940e-02		-50.787		1.418e-02		14.073
7		0.00		-5.60		6.090e-02		-48.912		1.587e-02		11.680
7		0.00		-6.00		6.460e-02		-47.213		1.885e-02		18.893
7		0.00		-6.40		6.631e-02		-49.149		1.659e-02		11.192
7		0.00		-6.80		6.459e-02		-46.669		1.602e-02		17.416
7		0.00		-7.20		6.720e-02		-47.489		1.842e-02		15.474
7		0.00		-7.60		6.828e-02		-42.161		2.074e-02		14.180
7		0.00		-8.00		6.706e-02		-40.624		1.780e-02		16.924
7		0.00		-8.40		6.845e-02		-42.205		1.682e-02		11.997
7		0.00		-8.80		6.874e-02		-42.833		1.813e-02		15.635
7		0.00		-9.20		6.587e-02		-43.509		1.830e-02		12.063
7		0.00		-9.60		6.024e-02		-45.887		1.841e-02		19.176
7		0.00		-10.00		5.371e-02		-39.927		1.541e-02		21.678
7		0.00		-9.60		6.080e-02		-44.135		1.572e-02		8.622
7		0.00		-9.20		6.428e-02		-41.349		1.454e-02		9.666
7		0.00		-8.80		6.601e-02		-45.225		1.677e-02		13.556
7		0.00		-8.40		6.677e-02		-45.752		1.777e-02		11.918
7		0.00		-8.00		6.667e-02		-45.371		1.599e-02		9.292
7		0.00		-7.60		6.526e-02		-46.176		1.478e-02		8.955
7		0.00		-7.20		6.259e-02		-47.960		1.461e-02		12.009
7		0.00		-6.80		6.010e-02		-50.587		1.612e-02		14.779
7		0.00		-6.40		5.560e-02		-49.308		1.559e-02		15.325
7		0.00		-6.00		5.471e-02		-48.909		1.432e-02		9.533
7		0.00		-5.60		5.199e-02		-49.086		1.075e-02		7.260
7		0.00		-5.20		4.713e-02		-49.015		8.882e-03		6.930
7		0.00		-4.80		4.306e-02		-50.360		9.924e-03		9.440
7		0.00		-4.40		3.834e-02		-52.175		1.006e-02		11.648
7		0.00		-4.00		3.466e-02		-51.186		8.271e-03		8.354
7		0.00		-3.60		3.130e-02		-50.095		5.693e-03		7.669
7		0.00		-3.20		2.748e-02		-50.681		5.149e-03		8.803
7		0.00		-2.80		2.304e-02		-47.492		4.801e-03		9.301
7		0.00		-2.40		1.904e-02		-47.051		4.019e-03		10.409
7		0.00		-2.00		1.556e-02		-46.580		2.738e-03		8.635
7		0.00		-1.60		1.106e-02		-42.336		2.262e-03		12.785
7		0.00		-1.20		7.216e-03		-43.551		1.837e-03		18.191
7		0.00		-0.80		3.197e-03		-22.205		1.170e-03		27.992
7		0.00		-0.40		2.134e-03		66.451		9.976e-04		64.843
8		0.00		0.00		5.710e-03		126.899		1.398e-03		17.265
8		0.00		0.40		9.301e-03		124.688		2.362e-03		16.337
8		0.00		0.80		1.364e-02		128.800		3.220e-03		13.230
8		0.00		1.20		1.787e-02		129.110		3.433e-03		8.189
8		0.00		1.60		2.158e-02		129.377		4.061e-03		8.480
8		0.00		2.00		2.507e-02		130.562		5.765e-03		11.102
8		0.00		2.40		2.819e-02		129.208		7.116e-03		10.319
8		0.00		2.80		3.313e-02		130.323		6.320e-03		6.560
8		0.00		3.20		3.573e-02		130.076		6.872e-03		7.228
8		0.00		3.60		3.738e-02		130.990		8.771e-03		12.543
8		0.00		4.00		4.011e-02		129.259		1.034e-02		12.438
8		0.00		4.40		4.386e-02		131.153		9.020e-03		6.463
8		0.00		4.80		4.610e-02		130.578		8.721e-03		6.597
8		0.00		5.20		4.615e-02		130.955		1.168e-02		12.869
8		0.00		5.60		4.911e-02		131.069		1.342e-02		12.578
8		0.00		6.00		5.422e-02		131.627		1.172e-02		6.583
8		0.00		6.40		5.499e-02		133.689		1.041e-02		5.943
8		0.00		6.80		5.582e-02		129.987		1.474e-02		16.170
8		0.00		7.20		5.865e-02		128.849		1.566e-02		26.090
8		0.00		7.60		6.232e-02		133.853		1.325e-02		7.686
8		0.00		8.00		6.230e-02		132.615		1.398e-02		13.726
8		0.00		8.40		6.377e-02		129.721		1.808e-02		16.469
8		0.00		8.80		6.529e-02		128.955		1.770e-02		20.066
8		0.00		9.20		6.782e-02		132.225		1.654e-02		20.145
8		0.00		9.60		6.429e-02		134.564		1.526e-02		10.593
8		0.00		10.00		6.146e-02		128.559		1.780e-02		18.317
8		0.00		9.60		6.562e-02		130.128		2.053e-02		16.979
8		0.00		9.20		6.402e-02		132.120		1.646e-02		16.983
8		0.00		8.80		6.255e-02		133.506		1.492e-02		14.111
8		0.00		8.40		5.812e-02		129.216		1.768e-02		18.790
8		0.00		8.00		5.802e-02		129.330		1.729e-02		16.696
8		0.00		7.60		5.604e-02		132.261		1.482e-02		7.903
8		0.00		7.20		5.349e-02		133.736		1.163e-02		8.226
8		0.00		6.80		4.929e-02		131.375		1.219e-02		11.325
8		0.00		6.40		4.694e-02		129.536		1.296e-02		18.395
8		0.00		6.00		4.458e-02		131.831		1.124e-02		7.474
8		0.00		5.60		4.142e-02		132.586		7.738e-03		6.707
8		0.00		5.20		3.806e-02		131.339		8.219e-03		9.189
8		0.00		4.80		3.492e-02		132.247		7.753e-03		12.021
8		0.00		4.40		3.133e-02		131.619		7.162e-03		10.762
8		0.00		4.00		2.810e-02		133.224		4.645e-03		7.091
8		0.00		3.60		2.394e-02		133.116		4.394e-03		8.072
8		0.00		3.20		1.954e-02		129.151		4.267e-03		14.871
8		0.00		2.80		1.581e-02		132.958		3.095e-03		8.786
8		0.00		2.40		1.225e-02		131.436		2.170e-03		10.660
8		0.00		2.00		8.274e-03		129.882		1.665e-03		12.723
8		0.00		1.60		3.691e-03		116.763		1.242e-03		36.040
8		0.00		1.20		1.783e-03		1.979		6.542e-04		72.858
8		0.00		0.80		5.345e-03		-46.339		1.337e-03		17.158
8		0.00		0.40		9.606e-03		-46.923		1.922e-03		12.067
8		0.00		0.00		1.397e-02		-49.263		3.163e-03		12.977
8		0.00		-0.40		1.785e-02		-46.660		4.225e-03		9.491
8		0.00		-0.80		2.269e-02		-50.924		4.285e-03		8.732
8		0.00		-1.20		2.710e-02		-51.919		4.481e-03		7.681
8		0.00		-1.60		3.044e-02		-49.625		6.255e-03		8.678
8		0.00		-2.00		3.375e-02		-50.932		8.364e-03		9.648
8		0.00		-2.40		3.835e-02		-52.493		7.767e-03		7.357
8		0.00		-2.80		4.237e-02		-51.434		7.400e-03		6.609
8		0.00		-3.20		4.477e-02		-52.036		9.565e-03		9.867
8		0.00		-3.60		4.753e-02		-52.851		1.159e-02		11.700
8		0.00		-4.00		5.288e-02		-53.567		9.968e-03		5.986
8		0.00		-4.40		5.571e-02		-51.471		9.213e-03		6.753
8		0.00		-4.80		5.768e-02		-49.742		1.220e-02		8.134
8		0.00		-5.20		6.043e-02		-49.649		1.611e-02		10.993
8		0.00		-5.60		6.523e-02		-49.215		1.394e-02		7.717
8		0.00		-6.00		6.465e-02		-50.217		1.471e-02		12.153
8		0.00		-6.40		6.453e-02		-46.929		1.546e-02		15.396
8		0.00		-6.80		6.574e-02		-44.488		1.655e-02		12.799
8		0.00		-7.20		6.862e-02		-44.963		1.556e-02		11.751
8		0.00		-7.60		6.924e-02		-43.267		1.570e-02		17.311
8		0.00		-8.00		6.830e-02		-41.374		1.814e-02		18.202
8		0.00		-8.40		6.589e-02		-40.536		1.849e-02		22.471
8		0.00		-8.80		6.447e-02		-42.049		1.737e-02		16.319
8		0.00		-9.20		6.438e-02		-39.584		1.706e-02		15.232
8		0.00		-9.60		5.833e-02		-47.122		1.770e-02		15.328
8		0.00		-10.00		5.278e-02		-42.815		1.713e-02		19.844
8		0.00		-9.60		5.851e-02		-43.244		1.797e-02		13.067
8		0.00		-9.20		6.147e-02		-41.435		1.630e-02		11.351
8		0.00		-8.80		6.281e-02		-45.230		1.761e-02		15.263
8		0.00		-8.40		6.359e-02		-47.166		1.812e-02		17.184
8		0.00		-8.00		6.253e-02		-45.747		1.779e-02		14.352
8		0.00		-7.60		6.454e-02		-47.063		1.513e-02		10.486
8		0.00		-7.20		6.279e-02		-47.976		1.360e-02		11.844
8		0.00		-6.80		5.996e-02		-47.129		1.335e-02		7.911
8		0.00		-6.40		5.837e-02		-46.882		1.386e-02		9.986
8		0.00		-6.00		5.608e-02		-48.467		1.212e-02		6.616
8		0.00		-5.60		5.336e-02		-48.311		9.040e-03		6.721
8		0.00		-5.20		4.785e-02		-49.423		8.465e-03		7.594
8		0.00		-4.80		4.445e-02		-49.801		9.447e-03		8.756
8		0.00		-4.40		3.998e-02		-51.302		9.200e-03		9.413
8		0.00		-4.00		3.631e-02		-50.387		6.292e-03		7.208
8		0.00		-3.60		3.250e-02		-50.654		4.977e-03		7.069
8		0.00		-3.20		2.824e-02		-49.085		4.896e-03		6.883
8		0.00		-2.80		2.383e-02		-48.373		5.125e-03		9.416
8		0.00		-2.40		1.988e-02		-49.085		3.976e-03		8.475
8		0.00		-2.00		1.592e-02		-47.027		2.690e-03		9.458
8		0.00		-1.60		1.175e-02		-42.006		1.802e-03		12.010
8		0.00		-1.20		7.355e-03		-36.426		1.597e-03		15.985
8		0.00		-0.80		3.368e-03		-37.214		1.229e-03		27.386
8		0.00		-0.40		2.054e-03		61.258		9.063e-04		53.895
