# Date of analysis: 2024-03-08 10;58
# Segment other properties: height: -32.95384074415561, diff height: 232.62470804138428, deflection: 36.0442224003718, deflection error: 3.628008015379894, adhesion: 35.41959502296119, phase offset: 0
# 
# Loop index	Read Volt (V)	Write Volt (V)	Amplitude (a.u)	Phase (deg)	Sigma Amp (a.u)	Sigma Pha (deg)	
1		0.00		0.00		2.398e-02		-56.808		9.983e-03		27.401
1		0.00		0.40		1.997e-02		-50.975		3.993e-03		12.726
1		0.00		0.80		1.410e-02		-54.484		2.978e-03		14.659
1		0.00		1.20		8.449e-03		-54.974		1.839e-03		17.858
1		0.00		1.60		3.499e-03		-52.748		1.477e-03		38.749
1		0.00		2.00		2.698e-03		62.157		1.105e-03		66.477
1		0.00		2.40		6.142e-03		118.914		2.193e-03		22.535
1		0.00		2.80		9.972e-03		122.132		3.180e-03		17.143
1		0.00		3.20		1.378e-02		125.014		4.294e-03		16.053
1		0.00		3.60		1.806e-02		124.018		5.297e-03		15.890
1		0.00		4.00		2.152e-02		125.240		6.298e-03		22.242
1		0.00		4.40		2.549e-02		125.829		7.622e-03		23.009
1		0.00		4.80		2.786e-02		124.531		8.365e-03		25.325
1		0.00		5.20		3.074e-02		123.051		9.594e-03		28.661
1		0.00		5.60		3.461e-02		122.661		1.126e-02		30.317
1		0.00		6.00		3.730e-02		123.896		1.205e-02		30.284
1		0.00		6.40		4.015e-02		125.748		1.316e-02		23.552
1		0.00		6.80		4.380e-02		126.776		1.460e-02		22.074
1		0.00		7.20		4.530e-02		129.605		1.495e-02		11.499
1		0.00		7.60		4.529e-02		129.035		1.486e-02		12.856
1		0.00		8.00		4.576e-02		129.015		1.489e-02		12.174
1		0.00		8.40		4.571e-02		129.891		1.447e-02		12.400
1		0.00		8.80		4.524e-02		127.511		1.427e-02		16.565
1		0.00		9.20		4.599e-02		126.673		1.455e-02		17.439
1		0.00		9.60		4.380e-02		124.357		1.397e-02		19.316
1		0.00		10.00		4.032e-02		125.902		1.337e-02		20.389
1		0.00		9.60		4.149e-02		124.740		1.326e-02		20.517
1		0.00		9.20		4.214e-02		122.975		1.279e-02		20.731
1		0.00		8.80		4.066e-02		124.508		1.230e-02		20.932
1		0.00		8.40		4.015e-02		126.235		1.112e-02		17.926
1		0.00		8.00		3.756e-02		126.603		1.009e-02		17.240
1		0.00		7.60		3.722e-02		129.045		9.536e-03		15.492
1		0.00		7.20		3.479e-02		127.527		9.042e-03		13.687
1		0.00		6.80		3.373e-02		128.407		8.879e-03		13.830
1		0.00		6.40		3.171e-02		128.390		8.554e-03		14.109
1		0.00		6.00		3.002e-02		128.292		8.215e-03		14.479
1		0.00		5.60		2.740e-02		127.367		7.939e-03		16.717
1		0.00		5.20		2.535e-02		126.427		7.950e-03		19.863
1		0.00		4.80		2.196e-02		126.347		6.703e-03		21.510
1		0.00		4.40		1.877e-02		124.859		6.190e-03		27.266
1		0.00		4.00		1.524e-02		125.049		5.472e-03		31.417
1		0.00		3.60		1.183e-02		123.394		4.546e-03		30.122
1		0.00		3.20		8.636e-03		117.114		3.614e-03		29.463
1		0.00		2.80		5.590e-03		108.870		2.470e-03		42.270
1		0.00		2.40		3.299e-03		71.986		1.306e-03		68.523
1		0.00		2.00		3.574e-03		-29.508		1.966e-03		47.555
1		0.00		1.60		6.886e-03		-53.435		2.584e-03		20.526
1		0.00		1.20		1.128e-02		-48.595		3.171e-03		15.797
1		0.00		0.80		1.616e-02		-50.853		3.523e-03		11.953
1		0.00		0.40		2.071e-02		-50.843		4.107e-03		10.906
1		0.00		0.00		2.526e-02		-50.715		4.857e-03		10.340
1		0.00		-0.40		2.864e-02		-51.842		5.658e-03		10.023
1		0.00		-0.80		3.199e-02		-52.087		6.295e-03		10.123
1		0.00		-1.20		3.422e-02		-53.026		6.517e-03		11.108
1		0.00		-1.60		3.585e-02		-53.572		7.226e-03		10.826
1		0.00		-2.00		3.782e-02		-52.825		8.097e-03		11.957
1		0.00		-2.40		3.959e-02		-53.090		8.806e-03		12.488
1		0.00		-2.80		4.109e-02		-54.325		9.532e-03		13.167
1		0.00		-3.20		4.165e-02		-55.174		1.009e-02		14.212
1		0.00		-3.60		4.207e-02		-55.261		1.086e-02		13.794
1		0.00		-4.00		4.331e-02		-55.047		1.118e-02		14.537
1		0.00		-4.40		4.372e-02		-53.942		1.229e-02		14.332
1		0.00		-4.80		4.393e-02		-52.603		1.219e-02		14.916
1		0.00		-5.20		4.353e-02		-52.141		1.214e-02		16.112
1		0.00		-5.60		4.392e-02		-52.326		1.239e-02		15.706
1		0.00		-6.00		4.392e-02		-54.480		1.248e-02		16.965
1		0.00		-6.40		4.577e-02		-52.275		1.289e-02		15.329
1		0.00		-6.80		4.613e-02		-51.967		1.268e-02		15.514
1		0.00		-7.20		4.638e-02		-51.029		1.201e-02		16.232
1		0.00		-7.60		4.667e-02		-51.872		1.225e-02		15.181
1		0.00		-8.00		4.806e-02		-51.732		1.292e-02		15.111
1		0.00		-8.40		4.719e-02		-49.816		1.228e-02		14.713
1		0.00		-8.80		4.460e-02		-47.946		1.116e-02		13.875
1		0.00		-9.20		4.229e-02		-47.801		1.157e-02		15.122
1		0.00		-9.60		3.920e-02		-47.690		1.109e-02		12.042
1		0.00		-10.00		3.346e-02		-46.174		9.646e-03		13.665
1		0.00		-9.60		3.898e-02		-47.312		1.140e-02		13.377
1		0.00		-9.20		4.220e-02		-46.213		1.233e-02		13.862
1		0.00		-8.80		4.395e-02		-45.897		1.321e-02		14.177
1		0.00		-8.40		4.519e-02		-47.960		1.368e-02		14.612
1		0.00		-8.00		4.477e-02		-48.348		1.357e-02		14.653
1		0.00		-7.60		4.421e-02		-48.643		1.365e-02		13.662
1		0.00		-7.20		4.334e-02		-49.599		1.348e-02		14.962
1		0.00		-6.80		4.128e-02		-49.519		1.219e-02		12.156
1		0.00		-6.40		3.951e-02		-48.421		1.183e-02		14.632
1		0.00		-6.00		3.770e-02		-49.406		1.129e-02		13.412
1		0.00		-5.60		3.608e-02		-49.534		1.016e-02		13.266
1		0.00		-5.20		3.350e-02		-48.758		8.466e-03		12.638
1		0.00		-4.80		3.088e-02		-50.274		7.856e-03		12.431
1		0.00		-4.40		2.802e-02		-51.140		7.233e-03		13.319
1		0.00		-4.00		2.514e-02		-51.409		6.294e-03		12.503
1		0.00		-3.60		2.253e-02		-51.265		5.710e-03		12.800
1		0.00		-3.20		1.970e-02		-49.789		4.417e-03		12.796
1		0.00		-2.80		1.657e-02		-48.991		4.087e-03		14.697
1		0.00		-2.40		1.297e-02		-47.988		2.833e-03		16.571
1		0.00		-2.00		9.126e-03		-49.953		2.465e-03		15.738
1		0.00		-1.60		5.120e-03		-51.901		1.762e-03		27.207
1		0.00		-1.20		2.232e-03		-20.116		9.632e-04		66.808
1		0.00		-0.80		3.635e-03		110.041		1.374e-03		42.460
1		0.00		-0.40		7.390e-03		130.017		2.242e-03		13.927
2		0.00		0.00		1.199e-02		124.521		2.962e-03		11.675
2		0.00		0.40		1.578e-02		127.648		4.194e-03		10.731
2		0.00		0.80		1.935e-02		126.533		4.688e-03		10.587
2		0.00		1.20		2.346e-02		127.126		5.510e-03		9.320
2		0.00		1.60		2.680e-02		129.746		6.604e-03		8.538
2		0.00		2.00		3.022e-02		129.450		7.608e-03		9.033
2		0.00		2.40		3.327e-02		130.585		8.222e-03		8.666
2		0.00		2.80		3.667e-02		130.115		9.047e-03		8.188
2		0.00		3.20		3.927e-02		131.555		9.423e-03		9.875
2		0.00		3.60		4.070e-02		132.194		1.006e-02		10.098
2		0.00		4.00		4.312e-02		132.169		1.071e-02		9.608
2		0.00		4.40		4.440e-02		132.185		1.129e-02		11.127
2		0.00		4.80		4.648e-02		131.862		1.246e-02		11.680
2		0.00		5.20		4.810e-02		133.191		1.367e-02		12.176
2		0.00		5.60		4.965e-02		132.714		1.467e-02		11.088
2		0.00		6.00		5.064e-02		132.389		1.491e-02		12.181
2		0.00		6.40		5.214e-02		130.779		1.706e-02		21.648
2		0.00		6.80		5.255e-02		129.320		1.813e-02		21.333
2		0.00		7.20		5.243e-02		128.845		1.844e-02		18.975
2		0.00		7.60		5.334e-02		130.131		1.973e-02		25.267
2		0.00		8.00		5.400e-02		127.719		1.984e-02		27.281
2		0.00		8.40		5.459e-02		122.769		2.023e-02		36.766
2		0.00		8.80		5.513e-02		125.135		2.088e-02		35.216
2		0.00		9.20		5.414e-02		123.330		2.065e-02		32.839
2		0.00		9.60		5.286e-02		123.349		1.981e-02		34.604
2		0.00		10.00		4.997e-02		126.586		1.832e-02		31.318
2		0.00		9.60		5.063e-02		123.349		1.792e-02		33.080
2		0.00		9.20		5.024e-02		125.278		1.726e-02		31.132
2		0.00		8.80		4.881e-02		125.943		1.539e-02		26.227
2		0.00		8.40		4.685e-02		130.161		1.433e-02		19.803
2		0.00		8.00		4.519e-02		129.461		1.354e-02		17.214
2		0.00		7.60		4.296e-02		129.810		1.231e-02		14.971
2		0.00		7.20		4.097e-02		130.219		1.120e-02		12.765
2		0.00		6.80		4.014e-02		130.988		1.069e-02		10.815
2		0.00		6.40		3.567e-02		130.064		9.691e-03		10.336
2		0.00		6.00		3.307e-02		130.336		9.154e-03		11.687
2		0.00		5.60		3.088e-02		131.006		8.325e-03		10.370
2		0.00		5.20		2.739e-02		131.057		7.344e-03		11.094
2		0.00		4.80		2.521e-02		131.455		7.091e-03		10.923
2		0.00		4.40		2.213e-02		131.410		6.064e-03		10.578
2		0.00		4.00		1.850e-02		129.218		5.331e-03		9.598
2		0.00		3.60		1.464e-02		131.246		4.203e-03		11.647
2		0.00		3.20		1.099e-02		130.174		3.187e-03		15.185
2		0.00		2.80		6.506e-03		122.662		2.469e-03		28.704
2		0.00		2.40		3.070e-03		86.002		1.221e-03		60.214
2		0.00		2.00		3.113e-03		-45.905		1.399e-03		38.224
2		0.00		1.60		7.900e-03		-58.489		2.120e-03		15.285
2		0.00		1.20		1.251e-02		-53.954		3.126e-03		11.163
2		0.00		0.80		1.696e-02		-52.835		4.007e-03		10.577
2		0.00		0.40		2.191e-02		-50.178		5.477e-03		10.084
2		0.00		0.00		2.596e-02		-50.006		6.789e-03		11.090
2		0.00		-0.40		3.033e-02		-49.712		8.480e-03		9.759
2		0.00		-0.80		3.363e-02		-50.274		9.305e-03		12.816
2		0.00		-1.20		3.674e-02		-49.370		1.048e-02		14.095
2		0.00		-1.60		3.807e-02		-52.417		1.129e-02		15.419
2		0.00		-2.00		3.934e-02		-52.460		1.193e-02		14.235
2		0.00		-2.40		4.008e-02		-52.615		1.196e-02		15.727
2		0.00		-2.80		4.167e-02		-53.244		1.214e-02		14.618
2		0.00		-3.20		4.232e-02		-52.862		1.214e-02		13.238
2		0.00		-3.60		4.272e-02		-52.506		1.188e-02		11.745
2		0.00		-4.00		4.450e-02		-52.524		1.196e-02		12.218
2		0.00		-4.40		4.572e-02		-52.487		1.138e-02		12.870
2		0.00		-4.80		4.585e-02		-51.754		1.060e-02		13.368
2		0.00		-5.20		4.611e-02		-50.478		1.047e-02		13.400
2		0.00		-5.60		4.660e-02		-52.134		1.137e-02		15.391
2		0.00		-6.00		4.817e-02		-50.668		1.227e-02		13.847
2		0.00		-6.40		4.913e-02		-49.269		1.262e-02		13.781
2		0.00		-6.80		5.006e-02		-49.181		1.358e-02		13.695
2		0.00		-7.20		5.101e-02		-47.909		1.307e-02		13.257
2		0.00		-7.60		5.012e-02		-48.687		1.367e-02		14.426
2		0.00		-8.00		5.133e-02		-48.203		1.423e-02		14.391
2		0.00		-8.40		5.112e-02		-46.158		1.436e-02		12.831
2		0.00		-8.80		4.869e-02		-44.219		1.559e-02		11.216
2		0.00		-9.20		4.457e-02		-44.072		1.604e-02		12.852
2		0.00		-9.60		4.007e-02		-42.597		1.539e-02		19.449
2		0.00		-10.00		3.513e-02		-37.897		1.375e-02		26.640
2		0.00		-9.60		4.030e-02		-38.636		1.600e-02		32.838
2		0.00		-9.20		4.421e-02		-36.349		1.732e-02		36.982
2		0.00		-8.80		4.622e-02		-37.765		1.755e-02		33.916
2		0.00		-8.40		4.814e-02		-39.630		1.837e-02		29.627
2		0.00		-8.00		4.846e-02		-42.232		1.715e-02		27.880
2		0.00		-7.60		4.770e-02		-45.225		1.608e-02		22.838
2		0.00		-7.20		4.660e-02		-46.278		1.472e-02		21.061
2		0.00		-6.80		4.527e-02		-46.712		1.386e-02		19.068
2		0.00		-6.40		4.295e-02		-48.054		1.263e-02		17.326
2		0.00		-6.00		4.024e-02		-47.111		1.122e-02		12.369
2		0.00		-5.60		3.815e-02		-47.710		1.011e-02		10.894
2		0.00		-5.20		3.522e-02		-47.459		9.099e-03		11.146
2		0.00		-4.80		3.288e-02		-48.788		8.175e-03		11.278
2		0.00		-4.40		2.993e-02		-49.143		7.241e-03		10.201
2		0.00		-4.00		2.649e-02		-50.115		6.330e-03		10.962
2		0.00		-3.60		2.360e-02		-49.373		5.586e-03		10.160
2		0.00		-3.20		1.991e-02		-50.327		4.651e-03		12.153
2		0.00		-2.80		1.662e-02		-50.410		4.259e-03		12.612
2		0.00		-2.40		1.305e-02		-48.876		3.354e-03		12.795
2		0.00		-2.00		9.173e-03		-46.149		2.540e-03		16.545
2		0.00		-1.60		5.140e-03		-47.520		1.675e-03		23.169
2		0.00		-1.20		2.059e-03		0.177		8.056e-04		66.602
2		0.00		-0.80		4.127e-03		107.133		1.442e-03		34.641
2		0.00		-0.40		8.253e-03		122.257		2.310e-03		14.344
3		0.00		0.00		1.283e-02		126.349		3.105e-03		10.424
3		0.00		0.40		1.771e-02		129.635		3.897e-03		8.925
3		0.00		0.80		2.199e-02		130.092		4.611e-03		7.400
3		0.00		1.20		2.558e-02		130.876		6.039e-03		7.907
3		0.00		1.60		2.984e-02		131.757		7.118e-03		7.669
3		0.00		2.00		3.335e-02		130.276		8.611e-03		8.718
3		0.00		2.40		3.668e-02		130.401		1.013e-02		10.240
3		0.00		2.80		3.989e-02		131.590		1.159e-02		10.345
3		0.00		3.20		4.231e-02		130.342		1.267e-02		15.026
3		0.00		3.60		4.407e-02		129.371		1.375e-02		21.291
3		0.00		4.00		4.597e-02		128.033		1.506e-02		27.665
3		0.00		4.40		4.650e-02		127.557		1.566e-02		27.501
3		0.00		4.80		4.855e-02		126.739		1.650e-02		27.313
3		0.00		5.20		4.939e-02		126.593		1.702e-02		26.040
3		0.00		5.60		4.931e-02		129.014		1.655e-02		23.996
3		0.00		6.00		5.064e-02		128.787		1.660e-02		19.979
3		0.00		6.40		5.054e-02		127.461		1.663e-02		20.042
3		0.00		6.80		5.196e-02		126.986		1.626e-02		18.705
3		0.00		7.20		5.300e-02		128.802		1.547e-02		15.305
3		0.00		7.60		5.322e-02		131.052		1.428e-02		14.721
3		0.00		8.00		5.358e-02		125.299		1.320e-02		17.755
3		0.00		8.40		5.501e-02		129.007		1.409e-02		16.258
3		0.00		8.80		5.432e-02		126.776		1.514e-02		21.237
3		0.00		9.20		5.290e-02		123.826		1.539e-02		27.464
3		0.00		9.60		5.321e-02		121.467		1.486e-02		22.874
3		0.00		10.00		5.120e-02		127.188		1.574e-02		18.029
3		0.00		9.60		5.076e-02		124.763		1.493e-02		18.203
3		0.00		9.20		5.303e-02		126.812		1.448e-02		18.640
3		0.00		8.80		5.067e-02		129.185		1.419e-02		15.722
3		0.00		8.40		4.914e-02		131.945		1.385e-02		13.845
3		0.00		8.00		4.659e-02		131.285		1.380e-02		13.577
3		0.00		7.60		4.582e-02		131.549		1.340e-02		12.054
3		0.00		7.20		4.368e-02		131.808		1.293e-02		11.594
3		0.00		6.80		4.098e-02		132.170		1.222e-02		10.429
3		0.00		6.40		3.872e-02		131.884		1.137e-02		11.629
3		0.00		6.00		3.768e-02		132.441		1.096e-02		9.845
3		0.00		5.60		3.371e-02		132.655		9.786e-03		10.147
3		0.00		5.20		3.085e-02		133.102		9.028e-03		10.535
3		0.00		4.80		2.790e-02		133.177		7.901e-03		10.328
3		0.00		4.40		2.439e-02		133.535		7.201e-03		11.285
3		0.00		4.00		2.032e-02		133.973		5.891e-03		15.317
3		0.00		3.60		1.586e-02		132.982		4.577e-03		19.241
3		0.00		3.20		1.122e-02		135.627		3.326e-03		19.906
3		0.00		2.80		7.378e-03		126.911		2.348e-03		28.628
3		0.00		2.40		2.695e-03		70.599		1.219e-03		76.894
3		0.00		2.00		3.728e-03		-43.689		1.502e-03		37.512
3		0.00		1.60		8.633e-03		-47.578		2.495e-03		14.050
3		0.00		1.20		1.342e-02		-49.808		3.955e-03		15.007
3		0.00		0.80		1.808e-02		-55.038		5.386e-03		18.595
3		0.00		0.40		2.290e-02		-50.849		6.632e-03		14.317
3		0.00		0.00		2.736e-02		-51.967		7.953e-03		12.831
3		0.00		-0.40		3.136e-02		-51.087		8.887e-03		13.196
3		0.00		-0.80		3.434e-02		-50.852		9.841e-03		11.379
3		0.00		-1.20		3.685e-02		-50.452		1.013e-02		11.528
3		0.00		-1.60		3.795e-02		-51.939		9.923e-03		11.628
3		0.00		-2.00		4.044e-02		-52.473		1.049e-02		11.139
3		0.00		-2.40		4.154e-02		-51.049		1.037e-02		10.840
3		0.00		-2.80		4.391e-02		-51.066		1.049e-02		9.690
3		0.00		-3.20		4.397e-02		-51.437		9.928e-03		10.499
3		0.00		-3.60		4.554e-02		-52.228		1.018e-02		9.815
3		0.00		-4.00		4.537e-02		-52.279		1.064e-02		9.869
3		0.00		-4.40		4.551e-02		-52.396		1.105e-02		11.437
3		0.00		-4.80		4.557e-02		-51.356		1.143e-02		12.126
3		0.00		-5.20		4.673e-02		-50.875		1.148e-02		12.402
3		0.00		-5.60		4.695e-02		-50.636		1.159e-02		11.853
3		0.00		-6.00		4.741e-02		-50.905		1.214e-02		13.825
3		0.00		-6.40		4.857e-02		-49.891		1.266e-02		14.128
3		0.00		-6.80		4.869e-02		-51.174		1.306e-02		14.070
3		0.00		-7.20		4.976e-02		-49.155		1.254e-02		14.502
3		0.00		-7.60		5.068e-02		-50.017		1.295e-02		15.057
3		0.00		-8.00		5.112e-02		-49.718		1.344e-02		14.891
3		0.00		-8.40		4.877e-02		-47.857		1.333e-02		15.100
3		0.00		-8.80		4.762e-02		-46.567		1.324e-02		13.768
3		0.00		-9.20		4.396e-02		-45.984		1.302e-02		13.412
3		0.00		-9.60		4.046e-02		-47.157		1.258e-02		14.048
3		0.00		-10.00		3.589e-02		-43.841		1.061e-02		12.959
3		0.00		-9.60		4.116e-02		-45.930		1.255e-02		12.818
3		0.00		-9.20		4.602e-02		-43.990		1.367e-02		12.184
3		0.00		-8.80		4.845e-02		-45.701		1.405e-02		12.600
3		0.00		-8.40		4.953e-02		-47.267		1.384e-02		12.306
3		0.00		-8.00		5.022e-02		-46.602		1.327e-02		11.450
3		0.00		-7.60		4.916e-02		-47.665		1.304e-02		12.519
3		0.00		-7.20		4.730e-02		-48.253		1.256e-02		10.708
3		0.00		-6.80		4.567e-02		-46.990		1.199e-02		10.830
3		0.00		-6.40		4.416e-02		-47.143		1.118e-02		10.568
3		0.00		-6.00		4.248e-02		-47.969		1.089e-02		9.655
3		0.00		-5.60		3.943e-02		-47.727		9.983e-03		8.445
3		0.00		-5.20		3.602e-02		-48.963		9.371e-03		9.295
3		0.00		-4.80		3.338e-02		-49.789		8.337e-03		9.594
3		0.00		-4.40		3.053e-02		-50.477		7.577e-03		9.942
3		0.00		-4.00		2.737e-02		-50.581		6.505e-03		9.439
3		0.00		-3.60		2.363e-02		-51.129		5.370e-03		10.248
3		0.00		-3.20		2.047e-02		-50.995		4.597e-03		11.515
3		0.00		-2.80		1.674e-02		-48.292		3.481e-03		11.299
3		0.00		-2.40		1.338e-02		-48.953		2.825e-03		12.718
3		0.00		-2.00		9.584e-03		-42.683		2.298e-03		14.399
3		0.00		-1.60		5.437e-03		-37.578		1.637e-03		18.543
3		0.00		-1.20		2.454e-03		17.248		9.454e-04		68.124
3		0.00		-0.80		4.712e-03		109.319		1.757e-03		33.148
3		0.00		-0.40		8.957e-03		120.220		2.377e-03		14.608
4		0.00		0.00		1.372e-02		126.216		3.183e-03		11.159
4		0.00		0.40		1.807e-02		125.749		3.943e-03		9.381
4		0.00		0.80		2.238e-02		128.690		4.975e-03		9.673
4		0.00		1.20		2.682e-02		128.985		5.714e-03		8.798
4		0.00		1.60		3.094e-02		129.789		6.494e-03		8.258
4		0.00		2.00		3.368e-02		129.610		7.788e-03		9.242
4		0.00		2.40		3.692e-02		130.789		8.584e-03		9.482
4		0.00		2.80		3.979e-02		130.187		9.099e-03		10.043
4		0.00		3.20		4.209e-02		130.649		1.056e-02		8.568
4		0.00		3.60		4.411e-02		130.895		1.079e-02		9.173
4		0.00		4.00		4.432e-02		130.472		1.171e-02		10.690
4		0.00		4.40		4.560e-02		131.970		1.254e-02		10.144
4		0.00		4.80		4.691e-02		131.957		1.303e-02		11.660
4		0.00		5.20		4.991e-02		132.442		1.390e-02		11.619
4		0.00		5.60		5.037e-02		130.051		1.464e-02		16.109
4		0.00		6.00		5.247e-02		129.954		1.550e-02		15.934
4		0.00		6.40		5.362e-02		128.319		1.695e-02		26.860
4		0.00		6.80		5.533e-02		130.216		1.734e-02		23.605
4		0.00		7.20		5.636e-02		128.160		1.825e-02		29.237
4		0.00		7.60		5.757e-02		127.726		1.929e-02		31.415
4		0.00		8.00		5.830e-02		130.611		1.941e-02		30.547
4		0.00		8.40		5.956e-02		124.927		2.088e-02		35.382
4		0.00		8.80		5.986e-02		128.131		2.128e-02		28.882
4		0.00		9.20		6.189e-02		128.173		2.284e-02		24.872
4		0.00		9.60		5.684e-02		128.145		2.100e-02		24.270
4		0.00		10.00		5.384e-02		126.415		2.115e-02		16.572
4		0.00		9.60		5.405e-02		129.914		2.054e-02		11.417
4		0.00		9.20		5.362e-02		131.556		1.901e-02		12.242
4		0.00		8.80		5.219e-02		131.943		1.682e-02		12.855
4		0.00		8.40		5.073e-02		132.102		1.542e-02		13.852
4		0.00		8.00		4.810e-02		133.243		1.375e-02		12.644
4		0.00		7.60		4.613e-02		131.949		1.217e-02		13.707
4		0.00		7.20		4.354e-02		129.188		1.108e-02		13.559
4		0.00		6.80		4.232e-02		132.024		1.030e-02		12.623
4		0.00		6.40		4.027e-02		133.997		9.297e-03		10.587
4		0.00		6.00		3.832e-02		133.044		8.579e-03		9.690
4		0.00		5.60		3.661e-02		133.613		8.785e-03		9.132
4		0.00		5.20		3.367e-02		133.170		8.312e-03		8.254
4		0.00		4.80		3.015e-02		132.822		7.230e-03		8.627
4		0.00		4.40		2.620e-02		132.994		6.699e-03		11.238
4		0.00		4.00		2.263e-02		132.473		5.542e-03		14.001
4		0.00		3.60		1.828e-02		132.462		4.654e-03		16.904
4		0.00		3.20		1.405e-02		132.298		3.609e-03		18.856
4		0.00		2.80		8.822e-03		132.077		2.600e-03		21.035
4		0.00		2.40		3.316e-03		94.335		1.349e-03		68.447
4		0.00		2.00		3.315e-03		-48.167		1.460e-03		38.612
4		0.00		1.60		8.051e-03		-55.416		2.501e-03		17.455
4		0.00		1.20		1.355e-02		-55.476		4.034e-03		13.599
4		0.00		0.80		1.841e-02		-52.676		5.159e-03		10.477
4		0.00		0.40		2.342e-02		-51.317		5.833e-03		9.208
4		0.00		0.00		2.829e-02		-50.423		6.883e-03		8.215
4		0.00		-0.40		3.257e-02		-50.823		7.025e-03		7.343
4		0.00		-0.80		3.685e-02		-51.659		7.543e-03		8.742
4		0.00		-1.20		3.956e-02		-52.321		7.918e-03		8.401
4		0.00		-1.60		4.184e-02		-51.704		8.096e-03		8.794
4		0.00		-2.00		4.227e-02		-53.382		8.418e-03		9.367
4		0.00		-2.40		4.435e-02		-52.475		8.804e-03		10.276
4		0.00		-2.80		4.549e-02		-51.205		9.124e-03		9.740
4		0.00		-3.20		4.758e-02		-50.579		1.035e-02		9.901
4		0.00		-3.60		4.727e-02		-51.513		1.088e-02		9.610
4		0.00		-4.00		4.861e-02		-52.112		1.173e-02		10.913
4		0.00		-4.40		4.986e-02		-50.278		1.236e-02		9.940
4		0.00		-4.80		4.963e-02		-49.595		1.339e-02		12.345
4		0.00		-5.20		5.047e-02		-49.587		1.473e-02		16.904
4		0.00		-5.60		4.901e-02		-48.483		1.542e-02		20.712
4		0.00		-6.00		5.150e-02		-49.774		1.699e-02		21.336
4		0.00		-6.40		5.076e-02		-46.080		1.738e-02		23.928
4		0.00		-6.80		5.140e-02		-47.038		1.782e-02		21.377
4		0.00		-7.20		5.365e-02		-45.526		1.954e-02		23.742
4		0.00		-7.60		5.378e-02		-45.223		1.986e-02		22.158
4		0.00		-8.00		5.239e-02		-45.954		1.836e-02		21.178
4		0.00		-8.40		5.218e-02		-45.205		1.902e-02		19.204
4		0.00		-8.80		4.929e-02		-45.447		1.686e-02		14.151
4		0.00		-9.20		4.789e-02		-42.704		1.615e-02		10.710
4		0.00		-9.60		4.399e-02		-43.127		1.449e-02		9.100
4		0.00		-10.00		3.778e-02		-41.744		1.237e-02		10.283
4		0.00		-9.60		4.268e-02		-44.178		1.367e-02		9.857
4		0.00		-9.20		4.665e-02		-42.975		1.429e-02		9.458
4		0.00		-8.80		4.973e-02		-42.807		1.469e-02		8.678
4		0.00		-8.40		5.261e-02		-45.176		1.473e-02		9.540
4		0.00		-8.00		5.254e-02		-46.390		1.451e-02		9.924
4		0.00		-7.60		5.166e-02		-47.206		1.399e-02		9.128
4		0.00		-7.20		5.155e-02		-46.171		1.361e-02		8.073
4		0.00		-6.80		4.840e-02		-45.687		1.272e-02		8.119
4		0.00		-6.40		4.610e-02		-46.149		1.199e-02		8.225
4		0.00		-6.00		4.351e-02		-46.429		1.085e-02		8.269
4		0.00		-5.60		4.170e-02		-46.581		1.048e-02		8.200
4		0.00		-5.20		3.917e-02		-47.247		9.485e-03		8.196
4		0.00		-4.80		3.739e-02		-47.734		8.697e-03		7.282
4		0.00		-4.40		3.330e-02		-50.336		7.608e-03		7.908
4		0.00		-4.00		2.947e-02		-49.523		6.263e-03		8.344
4		0.00		-3.60		2.623e-02		-49.757		5.829e-03		8.545
4		0.00		-3.20		2.274e-02		-50.007		4.445e-03		9.847
4		0.00		-2.80		1.899e-02		-49.181		3.850e-03		9.893
4		0.00		-2.40		1.461e-02		-45.994		3.061e-03		10.767
4		0.00		-2.00		1.018e-02		-44.824		2.299e-03		11.830
4		0.00		-1.60		5.874e-03		-48.020		1.683e-03		18.181
4		0.00		-1.20		2.363e-03		-2.939		9.733e-04		60.181
4		0.00		-0.80		4.681e-03		119.710		1.606e-03		30.634
4		0.00		-0.40		9.509e-03		123.756		2.314e-03		11.571
5		0.00		0.00		1.405e-02		125.577		3.252e-03		11.300
5		0.00		0.40		1.865e-02		128.654		3.874e-03		8.491
5		0.00		0.80		2.304e-02		128.214		4.682e-03		8.168
5		0.00		1.20		2.757e-02		128.611		5.720e-03		9.576
5		0.00		1.60		3.119e-02		129.987		6.719e-03		7.719
5		0.00		2.00		3.454e-02		129.562		7.739e-03		7.576
5		0.00		2.40		3.779e-02		130.489		8.181e-03		7.604
5		0.00		2.80		4.095e-02		130.539		9.691e-03		8.543
5		0.00		3.20		4.351e-02		131.845		9.734e-03		8.712
5		0.00		3.60		4.445e-02		130.812		1.081e-02		11.432
5		0.00		4.00		4.646e-02		131.414		1.084e-02		11.148
5		0.00		4.40		4.810e-02		131.197		1.064e-02		11.734
5		0.00		4.80		4.873e-02		128.024		1.194e-02		14.897
5		0.00		5.20		5.086e-02		128.033		1.265e-02		16.420
5		0.00		5.60		5.087e-02		129.349		1.274e-02		18.037
5		0.00		6.00		5.373e-02		131.840		1.322e-02		16.777
5		0.00		6.40		5.405e-02		131.396		1.379e-02		18.837
5		0.00		6.80		5.558e-02		129.659		1.391e-02		20.062
5		0.00		7.20		5.548e-02		133.450		1.402e-02		17.618
5		0.00		7.60		5.714e-02		130.662		1.481e-02		21.284
5		0.00		8.00		5.780e-02		129.726		1.485e-02		28.573
5		0.00		8.40		5.751e-02		129.586		1.535e-02		32.606
5		0.00		8.80		5.974e-02		125.459		1.749e-02		31.736
5		0.00		9.20		5.820e-02		134.034		1.693e-02		23.011
5		0.00		9.60		5.805e-02		133.378		1.821e-02		13.918
5		0.00		10.00		5.412e-02		133.150		1.631e-02		20.546
5		0.00		9.60		5.542e-02		130.897		1.709e-02		14.223
5		0.00		9.20		5.588e-02		129.333		1.712e-02		15.679
5		0.00		8.80		5.417e-02		132.200		1.546e-02		14.535
5		0.00		8.40		5.325e-02		133.721		1.483e-02		12.630
5		0.00		8.00		5.229e-02		131.787		1.402e-02		10.942
5		0.00		7.60		5.115e-02		131.874		1.298e-02		10.562
5		0.00		7.20		4.991e-02		133.477		1.279e-02		8.628
5		0.00		6.80		4.809e-02		133.942		1.218e-02		8.243
5		0.00		6.40		4.505e-02		133.785		1.143e-02		7.917
5		0.00		6.00		4.247e-02		133.803		1.098e-02		7.499
5		0.00		5.60		3.958e-02		134.237		1.003e-02		7.655
5		0.00		5.20		3.557e-02		133.940		9.526e-03		7.851
5		0.00		4.80		3.172e-02		133.931		8.386e-03		8.325
5		0.00		4.40		2.767e-02		134.900		7.219e-03		7.538
5		0.00		4.00		2.282e-02		132.993		6.226e-03		11.936
5		0.00		3.60		1.799e-02		135.680		5.067e-03		14.128
5		0.00		3.20		1.341e-02		133.547		3.757e-03		19.118
5		0.00		2.80		7.744e-03		129.737		2.511e-03		25.837
5		0.00		2.40		2.927e-03		77.193		1.232e-03		74.102
5		0.00		2.00		3.882e-03		-52.676		1.612e-03		34.619
5		0.00		1.60		9.036e-03		-54.453		2.663e-03		14.083
5		0.00		1.20		1.403e-02		-50.126		3.668e-03		11.645
5		0.00		0.80		1.908e-02		-51.536		5.120e-03		12.002
5		0.00		0.40		2.418e-02		-48.563		5.585e-03		10.799
5		0.00		0.00		2.952e-02		-49.512		6.002e-03		9.184
5		0.00		-0.40		3.330e-02		-50.347		7.320e-03		9.559
5		0.00		-0.80		3.777e-02		-49.251		7.490e-03		7.817
5		0.00		-1.20		4.022e-02		-50.565		8.500e-03		8.609
5		0.00		-1.60		4.235e-02		-49.730		8.481e-03		9.310
5		0.00		-2.00		4.451e-02		-50.769		8.556e-03		8.387
5		0.00		-2.40		4.590e-02		-50.939		9.005e-03		8.302
5		0.00		-2.80		4.668e-02		-50.196		9.507e-03		8.464
5		0.00		-3.20		4.751e-02		-51.601		1.048e-02		8.854
5		0.00		-3.60		4.803e-02		-51.972		1.068e-02		9.301
5		0.00		-4.00		4.681e-02		-53.212		1.063e-02		10.157
5		0.00		-4.40		4.738e-02		-52.974		1.107e-02		10.394
5		0.00		-4.80		4.839e-02		-51.142		1.171e-02		11.021
5		0.00		-5.20		4.879e-02		-51.906		1.145e-02		11.710
5		0.00		-5.60		4.971e-02		-50.831		1.249e-02		11.367
5		0.00		-6.00		4.957e-02		-49.185		1.197e-02		11.844
5		0.00		-6.40		5.032e-02		-49.315		1.215e-02		10.495
5		0.00		-6.80		5.219e-02		-47.832		1.274e-02		9.854
5		0.00		-7.20		5.315e-02		-47.617		1.386e-02		11.036
5		0.00		-7.60		5.453e-02		-47.374		1.487e-02		11.404
5		0.00		-8.00		5.434e-02		-45.687		1.435e-02		11.580
5		0.00		-8.40		5.384e-02		-45.593		1.497e-02		11.918
5		0.00		-8.80		5.189e-02		-44.752		1.532e-02		10.193
5		0.00		-9.20		4.977e-02		-44.179		1.561e-02		7.920
5		0.00		-9.60		4.472e-02		-42.621		1.454e-02		9.687
5		0.00		-10.00		3.891e-02		-42.964		1.285e-02		11.330
5		0.00		-9.60		4.448e-02		-42.502		1.509e-02		14.604
5		0.00		-9.20		5.007e-02		-41.653		1.647e-02		15.957
5		0.00		-8.80		5.138e-02		-42.578		1.733e-02		14.702
5		0.00		-8.40		5.240e-02		-43.252		1.884e-02		18.720
5		0.00		-8.00		5.384e-02		-42.195		1.940e-02		21.062
5		0.00		-7.60		5.300e-02		-46.640		1.912e-02		21.982
5		0.00		-7.20		5.133e-02		-45.328		1.676e-02		22.716
5		0.00		-6.80		4.999e-02		-47.204		1.557e-02		18.619
5		0.00		-6.40		4.745e-02		-47.477		1.430e-02		18.399
5		0.00		-6.00		4.441e-02		-46.951		1.267e-02		14.488
5		0.00		-5.60		4.201e-02		-46.507		1.111e-02		9.576
5		0.00		-5.20		4.110e-02		-46.484		9.289e-03		7.802
5		0.00		-4.80		3.735e-02		-47.488		8.518e-03		7.633
5		0.00		-4.40		3.403e-02		-48.613		7.255e-03		8.378
5		0.00		-4.00		3.072e-02		-49.418		6.453e-03		8.427
5		0.00		-3.60		2.693e-02		-50.657		5.137e-03		8.891
5		0.00		-3.20		2.357e-02		-47.739		4.499e-03		8.788
5		0.00		-2.80		1.933e-02		-48.329		3.675e-03		8.765
5		0.00		-2.40		1.458e-02		-45.473		3.038e-03		9.904
5		0.00		-2.00		1.045e-02		-41.540		2.543e-03		11.709
5		0.00		-1.60		5.603e-03		-39.779		1.841e-03		22.890
5		0.00		-1.20		2.206e-03		18.247		9.000e-04		68.188
5		0.00		-0.80		5.027e-03		106.989		1.659e-03		26.238
5		0.00		-0.40		9.458e-03		122.849		2.946e-03		13.028
6		0.00		0.00		1.412e-02		127.170		3.912e-03		12.575
6		0.00		0.40		1.914e-02		128.074		5.082e-03		13.861
6		0.00		0.80		2.292e-02		125.452		6.161e-03		16.876
6		0.00		1.20		2.752e-02		127.991		7.256e-03		15.217
6		0.00		1.60		3.165e-02		130.292		7.812e-03		12.577
6		0.00		2.00		3.578e-02		130.133		8.828e-03		11.024
6		0.00		2.40		3.987e-02		132.307		9.079e-03		7.910
6		0.00		2.80		4.379e-02		133.105		9.029e-03		8.313
6		0.00		3.20		4.622e-02		132.317		9.120e-03		7.943
6		0.00		3.60		4.868e-02		132.832		9.641e-03		8.649
6		0.00		4.00		4.953e-02		132.240		1.045e-02		10.218
6		0.00		4.40		5.129e-02		131.966		1.095e-02		9.516
6		0.00		4.80		5.250e-02		133.064		1.210e-02		10.939
6		0.00		5.20		5.464e-02		133.475		1.293e-02		8.195
6		0.00		5.60		5.638e-02		136.996		1.471e-02		7.566
6		0.00		6.00		5.560e-02		136.837		1.648e-02		8.315
6		0.00		6.40		5.555e-02		137.112		1.834e-02		14.155
6		0.00		6.80		5.726e-02		133.762		2.033e-02		19.652
6		0.00		7.20		5.576e-02		132.186		1.953e-02		27.184
6		0.00		7.60		5.629e-02		132.244		2.022e-02		29.194
6		0.00		8.00		5.792e-02		116.568		2.122e-02		58.004
6		0.00		8.40		5.835e-02		117.846		2.212e-02		56.838
6		0.00		8.80		5.870e-02		119.609		1.895e-02		51.321
6		0.00		9.20		6.010e-02		121.740		1.832e-02		44.097
6		0.00		9.60		5.706e-02		122.200		1.693e-02		37.251
6		0.00		10.00		5.370e-02		124.751		1.542e-02		32.540
6		0.00		9.60		5.635e-02		128.471		1.588e-02		28.348
6		0.00		9.20		5.808e-02		124.916		1.594e-02		27.455
6		0.00		8.80		5.563e-02		132.844		1.408e-02		21.998
6		0.00		8.40		5.424e-02		134.580		1.390e-02		14.226
6		0.00		8.00		5.301e-02		132.166		1.347e-02		14.514
6		0.00		7.60		5.206e-02		135.302		1.374e-02		10.092
6		0.00		7.20		5.007e-02		134.090		1.408e-02		8.796
6		0.00		6.80		4.713e-02		134.609		1.333e-02		8.496
6		0.00		6.40		4.569e-02		133.102		1.425e-02		9.487
6		0.00		6.00		4.181e-02		131.794		1.380e-02		14.846
6		0.00		5.60		3.889e-02		130.240		1.221e-02		19.241
6		0.00		5.20		3.537e-02		131.476		1.110e-02		19.757
6		0.00		4.80		3.151e-02		130.190		9.218e-03		22.240
6		0.00		4.40		2.711e-02		130.739		7.745e-03		21.584
6		0.00		4.00		2.201e-02		129.604		6.085e-03		20.880
6		0.00		3.60		1.710e-02		132.968		4.305e-03		16.172
6		0.00		3.20		1.203e-02		134.508		3.124e-03		16.490
6		0.00		2.80		6.476e-03		138.694		1.951e-03		25.453
6		0.00		2.40		2.052e-03		-10.481		7.668e-04		83.612
6		0.00		2.00		5.747e-03		-54.474		1.835e-03		21.114
6		0.00		1.60		1.121e-02		-56.906		2.531e-03		13.049
6		0.00		1.20		1.687e-02		-52.681		3.682e-03		9.717
6		0.00		0.80		2.237e-02		-51.898		4.456e-03		9.943
6		0.00		0.40		2.733e-02		-51.710		5.274e-03		9.779
6		0.00		0.00		3.227e-02		-48.308		6.508e-03		8.595
6		0.00		-0.40		3.683e-02		-50.464		6.683e-03		8.721
6		0.00		-0.80		4.056e-02		-51.337		7.798e-03		8.616
6		0.00		-1.20		4.304e-02		-51.587		8.296e-03		7.838
6		0.00		-1.60		4.474e-02		-52.212		9.230e-03		7.936
6		0.00		-2.00		4.499e-02		-52.649		9.021e-03		8.108
6		0.00		-2.40		4.697e-02		-52.132		9.925e-03		8.725
6		0.00		-2.80		4.692e-02		-52.901		9.740e-03		8.994
6		0.00		-3.20		4.732e-02		-52.771		1.061e-02		9.684
6		0.00		-3.60		4.764e-02		-54.096		1.108e-02		9.715
6		0.00		-4.00		4.842e-02		-53.792		1.135e-02		9.227
6		0.00		-4.40		4.904e-02		-54.296		1.075e-02		9.249
6		0.00		-4.80		5.051e-02		-51.265		1.101e-02		9.460
6		0.00		-5.20		5.206e-02		-50.968		1.138e-02		10.065
6		0.00		-5.60		5.313e-02		-48.857		1.168e-02		8.827
6		0.00		-6.00		5.243e-02		-48.632		1.159e-02		10.249
6		0.00		-6.40		5.324e-02		-47.043		1.151e-02		10.534
6		0.00		-6.80		5.556e-02		-46.688		1.338e-02		11.255
6		0.00		-7.20		5.543e-02		-46.906		1.304e-02		9.364
6		0.00		-7.60		5.664e-02		-47.113		1.460e-02		11.634
6		0.00		-8.00		5.726e-02		-46.025		1.472e-02		9.607
6		0.00		-8.40		5.584e-02		-44.663		1.558e-02		10.565
6		0.00		-8.80		5.333e-02		-43.574		1.620e-02		9.289
6		0.00		-9.20		4.911e-02		-43.195		1.549e-02		8.619
6		0.00		-9.60		4.379e-02		-42.845		1.466e-02		8.909
6		0.00		-10.00		3.826e-02		-41.839		1.297e-02		8.487
6		0.00		-9.60		4.359e-02		-42.586		1.489e-02		8.596
6		0.00		-9.20		4.835e-02		-42.343		1.647e-02		8.647
6		0.00		-8.80		5.096e-02		-43.262		1.683e-02		8.604
6		0.00		-8.40		5.289e-02		-43.760		1.699e-02		7.769
6		0.00		-8.00		5.375e-02		-44.065		1.720e-02		7.798
6		0.00		-7.60		5.431e-02		-44.585		1.596e-02		8.470
6		0.00		-7.20		5.168e-02		-44.328		1.518e-02		9.329
6		0.00		-6.80		4.961e-02		-45.372		1.416e-02		8.664
6		0.00		-6.40		4.800e-02		-45.439		1.332e-02		8.876
6		0.00		-6.00		4.640e-02		-45.696		1.281e-02		8.096
6		0.00		-5.60		4.402e-02		-45.807		1.255e-02		9.777
6		0.00		-5.20		4.111e-02		-47.024		1.114e-02		8.758
6		0.00		-4.80		3.832e-02		-47.438		1.032e-02		7.393
6		0.00		-4.40		3.510e-02		-48.467		9.111e-03		7.930
6		0.00		-4.00		3.117e-02		-48.257		8.226e-03		8.618
6		0.00		-3.60		2.748e-02		-49.023		7.380e-03		7.473
6		0.00		-3.20		2.338e-02		-49.162		6.247e-03		8.969
6		0.00		-2.80		1.938e-02		-46.047		5.231e-03		9.489
6		0.00		-2.40		1.537e-02		-48.075		3.932e-03		9.735
6		0.00		-2.00		1.087e-02		-46.104		3.201e-03		15.256
6		0.00		-1.60		6.325e-03		-41.465		2.190e-03		19.663
6		0.00		-1.20		2.428e-03		-15.348		1.290e-03		59.939
6		0.00		-0.80		4.132e-03		102.646		1.596e-03		44.159
6		0.00		-0.40		9.093e-03		123.305		2.644e-03		17.678
7		0.00		0.00		1.373e-02		127.099		3.487e-03		10.080
7		0.00		0.40		1.837e-02		127.673		3.903e-03		9.583
7		0.00		0.80		2.311e-02		129.913		4.887e-03		8.286
7		0.00		1.20		2.806e-02		128.714		5.487e-03		7.860
7		0.00		1.60		3.199e-02		129.360		6.397e-03		6.537
7		0.00		2.00		3.555e-02		130.738		7.032e-03		7.606
7		0.00		2.40		3.892e-02		132.703		7.747e-03		6.896
7		0.00		2.80		4.245e-02		133.033		8.334e-03		6.996
7		0.00		3.20		4.548e-02		133.634		9.378e-03		5.718
7		0.00		3.60		4.765e-02		133.178		1.202e-02		8.686
7		0.00		4.00		4.986e-02		133.141		1.331e-02		11.146
7		0.00		4.40		5.232e-02		132.103		1.470e-02		15.618
7		0.00		4.80		5.380e-02		129.706		1.641e-02		23.149
7		0.00		5.20		5.442e-02		132.044		1.732e-02		20.873
7		0.00		5.60		5.443e-02		132.541		1.796e-02		22.398
7		0.00		6.00		5.624e-02		136.181		1.939e-02		16.387
7		0.00		6.40		5.686e-02		136.620		1.843e-02		15.446
7		0.00		6.80		5.653e-02		134.372		1.735e-02		23.052
7		0.00		7.20		5.727e-02		136.206		1.712e-02		24.525
7		0.00		7.60		5.837e-02		133.714		1.653e-02		19.214
7		0.00		8.00		6.064e-02		129.970		1.670e-02		22.532
7		0.00		8.40		6.125e-02		127.018		1.648e-02		30.909
7		0.00		8.80		6.188e-02		120.680		1.668e-02		41.646
7		0.00		9.20		6.117e-02		120.754		1.803e-02		43.194
7		0.00		9.60		6.189e-02		126.742		1.920e-02		27.482
7		0.00		10.00		5.961e-02		124.152		2.068e-02		44.125
7		0.00		9.60		5.996e-02		119.250		2.120e-02		46.473
7		0.00		9.20		5.935e-02		127.888		2.041e-02		30.031
7		0.00		8.80		5.753e-02		132.816		1.940e-02		25.197
7		0.00		8.40		5.603e-02		136.867		1.789e-02		16.485
7		0.00		8.00		5.273e-02		136.683		1.600e-02		9.115
7		0.00		7.60		5.224e-02		134.172		1.607e-02		8.192
7		0.00		7.20		4.965e-02		133.872		1.391e-02		8.838
7		0.00		6.80		4.685e-02		132.453		1.307e-02		10.385
7		0.00		6.40		4.363e-02		133.309		1.095e-02		8.703
7		0.00		6.00		4.127e-02		134.748		9.852e-03		8.674
7		0.00		5.60		3.856e-02		134.359		9.656e-03		6.614
7		0.00		5.20		3.481e-02		134.432		9.497e-03		8.046
7		0.00		4.80		3.148e-02		134.041		9.215e-03		15.279
7		0.00		4.40		2.742e-02		131.953		7.886e-03		20.296
7		0.00		4.00		2.247e-02		133.459		6.112e-03		19.466
7		0.00		3.60		1.819e-02		134.575		5.075e-03		14.878
7		0.00		3.20		1.268e-02		140.040		3.168e-03		10.323
7		0.00		2.80		6.851e-03		142.507		1.794e-03		13.359
7		0.00		2.40		2.242e-03		-1.825		8.133e-04		88.398
7		0.00		2.00		5.043e-03		-62.120		1.490e-03		25.644
7		0.00		1.60		1.069e-02		-58.776		2.342e-03		12.277
7		0.00		1.20		1.591e-02		-52.907		3.453e-03		10.351
7		0.00		0.80		2.098e-02		-52.597		5.066e-03		13.635
7		0.00		0.40		2.629e-02		-51.213		6.741e-03		13.850
7		0.00		0.00		3.131e-02		-50.835		8.021e-03		10.377
7		0.00		-0.40		3.553e-02		-50.518		8.953e-03		7.543
7		0.00		-0.80		3.965e-02		-50.873		8.503e-03		6.295
7		0.00		-1.20		4.288e-02		-52.125		8.173e-03		6.268
7		0.00		-1.60		4.385e-02		-51.667		8.808e-03		9.498
7		0.00		-2.00		4.552e-02		-51.001		1.015e-02		9.668
7		0.00		-2.40		4.610e-02		-50.386		1.164e-02		9.539
7		0.00		-2.80		4.717e-02		-51.527		1.337e-02		14.219
7		0.00		-3.20		4.816e-02		-52.695		1.523e-02		15.120
7		0.00		-3.60		4.864e-02		-50.895		1.518e-02		8.025
7		0.00		-4.00		4.999e-02		-50.909		1.262e-02		6.826
7		0.00		-4.40		5.175e-02		-51.370		1.093e-02		7.352
7		0.00		-4.80		5.195e-02		-51.297		1.156e-02		9.108
7		0.00		-5.20		5.112e-02		-47.688		1.138e-02		9.935
7		0.00		-5.60		5.354e-02		-46.519		1.414e-02		11.584
7		0.00		-6.00		5.476e-02		-47.630		1.533e-02		17.986
7		0.00		-6.40		5.618e-02		-47.551		1.765e-02		16.411
7		0.00		-6.80		5.623e-02		-46.841		1.687e-02		10.086
7		0.00		-7.20		5.609e-02		-45.372		1.526e-02		11.232
7		0.00		-7.60		5.633e-02		-47.375		1.416e-02		9.850
7		0.00		-8.00		5.565e-02		-47.121		1.468e-02		12.908
7		0.00		-8.40		5.380e-02		-46.139		1.498e-02		14.256
7		0.00		-8.80		5.273e-02		-43.587		1.598e-02		12.043
7		0.00		-9.20		5.108e-02		-44.700		1.735e-02		24.703
7		0.00		-9.60		4.679e-02		-37.633		1.787e-02		33.838
7		0.00		-10.00		4.117e-02		-37.834		1.563e-02		27.985
7		0.00		-9.60		4.442e-02		-44.764		1.609e-02		11.350
7		0.00		-9.20		4.701e-02		-43.177		1.572e-02		10.075
7		0.00		-8.80		4.987e-02		-44.219		1.373e-02		11.873
7		0.00		-8.40		5.196e-02		-47.737		1.391e-02		14.690
7		0.00		-8.00		5.118e-02		-46.675		1.222e-02		13.639
7		0.00		-7.60		5.187e-02		-45.372		1.408e-02		14.662
7		0.00		-7.20		5.259e-02		-46.007		1.551e-02		18.540
7		0.00		-6.80		5.296e-02		-45.832		1.630e-02		17.006
7		0.00		-6.40		5.099e-02		-47.016		1.563e-02		13.409
7		0.00		-6.00		4.755e-02		-46.380		1.334e-02		7.603
7		0.00		-5.60		4.572e-02		-47.190		1.120e-02		6.831
7		0.00		-5.20		4.330e-02		-46.635		9.231e-03		6.940
7		0.00		-4.80		4.020e-02		-48.420		8.163e-03		7.048
7		0.00		-4.40		3.642e-02		-48.752		7.071e-03		7.626
7		0.00		-4.00		3.372e-02		-48.453		6.842e-03		6.907
7		0.00		-3.60		2.933e-02		-47.467		6.614e-03		8.168
7		0.00		-3.20		2.551e-02		-48.259		6.451e-03		12.818
7		0.00		-2.80		2.082e-02		-46.069		5.694e-03		12.778
7		0.00		-2.40		1.607e-02		-45.534		4.531e-03		8.531
7		0.00		-2.00		1.185e-02		-41.375		3.367e-03		10.087
7		0.00		-1.60		6.960e-03		-41.119		1.896e-03		12.662
7		0.00		-1.20		2.693e-03		-24.122		1.191e-03		44.477
7		0.00		-0.80		3.991e-03		104.810		1.618e-03		40.981
7		0.00		-0.40		8.893e-03		126.904		2.479e-03		13.020
8		0.00		0.00		1.383e-02		128.963		3.336e-03		9.106
8		0.00		0.40		1.838e-02		128.203		4.601e-03		12.490
8		0.00		0.80		2.360e-02		128.304		5.699e-03		15.699
8		0.00		1.20		2.846e-02		129.424		7.310e-03		12.423
8		0.00		1.60		3.252e-02		132.242		8.324e-03		6.533
8		0.00		2.00		3.758e-02		132.462		8.141e-03		5.834
8		0.00		2.40		4.112e-02		132.105		8.854e-03		6.039
8		0.00		2.80		4.426e-02		132.420		8.743e-03		7.283
8		0.00		3.20		4.609e-02		133.471		8.976e-03		8.310
8		0.00		3.60		4.883e-02		134.749		1.035e-02		6.732
8		0.00		4.00		5.189e-02		134.191		1.232e-02		8.514
8		0.00		4.40		5.331e-02		133.029		1.510e-02		18.364
8		0.00		4.80		5.494e-02		131.503		1.625e-02		25.449
8		0.00		5.20		5.410e-02		131.724		1.811e-02		28.675
8		0.00		5.60		5.429e-02		137.177		1.745e-02		13.011
8		0.00		6.00		5.609e-02		138.627		1.657e-02		11.367
8		0.00		6.40		5.788e-02		134.492		1.611e-02		12.746
8		0.00		6.80		5.587e-02		127.673		1.437e-02		32.054
8		0.00		7.20		5.758e-02		121.989		1.651e-02		45.565
8		0.00		7.60		5.907e-02		128.912		1.761e-02		21.569
8		0.00		8.00		5.689e-02		121.854		1.384e-02		53.253
8		0.00		8.40		6.288e-02		123.926		1.957e-02		47.036
8		0.00		8.80		6.189e-02		120.656		2.246e-02		48.416
8		0.00		9.20		6.233e-02		122.199		2.132e-02		51.254
8		0.00		9.60		6.107e-02		123.683		2.146e-02		51.548
8		0.00		10.00		5.763e-02		131.342		2.029e-02		35.726
8		0.00		9.60		6.130e-02		128.719		2.126e-02		38.266
8		0.00		9.20		6.259e-02		130.940		1.977e-02		21.082
8		0.00		8.80		5.867e-02		132.820		1.601e-02		22.196
8		0.00		8.40		5.633e-02		135.073		1.429e-02		21.843
8		0.00		8.00		5.354e-02		133.166		1.272e-02		18.492
8		0.00		7.60		5.107e-02		133.041		1.235e-02		18.487
8		0.00		7.20		4.984e-02		135.388		1.230e-02		14.062
8		0.00		6.80		4.708e-02		133.896		1.273e-02		11.683
8		0.00		6.40		4.527e-02		132.854		1.352e-02		12.717
8		0.00		6.00		4.357e-02		131.395		1.343e-02		17.703
8		0.00		5.60		4.084e-02		130.627		1.277e-02		20.822
8		0.00		5.20		3.706e-02		132.395		1.172e-02		16.380
8		0.00		4.80		3.291e-02		134.519		9.847e-03		9.507
8		0.00		4.40		2.884e-02		136.316		7.661e-03		7.198
8		0.00		4.00		2.399e-02		136.293		5.773e-03		7.667
8		0.00		3.60		1.902e-02		135.878		4.139e-03		9.792
8		0.00		3.20		1.342e-02		135.358		3.173e-03		7.872
8		0.00		2.80		7.665e-03		137.949		1.831e-03		12.743
8		0.00		2.40		2.317e-03		42.717		9.271e-04		87.481
8		0.00		2.00		4.726e-03		-68.756		1.483e-03		23.475
8		0.00		1.60		1.039e-02		-51.868		2.448e-03		14.623
8		0.00		1.20		1.564e-02		-51.344		3.548e-03		11.879
8		0.00		0.80		2.172e-02		-50.638		5.371e-03		11.761
8		0.00		0.40		2.666e-02		-51.664		6.942e-03		12.583
8		0.00		0.00		3.206e-02		-50.519		8.211e-03		8.727
8		0.00		-0.40		3.654e-02		-48.998		9.819e-03		7.269
8		0.00		-0.80		4.081e-02		-50.039		1.034e-02		6.718
8		0.00		-1.20		4.326e-02		-50.456		1.089e-02		5.921
8		0.00		-1.60		4.560e-02		-50.966		1.090e-02		6.060
8		0.00		-2.00		4.626e-02		-52.488		1.048e-02		6.911
8		0.00		-2.40		4.735e-02		-51.881		9.983e-03		7.148
8		0.00		-2.80		4.781e-02		-51.498		9.985e-03		8.587
8		0.00		-3.20		4.812e-02		-50.983		1.097e-02		9.054
8		0.00		-3.60		4.781e-02		-49.822		1.082e-02		8.408
8		0.00		-4.00		4.953e-02		-50.219		1.258e-02		9.644
8		0.00		-4.40		4.924e-02		-50.829		1.420e-02		10.161
8		0.00		-4.80		5.041e-02		-49.663		1.442e-02		14.576
8		0.00		-5.20		5.234e-02		-45.110		1.539e-02		15.210
8		0.00		-5.60		5.437e-02		-48.662		1.627e-02		18.522
8		0.00		-6.00		5.516e-02		-46.041		1.754e-02		15.979
8		0.00		-6.40		5.443e-02		-44.888		1.723e-02		11.190
8		0.00		-6.80		5.434e-02		-45.590		1.616e-02		9.180
8		0.00		-7.20		5.391e-02		-46.402		1.522e-02		9.392
8		0.00		-7.60		5.631e-02		-46.267		1.578e-02		9.164
8		0.00		-8.00		5.466e-02		-45.119		1.329e-02		11.022
8		0.00		-8.40		5.470e-02		-45.687		1.379e-02		12.505
8		0.00		-8.80		5.188e-02		-45.634		1.347e-02		13.011
8		0.00		-9.20		4.969e-02		-46.058		1.385e-02		12.979
8		0.00		-9.60		4.596e-02		-44.891		1.320e-02		13.129
8		0.00		-10.00		3.984e-02		-43.262		1.085e-02		10.397
8		0.00		-9.60		4.385e-02		-43.165		1.336e-02		10.657
8		0.00		-9.20		4.864e-02		-43.926		1.575e-02		14.302
8		0.00		-8.80		5.147e-02		-43.216		1.707e-02		14.521
8		0.00		-8.40		5.443e-02		-44.692		1.875e-02		22.318
8		0.00		-8.00		5.467e-02		-44.240		1.869e-02		20.134
8		0.00		-7.60		5.401e-02		-45.442		1.889e-02		20.214
8		0.00		-7.20		5.350e-02		-43.264		1.790e-02		18.660
8		0.00		-6.80		5.090e-02		-43.841		1.606e-02		11.020
8		0.00		-6.40		4.887e-02		-44.390		1.371e-02		7.330
8		0.00		-6.00		4.673e-02		-45.887		1.202e-02		7.487
8		0.00		-5.60		4.559e-02		-47.119		1.095e-02		6.664
8		0.00		-5.20		4.274e-02		-47.435		9.130e-03		6.762
8		0.00		-4.80		3.970e-02		-48.279		7.875e-03		6.856
8		0.00		-4.40		3.592e-02		-48.686		7.188e-03		7.356
8		0.00		-4.00		3.256e-02		-48.467		6.147e-03		7.612
8		0.00		-3.60		2.903e-02		-48.218		5.876e-03		8.190
8		0.00		-3.20		2.440e-02		-47.553		5.087e-03		8.593
8		0.00		-2.80		2.037e-02		-47.918		4.603e-03		8.423
8		0.00		-2.40		1.577e-02		-44.525		4.138e-03		10.418
8		0.00		-2.00		1.074e-02		-38.858		3.001e-03		15.753
8		0.00		-1.60		6.211e-03		-37.357		2.294e-03		19.471
8		0.00		-1.20		2.503e-03		0.677		1.090e-03		58.053
8		0.00		-0.80		4.566e-03		103.248		1.869e-03		41.002
8		0.00		-0.40		9.326e-03		123.474		2.818e-03		13.383
