# Date of analysis: 2023-11-20 16;16
# 
# Loop index	Read Volt (V)	Write Volt (V)	Amplitude (a.u)	Phase (deg)	Sigma Amp (a.u)	Sigma Pha (deg)	
1		0.00		0.00		1.355e-02		-49.023		2.689e-03		12.039
1		0.00		0.40		9.154e-03		-41.017		2.254e-03		15.292
1		0.00		0.80		4.436e-03		-43.102		1.541e-03		21.425
1		0.00		1.20		2.092e-03		38.725		7.686e-04		59.180
1		0.00		1.60		5.918e-03		115.374		1.625e-03		18.984
1		0.00		2.00		1.077e-02		129.825		2.104e-03		10.522
1		0.00		2.40		1.574e-02		127.552		2.715e-03		8.711
1		0.00		2.80		2.064e-02		129.465		3.417e-03		8.566
1		0.00		3.20		2.524e-02		129.312		4.110e-03		7.469
1		0.00		3.60		2.869e-02		130.147		5.565e-03		7.750
1		0.00		4.00		3.202e-02		129.019		7.313e-03		9.289
1		0.00		4.40		3.556e-02		128.501		9.137e-03		12.940
1		0.00		4.80		3.925e-02		127.571		9.690e-03		13.820
1		0.00		5.20		4.275e-02		127.722		1.102e-02		14.759
1		0.00		5.60		4.605e-02		130.505		1.072e-02		7.959
1		0.00		6.00		5.018e-02		131.104		1.073e-02		9.888
1		0.00		6.40		5.237e-02		130.975		1.033e-02		8.317
1		0.00		6.80		5.712e-02		132.433		1.040e-02		5.604
1		0.00		7.20		5.787e-02		130.878		1.229e-02		9.815
1		0.00		7.60		5.990e-02		132.580		1.410e-02		8.453
1		0.00		8.00		6.174e-02		129.998		1.580e-02		19.785
1		0.00		8.40		6.091e-02		131.496		1.633e-02		18.336
1		0.00		8.80		5.994e-02		133.127		1.730e-02		22.807
1		0.00		9.20		6.323e-02		130.161		1.968e-02		22.181
1		0.00		9.60		6.104e-02		129.997		1.850e-02		29.573
1		0.00		10.00		5.838e-02		130.988		1.586e-02		23.442
1		0.00		9.60		6.244e-02		130.781		1.556e-02		31.685
1		0.00		9.20		6.325e-02		131.634		1.753e-02		13.037
1		0.00		8.80		5.940e-02		130.403		1.746e-02		13.851
1		0.00		8.40		5.741e-02		127.897		1.750e-02		22.159
1		0.00		8.00		5.411e-02		130.304		1.640e-02		15.965
1		0.00		7.60		5.262e-02		129.938		1.411e-02		13.538
1		0.00		7.20		5.013e-02		132.160		1.025e-02		7.718
1		0.00		6.80		4.838e-02		131.967		8.971e-03		6.575
1		0.00		6.40		4.533e-02		129.705		8.668e-03		6.154
1		0.00		6.00		4.115e-02		130.428		9.463e-03		7.498
1		0.00		5.60		3.698e-02		129.357		9.104e-03		12.669
1		0.00		5.20		3.264e-02		130.528		7.363e-03		12.570
1		0.00		4.80		2.873e-02		131.769		6.375e-03		9.092
1		0.00		4.40		2.475e-02		131.775		4.754e-03		8.822
1		0.00		4.00		2.025e-02		131.307		3.572e-03		7.235
1		0.00		3.60		1.606e-02		130.838		2.824e-03		9.508
1		0.00		3.20		1.118e-02		131.004		2.332e-03		11.766
1		0.00		2.80		6.130e-03		122.110		1.712e-03		25.079
1		0.00		2.40		2.270e-03		64.386		9.689e-04		59.147
1		0.00		2.00		3.593e-03		-51.736		1.353e-03		29.625
1		0.00		1.60		8.489e-03		-49.457		2.200e-03		11.933
1		0.00		1.20		1.294e-02		-51.497		2.597e-03		10.692
1		0.00		0.80		1.809e-02		-51.082		3.035e-03		10.059
1		0.00		0.40		2.325e-02		-50.918		4.221e-03		7.404
1		0.00		0.00		2.804e-02		-49.884		5.672e-03		8.624
1		0.00		-0.40		3.242e-02		-50.568		6.974e-03		8.776
1		0.00		-0.80		3.691e-02		-52.148		8.504e-03		9.623
1		0.00		-1.20		4.192e-02		-51.744		9.450e-03		10.517
1		0.00		-1.60		4.661e-02		-50.890		9.327e-03		7.517
1		0.00		-2.00		5.014e-02		-52.977		9.525e-03		8.449
1		0.00		-2.40		5.334e-02		-51.378		9.543e-03		7.260
1		0.00		-2.80		5.763e-02		-53.270		1.045e-02		6.714
1		0.00		-3.20		6.273e-02		-52.522		1.256e-02		5.973
1		0.00		-3.60		6.077e-02		-51.333		1.428e-02		6.547
1		0.00		-4.00		6.154e-02		-52.068		1.789e-02		11.402
1		0.00		-4.40		6.200e-02		-50.090		1.827e-02		12.423
1		0.00		-4.80		6.006e-02		-45.792		1.860e-02		16.018
1		0.00		-5.20		6.232e-02		-42.197		1.841e-02		15.028
1		0.00		-5.60		6.440e-02		-47.880		2.021e-02		26.451
1		0.00		-6.00		6.493e-02		-45.371		1.663e-02		23.509
1		0.00		-6.40		6.544e-02		-40.799		1.733e-02		22.326
1		0.00		-6.80		6.674e-02		-33.861		1.700e-02		17.876
1		0.00		-7.20		6.681e-02		-41.345		1.483e-02		19.705
1		0.00		-7.60		6.740e-02		-40.835		1.850e-02		20.398
1		0.00		-8.00		6.791e-02		-40.090		1.994e-02		19.432
1		0.00		-8.40		6.711e-02		-37.027		2.036e-02		26.651
1		0.00		-8.80		6.449e-02		-34.445		1.959e-02		19.124
1		0.00		-9.20		6.497e-02		-43.025		1.882e-02		19.736
1		0.00		-9.60		6.266e-02		-40.713		1.811e-02		12.905
1		0.00		-10.00		5.713e-02		-42.181		1.472e-02		12.376
1		0.00		-9.60		6.207e-02		-42.208		1.661e-02		12.198
1		0.00		-9.20		6.403e-02		-39.163		1.696e-02		13.335
1		0.00		-8.80		6.571e-02		-39.580		1.690e-02		12.709
1		0.00		-8.40		6.235e-02		-40.593		1.599e-02		15.123
1		0.00		-8.00		6.262e-02		-43.413		1.797e-02		13.083
1		0.00		-7.60		6.608e-02		-47.097		1.897e-02		11.504
1		0.00		-7.20		6.087e-02		-44.142		1.678e-02		16.177
1		0.00		-6.80		5.965e-02		-44.807		1.740e-02		14.792
1		0.00		-6.40		5.899e-02		-49.838		1.629e-02		16.403
1		0.00		-6.00		5.841e-02		-50.909		1.534e-02		15.644
1		0.00		-5.60		5.492e-02		-48.993		1.201e-02		10.560
1		0.00		-5.20		5.267e-02		-49.498		9.710e-03		6.946
1		0.00		-4.80		4.970e-02		-50.570		8.762e-03		6.154
1		0.00		-4.40		4.506e-02		-51.100		7.843e-03		5.496
1		0.00		-4.00		4.059e-02		-50.790		7.817e-03		6.801
1		0.00		-3.60		3.605e-02		-51.830		7.373e-03		7.251
1		0.00		-3.20		3.153e-02		-50.375		7.179e-03		8.002
1		0.00		-2.80		2.725e-02		-50.288		6.420e-03		9.802
1		0.00		-2.40		2.279e-02		-45.767		5.354e-03		9.715
1		0.00		-2.00		1.847e-02		-45.540		4.266e-03		13.513
1		0.00		-1.60		1.361e-02		-44.953		3.419e-03		11.856
1		0.00		-1.20		8.942e-03		-41.258		2.213e-03		15.311
1		0.00		-0.80		4.863e-03		-32.587		1.526e-03		20.688
1		0.00		-0.40		2.103e-03		16.524		8.905e-04		54.085
2		0.00		0.00		4.728e-03		110.096		1.514e-03		20.991
2		0.00		0.40		8.970e-03		120.402		2.071e-03		14.105
2		0.00		0.80		1.309e-02		126.757		2.860e-03		11.182
2		0.00		1.20		1.765e-02		128.751		3.769e-03		7.601
2		0.00		1.60		2.221e-02		126.902		4.363e-03		8.871
2		0.00		2.00		2.593e-02		127.807		5.518e-03		7.671
2		0.00		2.40		3.008e-02		128.263		6.671e-03		8.758
2		0.00		2.80		3.296e-02		128.682		7.603e-03		8.106
2		0.00		3.20		3.634e-02		127.697		8.802e-03		13.268
2		0.00		3.60		3.978e-02		128.607		9.503e-03		13.724
2		0.00		4.00		4.242e-02		129.637		9.997e-03		13.570
2		0.00		4.40		4.564e-02		130.566		1.061e-02		10.247
2		0.00		4.80		4.811e-02		130.045		1.155e-02		10.659
2		0.00		5.20		5.075e-02		131.029		1.170e-02		8.376
2		0.00		5.60		5.290e-02		130.728		1.249e-02		9.860
2		0.00		6.00		5.358e-02		130.411		1.275e-02		11.865
2		0.00		6.40		5.693e-02		131.782		1.301e-02		11.167
2		0.00		6.80		5.962e-02		132.267		1.245e-02		9.184
2		0.00		7.20		6.106e-02		133.071		1.318e-02		10.166
2		0.00		7.60		6.192e-02		134.871		1.363e-02		10.851
2		0.00		8.00		6.395e-02		135.437		1.456e-02		18.241
2		0.00		8.40		6.593e-02		136.788		1.609e-02		10.566
2		0.00		8.80		6.579e-02		134.693		1.738e-02		13.489
2		0.00		9.20		6.436e-02		130.027		1.810e-02		29.265
2		0.00		9.60		6.426e-02		128.719		1.822e-02		17.695
2		0.00		10.00		6.394e-02		131.032		1.901e-02		23.872
2		0.00		9.60		6.404e-02		130.155		1.833e-02		20.791
2		0.00		9.20		6.376e-02		127.425		1.810e-02		26.781
2		0.00		8.80		6.338e-02		127.518		1.807e-02		28.411
2		0.00		8.40		6.085e-02		132.520		1.659e-02		11.355
2		0.00		8.00		5.853e-02		127.905		1.599e-02		27.995
2		0.00		7.60		5.510e-02		131.139		1.432e-02		13.003
2		0.00		7.20		5.222e-02		130.068		1.362e-02		12.653
2		0.00		6.80		4.981e-02		132.027		1.149e-02		8.236
2		0.00		6.40		4.636e-02		132.097		1.026e-02		6.620
2		0.00		6.00		4.274e-02		132.697		8.464e-03		5.221
2		0.00		5.60		3.950e-02		132.716		8.354e-03		6.485
2		0.00		5.20		3.546e-02		132.369		7.328e-03		6.476
2		0.00		4.80		3.167e-02		130.858		6.873e-03		7.110
2		0.00		4.40		2.744e-02		133.427		6.138e-03		8.045
2		0.00		4.00		2.331e-02		131.512		5.245e-03		8.356
2		0.00		3.60		1.902e-02		130.994		4.143e-03		8.088
2		0.00		3.20		1.458e-02		133.190		3.367e-03		10.895
2		0.00		2.80		1.011e-02		129.422		2.547e-03		11.751
2		0.00		2.40		5.922e-03		127.774		1.797e-03		22.473
2		0.00		2.00		2.042e-03		53.567		8.595e-04		75.637
2		0.00		1.60		4.315e-03		-52.262		1.395e-03		27.185
2		0.00		1.20		8.774e-03		-52.829		2.380e-03		13.686
2		0.00		0.80		1.342e-02		-47.886		3.137e-03		10.773
2		0.00		0.40		1.785e-02		-49.767		3.808e-03		10.150
2		0.00		0.00		2.254e-02		-50.474		4.892e-03		11.649
2		0.00		-0.40		2.671e-02		-50.618		6.069e-03		10.018
2		0.00		-0.80		3.151e-02		-49.276		6.871e-03		8.473
2		0.00		-1.20		3.614e-02		-50.999		7.432e-03		7.069
2		0.00		-1.60		4.030e-02		-51.825		8.334e-03		7.692
2		0.00		-2.00		4.424e-02		-52.066		9.207e-03		6.576
2		0.00		-2.40		4.841e-02		-52.924		9.617e-03		6.511
2		0.00		-2.80		5.239e-02		-51.978		1.019e-02		6.691
2		0.00		-3.20		5.526e-02		-52.808		1.094e-02		8.365
2		0.00		-3.60		5.759e-02		-52.643		1.164e-02		9.071
2		0.00		-4.00		6.142e-02		-52.590		1.269e-02		9.017
2		0.00		-4.40		6.262e-02		-54.041		1.452e-02		14.783
2		0.00		-4.80		6.405e-02		-51.220		1.534e-02		14.702
2		0.00		-5.20		6.423e-02		-44.117		1.276e-02		12.869
2		0.00		-5.60		6.744e-02		-49.178		1.722e-02		18.875
2		0.00		-6.00		6.683e-02		-46.740		1.755e-02		20.452
2		0.00		-6.40		6.729e-02		-43.647		1.786e-02		19.423
2		0.00		-6.80		6.854e-02		-39.322		1.477e-02		15.479
2		0.00		-7.20		6.711e-02		-36.951		1.753e-02		20.831
2		0.00		-7.60		6.860e-02		-42.073		1.887e-02		23.265
2		0.00		-8.00		6.783e-02		-39.784		1.919e-02		23.670
2		0.00		-8.40		6.627e-02		-38.275		1.802e-02		23.785
2		0.00		-8.80		6.770e-02		-35.767		1.841e-02		16.463
2		0.00		-9.20		6.264e-02		-36.271		1.708e-02		17.586
2		0.00		-9.60		6.139e-02		-41.337		1.687e-02		13.524
2		0.00		-10.00		5.598e-02		-41.800		1.437e-02		8.629
2		0.00		-9.60		6.108e-02		-41.833		1.606e-02		9.022
2		0.00		-9.20		6.528e-02		-41.487		1.632e-02		11.676
2		0.00		-8.80		6.668e-02		-39.627		1.563e-02		12.977
2		0.00		-8.40		6.836e-02		-42.473		1.533e-02		12.489
2		0.00		-8.00		6.512e-02		-39.327		1.227e-02		10.778
2		0.00		-7.60		6.805e-02		-44.484		1.420e-02		10.313
2		0.00		-7.20		6.517e-02		-45.305		1.415e-02		8.959
2		0.00		-6.80		6.529e-02		-46.879		1.509e-02		6.708
2		0.00		-6.40		6.226e-02		-47.789		1.383e-02		6.608
2		0.00		-6.00		6.020e-02		-48.806		1.399e-02		5.912
2		0.00		-5.60		5.613e-02		-49.675		1.351e-02		7.559
2		0.00		-5.20		5.211e-02		-50.325		1.282e-02		9.975
2		0.00		-4.80		4.763e-02		-51.356		1.219e-02		9.915
2		0.00		-4.40		4.248e-02		-52.689		1.129e-02		11.914
2		0.00		-4.00		3.815e-02		-52.677		9.935e-03		11.409
2		0.00		-3.60		3.387e-02		-52.966		8.951e-03		11.935
2		0.00		-3.20		3.008e-02		-49.744		7.664e-03		9.696
2		0.00		-2.80		2.589e-02		-49.382		6.419e-03		10.296
2		0.00		-2.40		2.153e-02		-46.564		5.148e-03		8.774
2		0.00		-2.00		1.751e-02		-47.579		4.202e-03		10.300
2		0.00		-1.60		1.357e-02		-47.812		2.826e-03		12.612
2		0.00		-1.20		9.305e-03		-39.766		2.096e-03		13.313
2		0.00		-0.80		4.952e-03		-37.330		1.253e-03		22.439
2		0.00		-0.40		1.781e-03		6.128		6.837e-04		68.691
3		0.00		0.00		4.464e-03		113.503		1.466e-03		25.509
3		0.00		0.40		8.349e-03		124.482		1.822e-03		12.624
3		0.00		0.80		1.272e-02		125.197		2.570e-03		9.823
3		0.00		1.20		1.732e-02		128.311		3.175e-03		7.486
3		0.00		1.60		2.142e-02		129.013		3.703e-03		6.963
3		0.00		2.00		2.501e-02		127.624		4.281e-03		6.955
3		0.00		2.40		2.950e-02		129.539		5.165e-03		6.348
3		0.00		2.80		3.311e-02		128.384		6.546e-03		6.102
3		0.00		3.20		3.615e-02		130.659		7.513e-03		5.962
3		0.00		3.60		3.871e-02		129.146		8.966e-03		7.510
3		0.00		4.00		4.106e-02		128.931		1.005e-02		7.462
3		0.00		4.40		4.366e-02		130.103		1.112e-02		6.789
3		0.00		4.80		4.607e-02		129.884		1.230e-02		7.431
3		0.00		5.20		4.854e-02		129.096		1.355e-02		10.837
3		0.00		5.60		5.120e-02		129.220		1.485e-02		12.551
3		0.00		6.00		5.357e-02		128.266		1.552e-02		12.179
3		0.00		6.40		5.725e-02		127.281		1.645e-02		16.365
3		0.00		6.80		6.071e-02		129.700		1.647e-02		13.587
3		0.00		7.20		6.283e-02		129.360		1.762e-02		17.339
3		0.00		7.60		6.207e-02		129.330		1.756e-02		22.304
3		0.00		8.00		6.234e-02		131.908		1.737e-02		18.125
3		0.00		8.40		6.262e-02		130.887		1.760e-02		28.754
3		0.00		8.80		6.653e-02		131.806		1.910e-02		19.200
3		0.00		9.20		6.849e-02		128.554		2.088e-02		36.255
3		0.00		9.60		6.719e-02		126.112		2.001e-02		38.116
3		0.00		10.00		6.497e-02		129.293		2.052e-02		21.103
3		0.00		9.60		6.400e-02		127.903		2.021e-02		24.303
3		0.00		9.20		6.462e-02		130.050		2.040e-02		19.645
3		0.00		8.80		6.217e-02		128.890		1.914e-02		18.217
3		0.00		8.40		5.874e-02		129.984		1.684e-02		16.642
3		0.00		8.00		5.762e-02		132.032		1.394e-02		10.539
3		0.00		7.60		5.556e-02		131.580		1.315e-02		8.841
3		0.00		7.20		5.356e-02		132.939		1.119e-02		5.322
3		0.00		6.80		5.098e-02		131.135		1.078e-02		5.026
3		0.00		6.40		4.837e-02		131.442		9.873e-03		5.275
3		0.00		6.00		4.448e-02		131.911		9.213e-03		6.186
3		0.00		5.60		4.095e-02		131.849		8.292e-03		7.004
3		0.00		5.20		3.732e-02		131.823		7.593e-03		7.868
3		0.00		4.80		3.334e-02		131.691		7.106e-03		6.804
3		0.00		4.40		2.890e-02		131.332		5.991e-03		8.600
3		0.00		4.00		2.476e-02		130.636		5.452e-03		8.177
3		0.00		3.60		2.038e-02		132.277		4.409e-03		8.579
3		0.00		3.20		1.591e-02		131.496		3.794e-03		9.945
3		0.00		2.80		1.173e-02		128.426		2.793e-03		12.857
3		0.00		2.40		7.355e-03		127.022		1.942e-03		19.544
3		0.00		2.00		2.925e-03		92.692		1.211e-03		56.338
3		0.00		1.60		2.491e-03		-45.333		1.150e-03		46.954
3		0.00		1.20		6.593e-03		-48.513		2.031e-03		15.790
3		0.00		0.80		1.061e-02		-48.369		2.932e-03		14.186
3		0.00		0.40		1.551e-02		-50.326		4.125e-03		11.287
3		0.00		0.00		1.941e-02		-50.127		5.281e-03		10.825
3		0.00		-0.40		2.369e-02		-49.436		6.140e-03		11.119
3		0.00		-0.80		2.830e-02		-50.166		7.132e-03		9.475
3		0.00		-1.20		3.264e-02		-50.448		8.193e-03		9.299
3		0.00		-1.60		3.659e-02		-50.373		8.519e-03		8.509
3		0.00		-2.00		4.145e-02		-50.682		9.326e-03		8.561
3		0.00		-2.40		4.546e-02		-52.133		9.992e-03		10.392
3		0.00		-2.80		4.967e-02		-52.558		1.050e-02		9.088
3		0.00		-3.20		5.304e-02		-52.044		1.156e-02		9.870
3		0.00		-3.60		5.729e-02		-54.299		1.283e-02		13.272
3		0.00		-4.00		5.903e-02		-52.937		1.268e-02		11.527
3		0.00		-4.40		6.388e-02		-51.809		1.397e-02		8.264
3		0.00		-4.80		6.515e-02		-51.158		1.392e-02		11.768
3		0.00		-5.20		6.706e-02		-49.513		1.738e-02		13.985
3		0.00		-5.60		6.633e-02		-44.720		1.482e-02		11.200
3		0.00		-6.00		6.686e-02		-47.070		1.655e-02		16.225
3		0.00		-6.40		6.912e-02		-44.078		1.692e-02		17.575
3		0.00		-6.80		7.172e-02		-43.186		1.903e-02		18.302
3		0.00		-7.20		7.077e-02		-42.804		1.734e-02		17.228
3		0.00		-7.60		7.268e-02		-40.337		1.588e-02		16.019
3		0.00		-8.00		7.274e-02		-39.341		1.591e-02		16.435
3		0.00		-8.40		7.324e-02		-40.117		1.760e-02		16.694
3		0.00		-8.80		6.687e-02		-38.757		1.643e-02		16.707
3		0.00		-9.20		6.722e-02		-38.940		1.809e-02		14.825
3		0.00		-9.60		6.446e-02		-40.842		1.716e-02		11.658
3		0.00		-10.00		5.847e-02		-40.236		1.524e-02		15.087
3		0.00		-9.60		6.385e-02		-40.778		1.748e-02		13.526
3		0.00		-9.20		6.396e-02		-35.800		1.789e-02		18.329
3		0.00		-8.80		6.470e-02		-37.932		1.704e-02		16.728
3		0.00		-8.40		6.524e-02		-39.607		1.765e-02		16.558
3		0.00		-8.00		6.424e-02		-41.527		1.620e-02		19.523
3		0.00		-7.60		6.401e-02		-40.941		1.677e-02		14.706
3		0.00		-7.20		6.325e-02		-42.100		1.814e-02		12.856
3		0.00		-6.80		6.067e-02		-46.240		1.799e-02		14.209
3		0.00		-6.40		5.990e-02		-49.416		1.794e-02		17.950
3		0.00		-6.00		5.746e-02		-50.495		1.633e-02		14.474
3		0.00		-5.60		5.391e-02		-50.024		1.443e-02		13.772
3		0.00		-5.20		5.111e-02		-50.008		1.288e-02		10.609
3		0.00		-4.80		4.703e-02		-50.750		1.112e-02		8.980
3		0.00		-4.40		4.325e-02		-51.966		9.493e-03		8.200
3		0.00		-4.00		3.953e-02		-52.138		8.755e-03		7.960
3		0.00		-3.60		3.568e-02		-50.076		7.205e-03		7.475
3		0.00		-3.20		3.171e-02		-50.049		6.081e-03		7.021
3		0.00		-2.80		2.747e-02		-47.715		4.770e-03		6.610
3		0.00		-2.40		2.304e-02		-48.072		3.882e-03		7.819
3		0.00		-2.00		1.889e-02		-48.965		3.221e-03		8.330
3		0.00		-1.60		1.466e-02		-45.521		2.662e-03		9.431
3		0.00		-1.20		9.888e-03		-37.661		1.825e-03		13.154
3		0.00		-0.80		5.590e-03		-36.700		1.432e-03		16.239
3		0.00		-0.40		2.107e-03		-6.234		8.430e-04		60.597
4		0.00		0.00		3.944e-03		108.372		1.201e-03		22.771
4		0.00		0.40		7.966e-03		118.884		1.993e-03		12.985
4		0.00		0.80		1.231e-02		126.678		2.366e-03		10.989
4		0.00		1.20		1.652e-02		127.065		2.878e-03		8.956
4		0.00		1.60		2.085e-02		127.696		3.746e-03		6.976
4		0.00		2.00		2.487e-02		128.176		4.486e-03		6.917
4		0.00		2.40		2.821e-02		128.324		5.709e-03		7.411
4		0.00		2.80		3.237e-02		128.844		6.489e-03		6.595
4		0.00		3.20		3.598e-02		129.227		7.559e-03		6.432
4		0.00		3.60		3.855e-02		130.605		8.587e-03		6.973
4		0.00		4.00		4.160e-02		130.406		9.571e-03		6.674
4		0.00		4.40		4.459e-02		129.983		1.036e-02		6.920
4		0.00		4.80		4.783e-02		130.111		1.097e-02		5.828
4		0.00		5.20		5.039e-02		129.928		1.234e-02		7.425
4		0.00		5.60		5.311e-02		130.600		1.327e-02		7.498
4		0.00		6.00		5.546e-02		130.961		1.431e-02		8.520
4		0.00		6.40		5.714e-02		131.997		1.485e-02		10.096
4		0.00		6.80		6.097e-02		130.944		1.589e-02		10.211
4		0.00		7.20		6.257e-02		129.929		1.675e-02		16.508
4		0.00		7.60		6.329e-02		129.633		1.733e-02		20.664
4		0.00		8.00		6.285e-02		128.571		1.939e-02		26.382
4		0.00		8.40		6.129e-02		131.758		1.851e-02		23.424
4		0.00		8.80		6.124e-02		133.772		1.801e-02		19.493
4		0.00		9.20		6.294e-02		128.556		2.012e-02		24.269
4		0.00		9.60		6.153e-02		128.011		2.046e-02		29.949
4		0.00		10.00		6.048e-02		132.722		2.121e-02		21.017
4		0.00		9.60		6.102e-02		126.872		2.052e-02		28.883
4		0.00		9.20		6.185e-02		130.402		1.987e-02		23.042
4		0.00		8.80		6.223e-02		127.559		1.988e-02		18.432
4		0.00		8.40		6.093e-02		130.441		1.754e-02		13.321
4		0.00		8.00		5.946e-02		130.951		1.488e-02		11.710
4		0.00		7.60		5.717e-02		131.400		1.372e-02		11.092
4		0.00		7.20		5.458e-02		131.045		1.188e-02		8.841
4		0.00		6.80		5.191e-02		131.796		1.019e-02		5.882
4		0.00		6.40		4.742e-02		132.216		9.450e-03		7.216
4		0.00		6.00		4.434e-02		132.713		8.073e-03		5.160
4		0.00		5.60		4.136e-02		132.941		7.185e-03		5.565
4		0.00		5.20		3.710e-02		132.321		6.731e-03		5.956
4		0.00		4.80		3.303e-02		131.904		6.062e-03		7.525
4		0.00		4.40		2.929e-02		131.019		5.918e-03		6.667
4		0.00		4.00		2.480e-02		130.952		5.384e-03		7.934
4		0.00		3.60		2.065e-02		130.411		4.728e-03		8.297
4		0.00		3.20		1.692e-02		130.262		4.129e-03		10.172
4		0.00		2.80		1.204e-02		131.617		3.087e-03		10.209
4		0.00		2.40		7.825e-03		125.301		2.061e-03		14.929
4		0.00		2.00		3.409e-03		118.273		1.178e-03		40.032
4		0.00		1.60		2.073e-03		-48.572		7.310e-04		46.696
4		0.00		1.20		6.157e-03		-51.917		1.645e-03		17.384
4		0.00		0.80		1.073e-02		-45.892		2.615e-03		12.880
4		0.00		0.40		1.559e-02		-49.963		3.403e-03		9.908
4		0.00		0.00		2.001e-02		-47.819		3.851e-03		8.799
4		0.00		-0.40		2.450e-02		-49.373		4.774e-03		7.873
4		0.00		-0.80		2.911e-02		-50.288		5.290e-03		6.651
4		0.00		-1.20		3.367e-02		-49.653		5.791e-03		6.313
4		0.00		-1.60		3.782e-02		-50.662		6.414e-03		7.095
4		0.00		-2.00		4.183e-02		-50.810		7.081e-03		5.878
4		0.00		-2.40		4.643e-02		-50.416		7.706e-03		4.946
4		0.00		-2.80		4.983e-02		-51.286		8.996e-03		5.556
4		0.00		-3.20		5.365e-02		-51.789		1.040e-02		4.921
4		0.00		-3.60		5.615e-02		-53.555		1.259e-02		7.008
4		0.00		-4.00		5.938e-02		-52.753		1.364e-02		6.883
4		0.00		-4.40		6.245e-02		-52.095		1.519e-02		6.697
4		0.00		-4.80		6.402e-02		-49.575		1.602e-02		6.755
4		0.00		-5.20		6.457e-02		-47.882		1.693e-02		9.116
4		0.00		-5.60		6.093e-02		-46.885		1.794e-02		14.102
4		0.00		-6.00		6.268e-02		-44.447		1.778e-02		18.780
4		0.00		-6.40		6.369e-02		-42.239		1.689e-02		19.443
4		0.00		-6.80		6.319e-02		-35.027		1.697e-02		17.893
4		0.00		-7.20		6.404e-02		-38.495		1.881e-02		20.245
4		0.00		-7.60		6.852e-02		-40.100		1.817e-02		18.988
4		0.00		-8.00		6.934e-02		-40.982		2.226e-02		21.478
4		0.00		-8.40		6.742e-02		-37.113		1.921e-02		18.766
4		0.00		-8.80		6.748e-02		-39.410		1.952e-02		17.983
4		0.00		-9.20		6.573e-02		-38.137		1.896e-02		17.712
4		0.00		-9.60		6.680e-02		-43.302		1.801e-02		10.638
4		0.00		-10.00		5.765e-02		-42.963		1.527e-02		11.431
4		0.00		-9.60		6.110e-02		-39.674		1.615e-02		10.805
4		0.00		-9.20		6.493e-02		-37.824		1.753e-02		11.956
4		0.00		-8.80		6.336e-02		-38.260		1.536e-02		15.278
4		0.00		-8.40		6.734e-02		-43.093		1.590e-02		12.442
4		0.00		-8.00		6.661e-02		-41.069		1.454e-02		13.129
4		0.00		-7.60		6.697e-02		-42.872		1.490e-02		9.892
4		0.00		-7.20		6.571e-02		-45.336		1.529e-02		8.744
4		0.00		-6.80		6.540e-02		-47.753		1.627e-02		7.440
4		0.00		-6.40		6.233e-02		-47.703		1.521e-02		5.832
4		0.00		-6.00		5.998e-02		-48.728		1.515e-02		7.342
4		0.00		-5.60		5.653e-02		-48.998		1.358e-02		8.671
4		0.00		-5.20		5.281e-02		-49.953		1.305e-02		10.715
4		0.00		-4.80		4.842e-02		-51.423		1.154e-02		11.905
4		0.00		-4.40		4.413e-02		-50.826		1.021e-02		11.022
4		0.00		-4.00		3.982e-02		-52.062		8.858e-03		11.559
4		0.00		-3.60		3.563e-02		-50.260		7.985e-03		8.930
4		0.00		-3.20		3.187e-02		-50.749		6.874e-03		9.400
4		0.00		-2.80		2.716e-02		-48.758		5.281e-03		7.558
4		0.00		-2.40		2.304e-02		-46.176		4.444e-03		8.268
4		0.00		-2.00		1.868e-02		-46.501		3.926e-03		8.932
4		0.00		-1.60		1.426e-02		-43.976		2.921e-03		11.553
4		0.00		-1.20		1.027e-02		-41.375		2.146e-03		12.700
4		0.00		-0.80		5.739e-03		-32.092		1.459e-03		17.645
4		0.00		-0.40		2.101e-03		-1.579		8.636e-04		52.961
5		0.00		0.00		3.790e-03		99.468		1.252e-03		26.675
5		0.00		0.40		7.822e-03		119.873		1.572e-03		13.283
5		0.00		0.80		1.198e-02		125.736		2.339e-03		9.787
5		0.00		1.20		1.608e-02		124.923		3.288e-03		9.715
5		0.00		1.60		2.069e-02		127.753		3.890e-03		8.078
5		0.00		2.00		2.451e-02		126.941		4.900e-03		7.721
5		0.00		2.40		2.811e-02		128.421		5.209e-03		6.458
5		0.00		2.80		3.217e-02		129.265		6.049e-03		5.572
5		0.00		3.20		3.532e-02		129.954		7.259e-03		6.510
5		0.00		3.60		3.825e-02		129.829		8.100e-03		7.577
5		0.00		4.00		4.126e-02		130.722		9.165e-03		7.267
5		0.00		4.40		4.437e-02		130.425		1.015e-02		6.885
5		0.00		4.80		4.704e-02		129.742		1.102e-02		8.192
5		0.00		5.20		4.902e-02		130.617		1.210e-02		6.323
5		0.00		5.60		5.235e-02		129.556		1.387e-02		8.887
5		0.00		6.00		5.367e-02		130.357		1.490e-02		9.569
5		0.00		6.40		5.665e-02		130.916		1.598e-02		11.149
5		0.00		6.80		5.862e-02		131.185		1.682e-02		9.652
5		0.00		7.20		5.946e-02		130.330		1.740e-02		15.938
5		0.00		7.60		6.230e-02		129.811		1.788e-02		21.014
5		0.00		8.00		6.305e-02		130.806		1.775e-02		18.240
5		0.00		8.40		6.135e-02		131.487		1.781e-02		32.232
5		0.00		8.80		6.162e-02		130.818		1.837e-02		32.993
5		0.00		9.20		6.260e-02		134.788		1.731e-02		19.991
5		0.00		9.60		6.212e-02		132.331		1.843e-02		29.355
5		0.00		10.00		6.137e-02		131.709		1.928e-02		33.060
5		0.00		9.60		6.291e-02		134.061		1.838e-02		21.614
5		0.00		9.20		6.443e-02		126.693		1.936e-02		35.057
5		0.00		8.80		6.436e-02		129.877		1.808e-02		23.036
5		0.00		8.40		6.313e-02		129.240		1.813e-02		22.175
5		0.00		8.00		6.003e-02		129.327		1.722e-02		20.147
5		0.00		7.60		5.759e-02		129.991		1.540e-02		16.825
5		0.00		7.20		5.446e-02		129.805		1.489e-02		13.623
5		0.00		6.80		5.150e-02		128.611		1.485e-02		16.005
5		0.00		6.40		4.733e-02		129.797		1.328e-02		12.722
5		0.00		6.00		4.425e-02		129.475		1.241e-02		13.959
5		0.00		5.60		4.071e-02		129.317		1.141e-02		13.345
5		0.00		5.20		3.732e-02		130.152		9.904e-03		11.435
5		0.00		4.80		3.294e-02		130.570		8.873e-03		13.617
5		0.00		4.40		2.947e-02		131.605		7.622e-03		11.699
5		0.00		4.00		2.577e-02		129.828		6.643e-03		12.644
5		0.00		3.60		2.165e-02		130.469		5.509e-03		12.626
5		0.00		3.20		1.761e-02		129.759		4.151e-03		14.760
5		0.00		2.80		1.369e-02		130.927		3.175e-03		12.524
5		0.00		2.40		9.300e-03		129.340		2.292e-03		16.668
5		0.00		2.00		5.099e-03		121.695		1.487e-03		21.080
5		0.00		1.60		1.798e-03		28.710		8.030e-04		70.234
5		0.00		1.20		4.470e-03		-53.199		1.414e-03		21.910
5		0.00		0.80		9.117e-03		-46.737		2.144e-03		12.796
5		0.00		0.40		1.336e-02		-49.998		2.929e-03		9.594
5		0.00		0.00		1.815e-02		-51.266		3.864e-03		11.253
5		0.00		-0.40		2.199e-02		-48.698		4.717e-03		8.191
5		0.00		-0.80		2.620e-02		-49.853		5.876e-03		10.239
5		0.00		-1.20		3.064e-02		-48.885		7.132e-03		9.162
5		0.00		-1.60		3.407e-02		-50.913		7.799e-03		9.788
5		0.00		-2.00		3.838e-02		-50.397		9.045e-03		8.479
5		0.00		-2.40		4.243e-02		-52.299		1.013e-02		10.257
5		0.00		-2.80		4.690e-02		-51.242		1.098e-02		6.598
5		0.00		-3.20		5.025e-02		-52.078		1.235e-02		7.326
5		0.00		-3.60		5.403e-02		-53.337		1.369e-02		10.969
5		0.00		-4.00		5.672e-02		-53.948		1.478e-02		12.319
5		0.00		-4.40		5.927e-02		-52.410		1.496e-02		10.642
5		0.00		-4.80		6.180e-02		-51.485		1.585e-02		11.826
5		0.00		-5.20		6.344e-02		-47.644		1.641e-02		9.946
5		0.00		-5.60		6.369e-02		-42.047		1.679e-02		21.222
5		0.00		-6.00		6.376e-02		-38.608		1.728e-02		24.089
5		0.00		-6.40		6.248e-02		-43.774		1.687e-02		20.689
5		0.00		-6.80		6.432e-02		-36.065		1.833e-02		22.751
5		0.00		-7.20		6.552e-02		-37.557		1.762e-02		20.394
5		0.00		-7.60		6.760e-02		-43.955		2.052e-02		26.690
5		0.00		-8.00		6.497e-02		-33.632		1.800e-02		29.382
5		0.00		-8.40		6.377e-02		-35.520		1.909e-02		26.945
5		0.00		-8.80		6.279e-02		-36.177		1.919e-02		31.072
5		0.00		-9.20		6.141e-02		-42.713		1.884e-02		30.051
5		0.00		-9.60		6.106e-02		-40.977		1.957e-02		23.032
5		0.00		-10.00		5.523e-02		-35.431		1.721e-02		24.006
5		0.00		-9.60		5.938e-02		-42.714		1.836e-02		18.632
5		0.00		-9.20		6.021e-02		-39.652		1.801e-02		20.296
5		0.00		-8.80		6.226e-02		-38.576		1.774e-02		19.183
5		0.00		-8.40		6.494e-02		-41.395		1.886e-02		16.036
5		0.00		-8.00		6.530e-02		-43.937		1.730e-02		14.901
5		0.00		-7.60		6.478e-02		-44.525		1.609e-02		9.137
5		0.00		-7.20		6.604e-02		-45.972		1.744e-02		11.276
5		0.00		-6.80		6.262e-02		-46.340		1.591e-02		8.740
5		0.00		-6.40		6.130e-02		-47.181		1.502e-02		7.058
5		0.00		-6.00		5.927e-02		-47.188		1.391e-02		5.686
5		0.00		-5.60		5.563e-02		-48.729		1.301e-02		6.242
5		0.00		-5.20		5.244e-02		-49.628		1.176e-02		5.926
5		0.00		-4.80		4.771e-02		-50.321		1.049e-02		6.197
5		0.00		-4.40		4.292e-02		-50.575		8.972e-03		5.933
5		0.00		-4.00		3.889e-02		-49.316		8.320e-03		5.865
5		0.00		-3.60		3.463e-02		-50.663		7.253e-03		5.867
5		0.00		-3.20		3.018e-02		-48.932		6.224e-03		7.128
5		0.00		-2.80		2.606e-02		-49.189		4.966e-03		6.206
5		0.00		-2.40		2.234e-02		-48.295		4.245e-03		6.755
5		0.00		-2.00		1.766e-02		-45.241		3.040e-03		8.346
5		0.00		-1.60		1.328e-02		-44.923		2.269e-03		8.981
5		0.00		-1.20		9.060e-03		-38.628		1.598e-03		11.643
5		0.00		-0.80		4.571e-03		-35.549		1.238e-03		22.436
5		0.00		-0.40		2.193e-03		18.123		9.139e-04		56.802
6		0.00		0.00		4.552e-03		112.930		1.418e-03		25.716
6		0.00		0.40		9.161e-03		121.966		1.730e-03		11.069
6		0.00		0.80		1.327e-02		124.582		2.261e-03		8.363
6		0.00		1.20		1.775e-02		126.609		3.060e-03		8.245
6		0.00		1.60		2.163e-02		128.942		3.404e-03		6.817
6		0.00		2.00		2.618e-02		128.506		4.327e-03		6.286
6		0.00		2.40		2.963e-02		131.621		5.159e-03		6.557
6		0.00		2.80		3.320e-02		131.362		6.153e-03		6.621
6		0.00		3.20		3.622e-02		130.276		7.217e-03		8.217
6		0.00		3.60		3.895e-02		130.180		8.699e-03		11.023
6		0.00		4.00		4.187e-02		129.766		1.016e-02		10.768
6		0.00		4.40		4.453e-02		129.496		1.175e-02		13.771
6		0.00		4.80		4.696e-02		129.952		1.241e-02		14.459
6		0.00		5.20		4.971e-02		129.379		1.307e-02		14.064
6		0.00		5.60		5.201e-02		128.851		1.397e-02		15.949
6		0.00		6.00		5.464e-02		128.934		1.522e-02		13.543
6		0.00		6.40		5.677e-02		130.311		1.569e-02		10.272
6		0.00		6.80		6.009e-02		130.801		1.656e-02		8.585
6		0.00		7.20		6.189e-02		133.124		1.594e-02		7.709
6		0.00		7.60		6.311e-02		134.462		1.497e-02		7.786
6		0.00		8.00		6.508e-02		137.143		1.329e-02		7.150
6		0.00		8.40		6.612e-02		137.553		1.337e-02		9.125
6		0.00		8.80		6.784e-02		131.047		1.498e-02		35.028
6		0.00		9.20		6.549e-02		137.533		1.393e-02		16.809
6		0.00		9.60		6.664e-02		134.564		1.465e-02		13.664
6		0.00		10.00		6.384e-02		132.339		1.673e-02		25.364
6		0.00		9.60		6.592e-02		131.226		1.743e-02		17.198
6		0.00		9.20		6.788e-02		130.391		1.859e-02		16.705
6		0.00		8.80		6.664e-02		134.072		1.601e-02		11.301
6		0.00		8.40		6.331e-02		129.383		1.701e-02		19.878
6		0.00		8.00		6.197e-02		130.407		1.606e-02		12.682
6		0.00		7.60		5.688e-02		131.121		1.551e-02		12.294
6		0.00		7.20		5.525e-02		130.824		1.463e-02		11.542
6		0.00		6.80		5.222e-02		130.765		1.362e-02		12.316
6		0.00		6.40		4.875e-02		130.176		1.271e-02		12.948
6		0.00		6.00		4.559e-02		130.718		1.153e-02		12.685
6		0.00		5.60		4.228e-02		130.816		1.078e-02		12.738
6		0.00		5.20		3.824e-02		129.686		9.897e-03		12.258
6		0.00		4.80		3.434e-02		130.243		8.829e-03		10.550
6		0.00		4.40		3.108e-02		131.214		7.694e-03		9.229
6		0.00		4.00		2.705e-02		131.861		6.152e-03		7.546
6		0.00		3.60		2.362e-02		132.546		5.085e-03		7.001
6		0.00		3.20		1.919e-02		130.018		3.764e-03		7.123
6		0.00		2.80		1.456e-02		132.325		2.646e-03		9.010
6		0.00		2.40		1.038e-02		132.109		1.955e-03		10.036
6		0.00		2.00		5.614e-03		124.344		1.543e-03		21.291
6		0.00		1.60		1.878e-03		54.452		7.334e-04		59.446
6		0.00		1.20		4.043e-03		-48.020		1.353e-03		21.805
6		0.00		0.80		8.331e-03		-48.131		1.930e-03		11.696
6		0.00		0.40		1.261e-02		-48.985		2.537e-03		12.500
6		0.00		0.00		1.704e-02		-48.645		3.397e-03		8.316
6		0.00		-0.40		2.135e-02		-47.937		4.548e-03		9.578
6		0.00		-0.80		2.561e-02		-50.418		5.716e-03		9.342
6		0.00		-1.20		2.980e-02		-50.219		7.066e-03		8.297
6		0.00		-1.60		3.327e-02		-51.703		8.226e-03		10.548
6		0.00		-2.00		3.829e-02		-53.252		9.769e-03		10.680
6		0.00		-2.40		4.215e-02		-53.257		1.056e-02		9.340
6		0.00		-2.80		4.627e-02		-53.053		1.218e-02		9.889
6		0.00		-3.20		4.992e-02		-53.528		1.270e-02		7.244
6		0.00		-3.60		5.425e-02		-53.520		1.248e-02		7.049
6		0.00		-4.00		5.892e-02		-53.257		1.279e-02		6.215
6		0.00		-4.40		6.180e-02		-52.271		1.258e-02		7.891
6		0.00		-4.80		6.665e-02		-50.001		1.238e-02		4.880
6		0.00		-5.20		6.592e-02		-46.283		1.160e-02		7.073
6		0.00		-5.60		6.620e-02		-46.975		1.334e-02		13.221
6		0.00		-6.00		6.671e-02		-44.098		1.329e-02		14.229
6		0.00		-6.40		6.775e-02		-40.682		1.384e-02		13.981
6		0.00		-6.80		6.853e-02		-40.841		1.327e-02		14.218
6		0.00		-7.20		6.926e-02		-41.898		1.641e-02		18.140
6		0.00		-7.60		6.845e-02		-38.487		1.671e-02		17.346
6		0.00		-8.00		6.898e-02		-34.591		2.072e-02		18.612
6		0.00		-8.40		6.442e-02		-37.114		1.897e-02		18.738
6		0.00		-8.80		6.484e-02		-37.179		1.989e-02		17.937
6		0.00		-9.20		6.050e-02		-38.510		1.888e-02		27.769
6		0.00		-9.60		5.888e-02		-34.377		1.808e-02		25.637
6		0.00		-10.00		5.722e-02		-40.864		1.755e-02		24.578
6		0.00		-9.60		5.916e-02		-38.122		1.823e-02		18.383
6		0.00		-9.20		6.360e-02		-39.062		1.765e-02		10.693
6		0.00		-8.80		6.457e-02		-37.937		1.536e-02		12.768
6		0.00		-8.40		6.815e-02		-38.650		1.400e-02		12.967
6		0.00		-8.00		6.864e-02		-41.295		1.373e-02		11.627
6		0.00		-7.60		6.690e-02		-44.721		1.263e-02		10.326
6		0.00		-7.20		6.372e-02		-43.761		1.256e-02		12.514
6		0.00		-6.80		6.403e-02		-45.158		1.348e-02		8.729
6		0.00		-6.40		6.190e-02		-47.953		1.345e-02		11.547
6		0.00		-6.00		5.948e-02		-48.282		1.403e-02		11.593
6		0.00		-5.60		5.614e-02		-48.815		1.291e-02		9.489
6		0.00		-5.20		5.308e-02		-50.005		1.215e-02		10.409
6		0.00		-4.80		4.884e-02		-49.980		1.138e-02		9.534
6		0.00		-4.40		4.409e-02		-51.379		1.084e-02		8.613
6		0.00		-4.00		3.901e-02		-51.903		9.424e-03		7.547
6		0.00		-3.60		3.506e-02		-51.168		7.878e-03		6.307
6		0.00		-3.20		3.121e-02		-48.943		6.363e-03		6.896
6		0.00		-2.80		2.735e-02		-48.531		4.888e-03		7.445
6		0.00		-2.40		2.278e-02		-48.800		4.023e-03		7.371
6		0.00		-2.00		1.828e-02		-45.686		3.374e-03		8.241
6		0.00		-1.60		1.410e-02		-43.358		2.763e-03		11.244
6		0.00		-1.20		9.696e-03		-40.108		1.930e-03		10.194
6		0.00		-0.80		5.626e-03		-32.449		1.441e-03		19.751
6		0.00		-0.40		2.207e-03		-5.835		9.628e-04		42.587
7		0.00		0.00		3.937e-03		101.726		1.302e-03		25.507
7		0.00		0.40		7.882e-03		118.126		2.088e-03		13.943
7		0.00		0.80		1.218e-02		124.850		3.172e-03		12.226
7		0.00		1.20		1.658e-02		126.243		3.871e-03		9.091
7		0.00		1.60		2.067e-02		125.440		4.325e-03		7.058
7		0.00		2.00		2.423e-02		129.309		4.634e-03		7.530
7		0.00		2.40		2.863e-02		129.816		5.140e-03		5.604
7		0.00		2.80		3.240e-02		130.606		5.514e-03		5.733
7		0.00		3.20		3.546e-02		131.156		5.837e-03		6.099
7		0.00		3.60		3.938e-02		130.321		6.359e-03		4.575
7		0.00		4.00		4.206e-02		131.649		7.276e-03		4.745
7		0.00		4.40		4.431e-02		131.252		8.160e-03		5.215
7		0.00		4.80		4.691e-02		131.807		8.508e-03		5.280
7		0.00		5.20		4.937e-02		132.792		9.611e-03		5.922
7		0.00		5.60		5.246e-02		131.987		1.094e-02		6.165
7		0.00		6.00		5.411e-02		132.133		1.235e-02		8.173
7		0.00		6.40		5.699e-02		131.856		1.347e-02		7.198
7		0.00		6.80		5.702e-02		130.481		1.486e-02		14.306
7		0.00		7.20		5.871e-02		131.176		1.598e-02		14.927
7		0.00		7.60		6.172e-02		133.046		1.634e-02		12.505
7		0.00		8.00		6.353e-02		132.849		1.749e-02		20.687
7		0.00		8.40		6.303e-02		134.118		1.729e-02		17.460
7		0.00		8.80		6.230e-02		131.927		1.714e-02		31.424
7		0.00		9.20		6.320e-02		130.439		1.766e-02		45.793
7		0.00		9.60		6.391e-02		131.496		1.923e-02		29.917
7		0.00		10.00		6.577e-02		132.296		1.876e-02		18.321
7		0.00		9.60		6.422e-02		130.241		1.862e-02		26.366
7		0.00		9.20		6.373e-02		134.344		1.758e-02		18.954
7		0.00		8.80		6.309e-02		130.980		1.688e-02		25.842
7		0.00		8.40		6.149e-02		129.024		1.791e-02		23.304
7		0.00		8.00		5.939e-02		129.801		1.728e-02		16.946
7		0.00		7.60		5.708e-02		131.254		1.656e-02		10.893
7		0.00		7.20		5.409e-02		130.102		1.546e-02		14.234
7		0.00		6.80		5.137e-02		130.177		1.441e-02		11.199
7		0.00		6.40		4.836e-02		129.785		1.283e-02		10.359
7		0.00		6.00		4.487e-02		130.549		1.241e-02		10.112
7		0.00		5.60		4.141e-02		131.039		1.100e-02		8.562
7		0.00		5.20		3.750e-02		131.423		9.869e-03		7.852
7		0.00		4.80		3.409e-02		131.170		8.603e-03		7.147
7		0.00		4.40		3.047e-02		131.402		7.038e-03		7.257
7		0.00		4.00		2.660e-02		131.343		5.563e-03		6.232
7		0.00		3.60		2.243e-02		131.258		4.788e-03		6.983
7		0.00		3.20		1.851e-02		130.941		4.020e-03		8.710
7		0.00		2.80		1.451e-02		130.630		3.353e-03		9.113
7		0.00		2.40		9.978e-03		132.802		2.241e-03		12.104
7		0.00		2.00		5.526e-03		129.471		1.401e-03		15.742
7		0.00		1.60		2.010e-03		64.195		8.658e-04		63.241
7		0.00		1.20		3.979e-03		-44.036		1.464e-03		23.816
7		0.00		0.80		8.341e-03		-46.509		1.722e-03		10.339
7		0.00		0.40		1.307e-02		-48.451		2.689e-03		9.038
7		0.00		0.00		1.697e-02		-48.551		3.252e-03		10.235
7		0.00		-0.40		2.144e-02		-49.932		3.974e-03		9.392
7		0.00		-0.80		2.619e-02		-50.159		4.667e-03		6.477
7		0.00		-1.20		3.062e-02		-49.941		5.449e-03		6.169
7		0.00		-1.60		3.441e-02		-51.636		6.129e-03		5.751
7		0.00		-2.00		3.898e-02		-50.929		6.709e-03		5.239
7		0.00		-2.40		4.326e-02		-52.178		7.589e-03		6.210
7		0.00		-2.80		4.703e-02		-52.156		8.525e-03		4.892
7		0.00		-3.20		5.168e-02		-53.012		9.233e-03		5.006
7		0.00		-3.60		5.571e-02		-52.310		9.502e-03		4.734
7		0.00		-4.00		5.957e-02		-53.019		1.138e-02		6.883
7		0.00		-4.40		6.182e-02		-52.348		1.232e-02		9.120
7		0.00		-4.80		6.350e-02		-48.868		1.125e-02		6.822
7		0.00		-5.20		6.470e-02		-47.826		1.184e-02		6.692
7		0.00		-5.60		6.623e-02		-46.107		1.262e-02		7.556
7		0.00		-6.00		6.900e-02		-42.466		1.478e-02		10.605
7		0.00		-6.40		6.958e-02		-39.562		1.526e-02		13.019
7		0.00		-6.80		6.706e-02		-41.015		1.580e-02		16.577
7		0.00		-7.20		6.860e-02		-39.086		1.635e-02		18.701
7		0.00		-7.60		6.963e-02		-37.343		1.871e-02		19.292
7		0.00		-8.00		6.849e-02		-41.045		1.654e-02		20.537
7		0.00		-8.40		6.749e-02		-38.230		1.674e-02		21.657
7		0.00		-8.80		6.725e-02		-35.108		1.650e-02		15.680
7		0.00		-9.20		6.355e-02		-37.476		1.599e-02		13.713
7		0.00		-9.60		6.127e-02		-39.596		1.615e-02		10.169
7		0.00		-10.00		5.612e-02		-41.890		1.355e-02		6.902
7		0.00		-9.60		6.082e-02		-41.486		1.497e-02		8.150
7		0.00		-9.20		6.618e-02		-40.100		1.461e-02		10.288
7		0.00		-8.80		6.802e-02		-39.437		1.547e-02		15.598
7		0.00		-8.40		6.564e-02		-35.097		1.347e-02		13.361
7		0.00		-8.00		6.798e-02		-42.723		1.382e-02		14.433
7		0.00		-7.60		6.839e-02		-39.740		1.521e-02		13.418
7		0.00		-7.20		6.935e-02		-45.288		1.281e-02		6.763
7		0.00		-6.80		6.637e-02		-46.699		1.170e-02		5.767
7		0.00		-6.40		6.545e-02		-46.423		1.150e-02		4.783
7		0.00		-6.00		6.156e-02		-48.105		1.134e-02		5.253
7		0.00		-5.60		5.732e-02		-48.985		1.114e-02		5.095
7		0.00		-5.20		5.299e-02		-49.073		1.031e-02		4.688
7		0.00		-4.80		4.877e-02		-49.201		9.726e-03		5.139
7		0.00		-4.40		4.449e-02		-50.278		8.929e-03		5.112
7		0.00		-4.00		3.950e-02		-51.458		8.412e-03		6.993
7		0.00		-3.60		3.543e-02		-50.295		7.630e-03		6.255
7		0.00		-3.20		3.130e-02		-48.979		6.594e-03		7.080
7		0.00		-2.80		2.643e-02		-49.828		6.212e-03		8.370
7		0.00		-2.40		2.266e-02		-48.548		5.078e-03		8.092
7		0.00		-2.00		1.833e-02		-47.934		4.222e-03		9.424
7		0.00		-1.60		1.416e-02		-42.924		3.122e-03		9.637
7		0.00		-1.20		9.801e-03		-42.190		2.249e-03		13.606
7		0.00		-0.80		5.500e-03		-32.379		1.459e-03		16.925
7		0.00		-0.40		2.166e-03		-2.514		9.160e-04		52.783
8		0.00		0.00		3.831e-03		100.788		1.209e-03		30.641
8		0.00		0.40		7.676e-03		122.193		2.194e-03		21.210
8		0.00		0.80		1.148e-02		122.600		2.584e-03		13.932
8		0.00		1.20		1.588e-02		125.713		3.190e-03		11.745
8		0.00		1.60		2.002e-02		128.431		3.863e-03		8.436
8		0.00		2.00		2.420e-02		130.149		4.830e-03		9.577
8		0.00		2.40		2.839e-02		130.468		5.472e-03		6.365
8		0.00		2.80		3.172e-02		129.647		6.489e-03		7.580
8		0.00		3.20		3.508e-02		129.532		6.717e-03		6.005
8		0.00		3.60		3.850e-02		130.172		7.160e-03		5.246
8		0.00		4.00		4.165e-02		130.486		7.664e-03		5.856
8		0.00		4.40		4.558e-02		131.822		7.688e-03		5.274
8		0.00		4.80		4.716e-02		131.175		8.875e-03		4.901
8		0.00		5.20		5.017e-02		131.571		1.019e-02		4.577
8		0.00		5.60		5.305e-02		131.870		1.133e-02		5.219
8		0.00		6.00		5.544e-02		131.217		1.185e-02		5.350
8		0.00		6.40		5.840e-02		132.198		1.322e-02		5.385
8		0.00		6.80		6.004e-02		131.576		1.488e-02		6.671
8		0.00		7.20		6.213e-02		131.694		1.562e-02		10.791
8		0.00		7.60		6.309e-02		131.807		1.619e-02		15.638
8		0.00		8.00		6.553e-02		129.902		1.829e-02		24.849
8		0.00		8.40		6.535e-02		134.645		1.772e-02		15.741
8		0.00		8.80		6.314e-02		132.303		1.686e-02		27.766
8		0.00		9.20		6.481e-02		132.771		1.853e-02		34.234
8		0.00		9.60		6.316e-02		131.337		1.877e-02		34.845
8		0.00		10.00		6.285e-02		129.432		2.001e-02		37.080
8		0.00		9.60		6.350e-02		135.272		1.806e-02		12.497
8		0.00		9.20		6.700e-02		129.036		1.984e-02		16.354
8		0.00		8.80		6.392e-02		134.387		1.595e-02		11.263
8		0.00		8.40		6.085e-02		131.923		1.499e-02		12.075
8		0.00		8.00		5.904e-02		133.322		1.233e-02		8.811
8		0.00		7.60		5.696e-02		133.128		1.146e-02		6.028
8		0.00		7.20		5.533e-02		132.436		1.079e-02		5.381
8		0.00		6.80		5.285e-02		132.563		1.052e-02		5.993
8		0.00		6.40		4.990e-02		131.638		1.028e-02		6.067
8		0.00		6.00		4.625e-02		131.701		9.821e-03		5.256
8		0.00		5.60		4.229e-02		131.587		9.631e-03		7.289
8		0.00		5.20		3.790e-02		132.263		9.034e-03		9.507
8		0.00		4.80		3.441e-02		130.607		8.094e-03		10.063
8		0.00		4.40		3.026e-02		131.139		6.799e-03		11.923
8		0.00		4.00		2.613e-02		130.249		5.991e-03		13.996
8		0.00		3.60		2.222e-02		130.693		4.900e-03		11.860
8		0.00		3.20		1.776e-02		130.929		3.997e-03		12.094
8		0.00		2.80		1.339e-02		132.988		3.063e-03		14.785
8		0.00		2.40		9.178e-03		135.962		2.176e-03		13.874
8		0.00		2.00		4.693e-03		128.202		1.442e-03		19.738
8		0.00		1.60		1.719e-03		9.043		6.642e-04		75.352
8		0.00		1.20		4.381e-03		-60.771		1.417e-03		21.228
8		0.00		0.80		8.895e-03		-48.458		2.006e-03		13.387
8		0.00		0.40		1.353e-02		-46.042		2.398e-03		7.873
8		0.00		0.00		1.760e-02		-47.270		2.889e-03		10.260
8		0.00		-0.40		2.233e-02		-49.089		3.679e-03		7.254
8		0.00		-0.80		2.675e-02		-49.183		4.142e-03		6.627
8		0.00		-1.20		3.117e-02		-50.993		5.195e-03		7.107
8		0.00		-1.60		3.537e-02		-49.995		6.235e-03		6.500
8		0.00		-2.00		3.974e-02		-52.254		8.276e-03		7.844
8		0.00		-2.40		4.352e-02		-51.299		9.779e-03		8.315
8		0.00		-2.80		4.768e-02		-52.728		1.073e-02		8.878
8		0.00		-3.20		5.195e-02		-53.298		1.126e-02		10.072
8		0.00		-3.60		5.444e-02		-51.684		1.164e-02		9.231
8		0.00		-4.00		5.817e-02		-52.252		1.244e-02		9.499
8		0.00		-4.40		6.163e-02		-51.325		1.277e-02		9.440
8		0.00		-4.80		6.362e-02		-50.074		1.267e-02		8.943
8		0.00		-5.20		6.505e-02		-47.765		1.198e-02		8.809
8		0.00		-5.60		6.585e-02		-46.099		1.169e-02		10.325
8		0.00		-6.00		6.851e-02		-43.829		1.333e-02		10.426
8		0.00		-6.40		6.806e-02		-41.892		1.338e-02		12.769
8		0.00		-6.80		6.988e-02		-41.765		1.468e-02		12.828
8		0.00		-7.20		6.868e-02		-38.467		1.546e-02		13.928
8		0.00		-7.60		6.593e-02		-37.063		1.681e-02		16.260
8		0.00		-8.00		7.052e-02		-42.767		1.975e-02		18.032
8		0.00		-8.40		6.765e-02		-37.788		1.758e-02		18.600
8		0.00		-8.80		6.572e-02		-36.618		1.841e-02		25.979
8		0.00		-9.20		6.419e-02		-32.741		1.921e-02		21.094
8		0.00		-9.60		6.504e-02		-41.386		1.861e-02		13.066
8		0.00		-10.00		5.758e-02		-41.973		1.533e-02		12.757
8		0.00		-9.60		6.191e-02		-38.714		1.504e-02		10.834
8		0.00		-9.20		6.429e-02		-38.283		1.531e-02		15.033
8		0.00		-8.80		6.714e-02		-34.512		1.502e-02		11.213
8		0.00		-8.40		6.751e-02		-35.122		1.739e-02		15.229
8		0.00		-8.00		6.731e-02		-39.463		1.526e-02		11.551
8		0.00		-7.60		6.702e-02		-43.568		1.720e-02		9.405
8		0.00		-7.20		6.397e-02		-45.188		1.740e-02		8.199
8		0.00		-6.80		6.354e-02		-46.933		1.736e-02		9.617
8		0.00		-6.40		6.049e-02		-49.488		1.642e-02		17.604
8		0.00		-6.00		5.885e-02		-48.995		1.562e-02		14.241
8		0.00		-5.60		5.478e-02		-48.763		1.417e-02		12.936
8		0.00		-5.20		5.171e-02		-49.448		1.251e-02		10.050
8		0.00		-4.80		4.843e-02		-48.937		1.013e-02		6.872
8		0.00		-4.40		4.463e-02		-49.313		8.053e-03		5.268
8		0.00		-4.00		4.073e-02		-50.148		6.546e-03		5.540
8		0.00		-3.60		3.699e-02		-49.055		5.596e-03		5.431
8		0.00		-3.20		3.286e-02		-49.176		4.543e-03		5.433
8		0.00		-2.80		2.841e-02		-48.043		4.110e-03		6.407
8		0.00		-2.40		2.402e-02		-47.101		3.400e-03		7.069
8		0.00		-2.00		1.961e-02		-47.285		2.954e-03		8.359
8		0.00		-1.60		1.514e-02		-44.705		2.250e-03		8.848
8		0.00		-1.20		1.090e-02		-41.182		1.842e-03		10.277
8		0.00		-0.80		6.422e-03		-34.201		1.428e-03		14.367
8		0.00		-0.40		2.317e-03		-3.684		8.353e-04		49.137
