# Date of analysis: 2024-03-08 10;59
# Segment other properties: height: -48.76832423438826, diff height: 226.8264686536648, deflection: 35.918907902882964, deflection error: 3.309327441464341, adhesion: 48.00153686566051, phase offset: 0
# 
# Loop index	Read Volt (V)	Write Volt (V)	Amplitude (a.u)	Phase (deg)	Sigma Amp (a.u)	Sigma Pha (deg)	
1		0.00		0.00		1.747e-02		-47.926		7.275e-03		37.325
1		0.00		0.40		1.535e-02		-49.960		4.970e-03		19.533
1		0.00		0.80		1.139e-02		-49.115		3.449e-03		14.517
1		0.00		1.20		6.605e-03		-46.157		1.964e-03		15.765
1		0.00		1.60		2.848e-03		-37.791		1.198e-03		42.156
1		0.00		2.00		3.101e-03		96.407		1.132e-03		41.610
1		0.00		2.40		6.947e-03		123.703		2.380e-03		19.548
1		0.00		2.80		1.078e-02		125.731		3.364e-03		21.169
1		0.00		3.20		1.479e-02		126.659		4.820e-03		14.739
1		0.00		3.60		1.900e-02		128.930		5.621e-03		10.048
1		0.00		4.00		2.249e-02		127.660		6.213e-03		11.811
1		0.00		4.40		2.525e-02		126.641		7.541e-03		13.069
1		0.00		4.80		2.848e-02		126.420		8.685e-03		17.627
1		0.00		5.20		3.130e-02		124.328		9.921e-03		26.636
1		0.00		5.60		3.477e-02		128.315		1.057e-02		9.325
1		0.00		6.00		3.753e-02		128.627		1.057e-02		10.861
1		0.00		6.40		3.859e-02		128.556		1.013e-02		12.605
1		0.00		6.80		4.184e-02		128.740		1.107e-02		11.875
1		0.00		7.20		4.368e-02		126.756		1.460e-02		19.260
1		0.00		7.60		4.676e-02		126.537		1.579e-02		22.304
1		0.00		8.00		4.971e-02		126.933		1.625e-02		16.663
1		0.00		8.40		5.091e-02		130.229		1.493e-02		9.332
1		0.00		8.80		5.009e-02		125.488		1.519e-02		19.992
1		0.00		9.20		5.054e-02		122.632		1.868e-02		19.570
1		0.00		9.60		5.160e-02		124.198		1.996e-02		19.805
1		0.00		10.00		4.917e-02		122.959		2.013e-02		23.650
1		0.00		9.60		5.061e-02		124.105		1.944e-02		16.103
1		0.00		9.20		4.874e-02		127.008		1.646e-02		13.411
1		0.00		8.80		4.486e-02		128.190		1.354e-02		15.390
1		0.00		8.40		4.181e-02		124.287		1.429e-02		17.517
1		0.00		8.00		4.000e-02		124.225		1.430e-02		23.129
1		0.00		7.60		3.925e-02		123.890		1.319e-02		24.894
1		0.00		7.20		3.746e-02		126.758		1.116e-02		10.389
1		0.00		6.80		3.468e-02		127.519		9.113e-03		11.538
1		0.00		6.40		3.123e-02		128.109		8.260e-03		11.775
1		0.00		6.00		2.806e-02		124.707		8.215e-03		14.264
1		0.00		5.60		2.528e-02		126.171		7.719e-03		22.946
1		0.00		5.20		2.212e-02		125.594		6.502e-03		13.534
1		0.00		4.80		1.906e-02		126.584		4.959e-03		10.998
1		0.00		4.40		1.533e-02		125.448		3.885e-03		12.844
1		0.00		4.00		1.131e-02		127.988		3.124e-03		11.801
1		0.00		3.60		7.068e-03		121.400		2.145e-03		22.499
1		0.00		3.20		2.995e-03		90.789		1.210e-03		43.400
1		0.00		2.80		2.689e-03		-34.283		1.270e-03		41.781
1		0.00		2.40		6.455e-03		-56.482		2.290e-03		15.700
1		0.00		2.00		1.130e-02		-48.941		3.270e-03		13.342
1		0.00		1.60		1.528e-02		-51.647		4.529e-03		17.377
1		0.00		1.20		1.977e-02		-49.165		6.407e-03		13.639
1		0.00		0.80		2.425e-02		-50.761		7.827e-03		10.510
1		0.00		0.40		2.926e-02		-53.033		7.716e-03		7.758
1		0.00		0.00		3.366e-02		-51.773		8.715e-03		10.078
1		0.00		-0.40		3.674e-02		-52.147		9.940e-03		12.138
1		0.00		-0.80		3.997e-02		-52.653		1.192e-02		17.264
1		0.00		-1.20		4.555e-02		-51.975		1.333e-02		9.125
1		0.00		-1.60		5.014e-02		-53.029		1.304e-02		8.158
1		0.00		-2.00		5.087e-02		-54.357		1.272e-02		11.052
1		0.00		-2.40		5.344e-02		-54.227		1.501e-02		13.116
1		0.00		-2.80		5.310e-02		-49.755		1.498e-02		14.305
1		0.00		-3.20		5.960e-02		-52.100		1.807e-02		10.444
1		0.00		-3.60		5.973e-02		-53.911		1.707e-02		15.353
1		0.00		-4.00		5.745e-02		-53.874		1.649e-02		19.640
1		0.00		-4.40		6.174e-02		-53.199		1.966e-02		18.114
1		0.00		-4.80		6.382e-02		-53.551		2.017e-02		20.359
1		0.00		-5.20		6.525e-02		-50.916		1.973e-02		16.875
1		0.00		-5.60		6.525e-02		-49.559		1.714e-02		13.264
1		0.00		-6.00		5.952e-02		-52.466		1.801e-02		21.651
1		0.00		-6.40		6.205e-02		-48.871		2.032e-02		18.535
1		0.00		-6.80		6.187e-02		-44.690		2.311e-02		22.792
1		0.00		-7.20		5.984e-02		-49.155		1.982e-02		15.199
1		0.00		-7.60		6.058e-02		-48.776		1.743e-02		17.015
1		0.00		-8.00		5.681e-02		-48.587		1.692e-02		18.242
1		0.00		-8.40		5.698e-02		-50.339		2.006e-02		22.719
1		0.00		-8.80		5.551e-02		-45.252		1.975e-02		24.967
1		0.00		-9.20		5.466e-02		-46.306		1.867e-02		11.559
1		0.00		-9.60		4.844e-02		-47.293		1.584e-02		12.254
1		0.00		-10.00		4.186e-02		-47.659		1.239e-02		13.745
1		0.00		-9.60		4.713e-02		-47.699		1.557e-02		17.583
1		0.00		-9.20		5.332e-02		-41.483		1.699e-02		27.427
1		0.00		-8.80		5.659e-02		-46.516		1.602e-02		8.607
1		0.00		-8.40		5.644e-02		-50.565		1.514e-02		14.218
1		0.00		-8.00		5.379e-02		-51.069		1.580e-02		16.190
1		0.00		-7.60		5.449e-02		-50.292		1.639e-02		17.666
1		0.00		-7.20		5.267e-02		-48.690		1.548e-02		14.738
1		0.00		-6.80		5.302e-02		-49.471		1.405e-02		7.457
1		0.00		-6.40		4.883e-02		-50.051		1.200e-02		10.560
1		0.00		-6.00		4.635e-02		-50.334		1.182e-02		12.110
1		0.00		-5.60		4.332e-02		-52.467		1.245e-02		18.817
1		0.00		-5.20		4.055e-02		-49.819		1.214e-02		10.926
1		0.00		-4.80		3.773e-02		-52.069		9.677e-03		7.842
1		0.00		-4.40		3.420e-02		-53.287		7.919e-03		9.422
1		0.00		-4.00		3.069e-02		-52.732		7.413e-03		10.089
1		0.00		-3.60		2.661e-02		-53.337		7.425e-03		16.298
1		0.00		-3.20		2.320e-02		-50.769		6.762e-03		12.051
1		0.00		-2.80		1.989e-02		-48.967		5.047e-03		8.864
1		0.00		-2.40		1.668e-02		-51.998		3.650e-03		11.476
1		0.00		-2.00		1.277e-02		-50.095		3.071e-03		14.534
1		0.00		-1.60		8.758e-03		-45.508		2.412e-03		16.349
1		0.00		-1.20		5.099e-03		-37.312		1.330e-03		25.217
1		0.00		-0.80		1.819e-03		-10.641		7.403e-04		60.799
1		0.00		-0.40		3.586e-03		103.095		1.471e-03		43.000
2		0.00		0.00		7.364e-03		122.756		2.128e-03		16.295
2		0.00		0.40		1.100e-02		125.620		3.172e-03		14.082
2		0.00		0.80		1.454e-02		125.703		4.372e-03		16.717
2		0.00		1.20		1.817e-02		129.244		4.972e-03		8.936
2		0.00		1.60		2.238e-02		127.012		5.597e-03		8.624
2		0.00		2.00		2.561e-02		128.820		6.102e-03		9.637
2		0.00		2.40		2.836e-02		128.805		7.648e-03		12.628
2		0.00		2.80		3.099e-02		128.064		8.907e-03		21.194
2		0.00		3.20		3.413e-02		129.462		9.639e-03		10.182
2		0.00		3.60		3.677e-02		129.551		9.455e-03		8.183
2		0.00		4.00		3.740e-02		129.490		9.958e-03		9.842
2		0.00		4.40		3.965e-02		130.188		1.169e-02		10.794
2		0.00		4.80		4.102e-02		125.526		1.391e-02		22.450
2		0.00		5.20		4.540e-02		128.358		1.583e-02		15.351
2		0.00		5.60		4.732e-02		128.406		1.429e-02		9.333
2		0.00		6.00		4.845e-02		130.000		1.296e-02		8.791
2		0.00		6.40		4.769e-02		128.455		1.405e-02		14.792
2		0.00		6.80		4.904e-02		127.404		1.718e-02		22.224
2		0.00		7.20		5.364e-02		126.896		1.775e-02		23.667
2		0.00		7.60		5.636e-02		129.543		1.657e-02		8.639
2		0.00		8.00		5.707e-02		128.373		1.613e-02		12.111
2		0.00		8.40		5.594e-02		126.370		1.579e-02		22.585
2		0.00		8.80		5.878e-02		128.494		1.793e-02		15.806
2		0.00		9.20		5.892e-02		120.112		1.870e-02		28.317
2		0.00		9.60		5.773e-02		121.508		1.843e-02		34.538
2		0.00		10.00		5.841e-02		129.486		1.763e-02		11.248
2		0.00		9.60		5.760e-02		127.535		1.682e-02		15.706
2		0.00		9.20		5.473e-02		126.351		1.613e-02		17.106
2		0.00		8.80		5.266e-02		127.418		1.640e-02		16.209
2		0.00		8.40		5.071e-02		126.691		1.576e-02		22.946
2		0.00		8.00		4.900e-02		125.060		1.533e-02		20.627
2		0.00		7.60		4.639e-02		130.554		1.233e-02		8.422
2		0.00		7.20		4.263e-02		128.642		1.134e-02		10.492
2		0.00		6.80		3.869e-02		127.795		1.095e-02		12.264
2		0.00		6.40		3.645e-02		126.164		1.124e-02		18.765
2		0.00		6.00		3.356e-02		126.445		1.064e-02		25.682
2		0.00		5.60		3.007e-02		128.953		9.381e-03		12.492
2		0.00		5.20		2.703e-02		128.993		7.238e-03		10.447
2		0.00		4.80		2.401e-02		128.702		5.742e-03		10.433
2		0.00		4.40		1.943e-02		130.134		4.458e-03		11.380
2		0.00		4.00		1.543e-02		130.037		3.841e-03		14.535
2		0.00		3.60		1.108e-02		123.166		2.875e-03		20.754
2		0.00		3.20		6.964e-03		131.292		2.080e-03		20.918
2		0.00		2.80		3.125e-03		101.181		1.222e-03		54.690
2		0.00		2.40		2.751e-03		-34.856		1.273e-03		44.307
2		0.00		2.00		6.471e-03		-47.886		2.021e-03		19.076
2		0.00		1.60		1.105e-02		-48.878		3.201e-03		13.915
2		0.00		1.20		1.556e-02		-49.591		4.548e-03		15.092
2		0.00		0.80		2.017e-02		-50.854		5.620e-03		12.255
2		0.00		0.40		2.463e-02		-51.364		6.644e-03		8.836
2		0.00		0.00		2.979e-02		-52.087		6.853e-03		8.244
2		0.00		-0.40		3.356e-02		-51.183		7.767e-03		10.890
2		0.00		-0.80		3.773e-02		-51.992		9.507e-03		11.053
2		0.00		-1.20		4.089e-02		-52.904		1.194e-02		13.641
2		0.00		-1.60		4.405e-02		-51.976		1.386e-02		13.302
2		0.00		-2.00		4.849e-02		-53.518		1.553e-02		9.209
2		0.00		-2.40		5.184e-02		-53.717		1.443e-02		6.462
2		0.00		-2.80		5.357e-02		-52.149		1.365e-02		9.184
2		0.00		-3.20		5.319e-02		-55.176		1.599e-02		15.124
2		0.00		-3.60		5.596e-02		-55.173		1.842e-02		17.273
2		0.00		-4.00		5.585e-02		-50.788		1.764e-02		13.988
2		0.00		-4.40		5.951e-02		-45.747		1.831e-02		17.351
2		0.00		-4.80		6.189e-02		-50.919		1.710e-02		9.589
2		0.00		-5.20		6.435e-02		-51.294		1.837e-02		14.243
2		0.00		-5.60		6.346e-02		-50.933		1.702e-02		17.544
2		0.00		-6.00		6.602e-02		-45.836		1.842e-02		11.587
2		0.00		-6.40		6.432e-02		-48.153		1.971e-02		20.061
2		0.00		-6.80		6.239e-02		-46.679		1.987e-02		26.261
2		0.00		-7.20		6.479e-02		-47.908		1.830e-02		17.170
2		0.00		-7.60		6.544e-02		-47.892		1.746e-02		13.248
2		0.00		-8.00		6.406e-02		-49.533		1.698e-02		15.272
2		0.00		-8.40		5.836e-02		-49.990		1.645e-02		16.721
2		0.00		-8.80		5.790e-02		-43.898		1.785e-02		12.445
2		0.00		-9.20		5.380e-02		-42.745		1.822e-02		20.675
2		0.00		-9.60		4.915e-02		-42.239		1.724e-02		21.527
2		0.00		-10.00		4.315e-02		-46.305		1.379e-02		7.689
2		0.00		-9.60		4.800e-02		-47.274		1.551e-02		9.343
2		0.00		-9.20		4.929e-02		-47.344		1.557e-02		13.133
2		0.00		-8.80		5.312e-02		-47.716		1.763e-02		15.240
2		0.00		-8.40		5.440e-02		-49.472		1.866e-02		23.325
2		0.00		-8.00		5.504e-02		-46.183		1.831e-02		15.534
2		0.00		-7.60		5.531e-02		-49.414		1.618e-02		7.844
2		0.00		-7.20		5.318e-02		-48.704		1.348e-02		10.855
2		0.00		-6.80		4.887e-02		-50.938		1.264e-02		12.691
2		0.00		-6.40		4.785e-02		-50.342		1.318e-02		12.593
2		0.00		-6.00		4.476e-02		-49.524		1.317e-02		18.752
2		0.00		-5.60		4.290e-02		-50.316		1.221e-02		9.010
2		0.00		-5.20		4.022e-02		-51.100		9.752e-03		7.856
2		0.00		-4.80		3.594e-02		-51.008		8.015e-03		8.876
2		0.00		-4.40		3.254e-02		-50.912		7.750e-03		10.049
2		0.00		-4.00		2.865e-02		-50.737		7.464e-03		13.198
2		0.00		-3.60		2.546e-02		-50.649		6.757e-03		16.572
2		0.00		-3.20		2.254e-02		-51.495		5.776e-03		8.908
2		0.00		-2.80		1.963e-02		-48.671		4.258e-03		8.268
2		0.00		-2.40		1.553e-02		-50.415		3.310e-03		10.731
2		0.00		-2.00		1.161e-02		-45.171		3.126e-03		13.280
2		0.00		-1.60		7.634e-03		-37.347		2.228e-03		18.385
2		0.00		-1.20		4.013e-03		-42.120		1.381e-03		29.750
2		0.00		-0.80		1.635e-03		8.832		6.203e-04		70.687
2		0.00		-0.40		4.439e-03		115.375		1.776e-03		29.564
3		0.00		0.00		7.811e-03		121.991		2.228e-03		15.023
3		0.00		0.40		1.131e-02		124.381		3.250e-03		16.148
3		0.00		0.80		1.457e-02		124.490		4.709e-03		21.488
3		0.00		1.20		1.842e-02		128.797		5.538e-03		11.132
3		0.00		1.60		2.218e-02		129.601		5.612e-03		9.010
3		0.00		2.00		2.487e-02		127.260		6.140e-03		9.944
3		0.00		2.40		2.814e-02		128.580		6.994e-03		11.544
3		0.00		2.80		3.062e-02		128.350		8.340e-03		18.071
3		0.00		3.20		3.429e-02		130.056		9.273e-03		11.696
3		0.00		3.60		3.696e-02		129.989		8.968e-03		7.537
3		0.00		4.00		3.901e-02		130.736		8.453e-03		7.907
3		0.00		4.40		4.151e-02		130.519		9.695e-03		9.134
3		0.00		4.80		4.382e-02		128.887		1.215e-02		14.381
3		0.00		5.20		4.601e-02		128.824		1.331e-02		14.738
3		0.00		5.60		4.978e-02		129.550		1.314e-02		6.968
3		0.00		6.00		5.080e-02		132.173		1.235e-02		7.714
3		0.00		6.40		5.096e-02		130.880		1.265e-02		9.455
3		0.00		6.80		5.261e-02		128.680		1.674e-02		17.031
3		0.00		7.20		5.520e-02		126.665		1.824e-02		24.342
3		0.00		7.60		5.675e-02		131.502		1.719e-02		8.668
3		0.00		8.00		5.600e-02		129.730		1.584e-02		13.127
3		0.00		8.40		5.508e-02		123.380		1.778e-02		25.807
3		0.00		8.80		5.778e-02		126.565		1.984e-02		19.605
3		0.00		9.20		5.962e-02		124.713		2.042e-02		25.485
3		0.00		9.60		5.995e-02		120.430		2.085e-02		40.524
3		0.00		10.00		5.742e-02		126.055		1.896e-02		15.540
3		0.00		9.60		5.594e-02		125.806		1.684e-02		14.408
3		0.00		9.20		5.512e-02		125.368		1.707e-02		17.762
3		0.00		8.80		5.403e-02		125.831		1.767e-02		26.390
3		0.00		8.40		5.299e-02		127.543		1.589e-02		15.298
3		0.00		8.00		5.018e-02		129.628		1.289e-02		7.827
3		0.00		7.60		4.658e-02		128.326		1.155e-02		10.904
3		0.00		7.20		4.408e-02		127.486		1.263e-02		14.110
3		0.00		6.80		4.066e-02		126.823		1.187e-02		20.782
3		0.00		6.40		3.889e-02		127.726		1.100e-02		20.173
3		0.00		6.00		3.531e-02		128.360		8.352e-03		9.485
3		0.00		5.60		3.151e-02		128.918		7.647e-03		11.172
3		0.00		5.20		2.836e-02		130.485		6.999e-03		9.801
3		0.00		4.80		2.391e-02		127.255		6.745e-03		19.051
3		0.00		4.40		2.043e-02		128.367		6.099e-03		18.333
3		0.00		4.00		1.653e-02		130.426		4.283e-03		9.042
3		0.00		3.60		1.289e-02		129.167		3.300e-03		13.063
3		0.00		3.20		8.269e-03		125.984		2.248e-03		15.642
3		0.00		2.80		3.989e-03		115.627		1.466e-03		31.652
3		0.00		2.40		2.111e-03		-5.978		7.825e-04		67.814
3		0.00		2.00		5.137e-03		-51.323		2.135e-03		27.738
3		0.00		1.60		9.305e-03		-52.331		2.738e-03		13.184
3		0.00		1.20		1.321e-02		-49.678		3.777e-03		14.959
3		0.00		0.80		1.760e-02		-51.302		5.173e-03		16.219
3		0.00		0.40		2.175e-02		-49.326		6.524e-03		14.568
3		0.00		0.00		2.675e-02		-50.193		7.014e-03		8.317
3		0.00		-0.40		3.164e-02		-52.918		7.063e-03		8.573
3		0.00		-0.80		3.400e-02		-51.356		7.969e-03		10.629
3		0.00		-1.20		3.827e-02		-51.930		1.016e-02		14.170
3		0.00		-1.60		4.241e-02		-51.080		1.173e-02		11.621
3		0.00		-2.00		4.620e-02		-52.412		1.128e-02		8.266
3		0.00		-2.40		4.981e-02		-53.038		1.082e-02		8.463
3		0.00		-2.80		5.065e-02		-52.401		1.243e-02		12.062
3		0.00		-3.20		5.527e-02		-51.700		1.639e-02		11.812
3		0.00		-3.60		5.761e-02		-51.855		1.684e-02		8.145
3		0.00		-4.00		5.985e-02		-53.583		1.588e-02		8.739
3		0.00		-4.40		5.863e-02		-54.965		1.613e-02		13.324
3		0.00		-4.80		5.925e-02		-49.454		1.733e-02		12.499
3		0.00		-5.20		6.279e-02		-47.878		2.116e-02		24.119
3		0.00		-5.60		6.267e-02		-50.215		2.019e-02		13.812
3		0.00		-6.00		6.430e-02		-46.953		1.613e-02		12.566
3		0.00		-6.40		6.190e-02		-49.374		1.788e-02		19.278
3		0.00		-6.80		6.367e-02		-43.688		1.985e-02		13.585
3		0.00		-7.20		6.199e-02		-43.958		2.011e-02		18.688
3		0.00		-7.60		6.480e-02		-48.244		1.946e-02		10.137
3		0.00		-8.00		6.379e-02		-44.673		1.619e-02		12.445
3		0.00		-8.40		5.911e-02		-50.710		1.634e-02		15.499
3		0.00		-8.80		5.786e-02		-47.193		1.791e-02		21.048
3		0.00		-9.20		5.592e-02		-43.318		1.717e-02		20.804
3		0.00		-9.60		5.140e-02		-45.054		1.478e-02		6.899
3		0.00		-10.00		4.438e-02		-45.978		1.158e-02		10.219
3		0.00		-9.60		4.956e-02		-46.708		1.488e-02		10.500
3		0.00		-9.20		5.341e-02		-46.611		1.729e-02		19.607
3		0.00		-8.80		5.717e-02		-44.669		1.759e-02		15.974
3		0.00		-8.40		5.908e-02		-47.051		1.528e-02		7.758
3		0.00		-8.00		5.742e-02		-47.733		1.322e-02		10.489
3		0.00		-7.60		5.551e-02		-50.031		1.533e-02		12.755
3		0.00		-7.20		5.359e-02		-49.952		1.595e-02		18.248
3		0.00		-6.80		5.107e-02		-46.821		1.623e-02		12.904
3		0.00		-6.40		4.950e-02		-49.388		1.314e-02		7.411
3		0.00		-6.00		4.612e-02		-50.065		1.135e-02		9.374
3		0.00		-5.60		4.177e-02		-49.628		1.086e-02		10.520
3		0.00		-5.20		3.845e-02		-51.013		1.123e-02		14.719
3		0.00		-4.80		3.549e-02		-49.233		1.096e-02		14.915
3		0.00		-4.40		3.206e-02		-52.010		8.888e-03		7.657
3		0.00		-4.00		2.904e-02		-50.971		6.847e-03		9.270
3		0.00		-3.60		2.523e-02		-52.424		5.551e-03		11.107
3		0.00		-3.20		2.212e-02		-50.154		5.560e-03		11.468
3		0.00		-2.80		1.868e-02		-50.571		4.666e-03		11.663
3		0.00		-2.40		1.515e-02		-46.348		3.792e-03		12.478
3		0.00		-2.00		1.167e-02		-44.077		2.587e-03		11.736
3		0.00		-1.60		7.782e-03		-40.491		1.657e-03		13.967
3		0.00		-1.20		3.837e-03		-47.412		1.260e-03		25.957
3		0.00		-0.80		1.947e-03		33.989		7.690e-04		64.688
3		0.00		-0.40		4.254e-03		110.291		1.451e-03		43.904
4		0.00		0.00		7.881e-03		122.203		2.083e-03		15.932
4		0.00		0.40		1.194e-02		128.310		2.807e-03		10.882
4		0.00		0.80		1.590e-02		126.429		3.469e-03		10.337
4		0.00		1.20		1.930e-02		127.803		4.393e-03		9.673
4		0.00		1.60		2.246e-02		126.272		6.187e-03		18.103
4		0.00		2.00		2.507e-02		128.906		7.346e-03		10.540
4		0.00		2.40		2.882e-02		130.467		7.041e-03		6.955
4		0.00		2.80		3.175e-02		129.016		7.586e-03		8.414
4		0.00		3.20		3.430e-02		131.105		8.649e-03		9.113
4		0.00		3.60		3.516e-02		127.185		1.036e-02		19.331
4		0.00		4.00		3.751e-02		128.674		1.173e-02		17.323
4		0.00		4.40		4.113e-02		131.102		1.071e-02		7.103
4		0.00		4.80		4.271e-02		130.827		9.958e-03		8.017
4		0.00		5.20		4.398e-02		129.365		1.140e-02		9.903
4		0.00		5.60		4.557e-02		128.474		1.315e-02		14.985
4		0.00		6.00		4.933e-02		127.702		1.510e-02		21.033
4		0.00		6.40		5.187e-02		130.234		1.475e-02		7.229
4		0.00		6.80		5.332e-02		130.894		1.357e-02		9.252
4		0.00		7.20		5.275e-02		126.492		1.546e-02		14.105
4		0.00		7.60		5.568e-02		129.178		1.686e-02		15.347
4		0.00		8.00		5.783e-02		127.885		1.754e-02		23.544
4		0.00		8.40		6.005e-02		128.357		1.823e-02		15.407
4		0.00		8.80		6.249e-02		130.925		1.735e-02		10.936
4		0.00		9.20		6.067e-02		124.641		1.710e-02		21.705
4		0.00		9.60		5.985e-02		123.489		1.920e-02		16.285
4		0.00		10.00		5.847e-02		128.131		1.990e-02		21.460
4		0.00		9.60		5.978e-02		124.655		2.093e-02		25.182
4		0.00		9.20		5.871e-02		126.429		1.836e-02		12.231
4		0.00		8.80		5.369e-02		127.767		1.593e-02		15.210
4		0.00		8.40		5.079e-02		128.339		1.628e-02		13.352
4		0.00		8.00		4.836e-02		127.128		1.693e-02		20.964
4		0.00		7.60		4.703e-02		126.665		1.586e-02		17.498
4		0.00		7.20		4.472e-02		128.903		1.265e-02		7.809
4		0.00		6.80		4.151e-02		129.264		1.061e-02		9.397
4		0.00		6.40		3.795e-02		129.494		9.676e-03		10.392
4		0.00		6.00		3.536e-02		128.619		1.016e-02		14.205
4		0.00		5.60		3.242e-02		127.726		9.125e-03		22.451
4		0.00		5.20		2.922e-02		130.754		7.594e-03		9.542
4		0.00		4.80		2.576e-02		129.594		5.553e-03		9.059
4		0.00		4.40		2.197e-02		129.692		4.255e-03		10.635
4		0.00		4.00		1.773e-02		129.529		3.981e-03		11.343
4		0.00		3.60		1.404e-02		129.300		3.396e-03		15.860
4		0.00		3.20		9.942e-03		125.289		2.615e-03		20.680
4		0.00		2.80		5.519e-03		125.506		1.780e-03		24.018
4		0.00		2.40		2.339e-03		66.878		1.106e-03		64.683
4		0.00		2.00		3.533e-03		-31.888		1.446e-03		31.774
4		0.00		1.60		7.328e-03		-50.363		2.402e-03		16.678
4		0.00		1.20		1.193e-02		-47.236		3.362e-03		16.458
4		0.00		0.80		1.658e-02		-53.167		4.957e-03		14.246
4		0.00		0.40		2.095e-02		-50.019		5.555e-03		9.556
4		0.00		0.00		2.570e-02		-50.537		5.677e-03		8.356
4		0.00		-0.40		2.998e-02		-50.617		6.492e-03		8.730
4		0.00		-0.80		3.329e-02		-50.252		8.370e-03		11.524
4		0.00		-1.20		3.668e-02		-50.724		1.073e-02		9.535
4		0.00		-1.60		4.117e-02		-51.320		1.206e-02		8.377
4		0.00		-2.00		4.580e-02		-53.548		1.149e-02		7.049
4		0.00		-2.40		5.008e-02		-52.626		1.093e-02		6.397
4		0.00		-2.80		5.065e-02		-53.617		1.251e-02		9.895
4		0.00		-3.20		5.304e-02		-53.229		1.454e-02		13.349
4		0.00		-3.60		5.557e-02		-49.443		1.608e-02		19.571
4		0.00		-4.00		6.081e-02		-52.456		1.680e-02		8.212
4		0.00		-4.40		6.050e-02		-52.990		1.401e-02		10.545
4		0.00		-4.80		6.081e-02		-52.180		1.467e-02		12.723
4		0.00		-5.20		6.226e-02		-49.756		1.617e-02		13.874
4		0.00		-5.60		6.389e-02		-47.480		1.900e-02		13.805
4		0.00		-6.00		6.243e-02		-43.753		1.885e-02		24.006
4		0.00		-6.40		6.626e-02		-47.013		1.946e-02		10.903
4		0.00		-6.80		6.503e-02		-47.564		1.723e-02		13.820
4		0.00		-7.20		6.362e-02		-48.494		1.659e-02		16.147
4		0.00		-7.60		6.737e-02		-50.823		2.039e-02		13.043
4		0.00		-8.00		6.036e-02		-51.353		1.989e-02		22.926
4		0.00		-8.40		5.697e-02		-43.959		1.924e-02		23.368
4		0.00		-8.80		5.923e-02		-46.501		1.986e-02		8.600
4		0.00		-9.20		5.499e-02		-44.237		1.753e-02		9.050
4		0.00		-9.60		4.712e-02		-47.137		1.527e-02		11.348
4		0.00		-10.00		4.126e-02		-47.137		1.407e-02		13.083
4		0.00		-9.60		4.579e-02		-47.597		1.739e-02		22.729
4		0.00		-9.20		5.121e-02		-38.289		1.870e-02		33.517
4		0.00		-8.80		5.314e-02		-46.454		1.646e-02		9.409
4		0.00		-8.40		5.510e-02		-47.238		1.436e-02		10.625
4		0.00		-8.00		5.333e-02		-50.407		1.362e-02		14.284
4		0.00		-7.60		5.279e-02		-50.406		1.471e-02		13.228
4		0.00		-7.20		5.138e-02		-48.039		1.522e-02		16.778
4		0.00		-6.80		4.977e-02		-45.795		1.496e-02		11.713
4		0.00		-6.40		4.764e-02		-48.455		1.245e-02		6.375
4		0.00		-6.00		4.495e-02		-48.442		9.891e-03		8.062
4		0.00		-5.60		4.147e-02		-48.273		9.426e-03		9.733
4		0.00		-5.20		3.815e-02		-49.257		9.523e-03		9.138
4		0.00		-4.80		3.500e-02		-50.654		9.435e-03		14.620
4		0.00		-4.40		3.184e-02		-50.199		8.605e-03		11.858
4		0.00		-4.00		2.868e-02		-50.287		6.719e-03		8.310
4		0.00		-3.60		2.561e-02		-49.367		5.223e-03		8.052
4		0.00		-3.20		2.157e-02		-49.776		4.473e-03		10.600
4		0.00		-2.80		1.790e-02		-49.825		4.215e-03		10.962
4		0.00		-2.40		1.429e-02		-48.230		3.785e-03		15.352
4		0.00		-2.00		1.059e-02		-47.666		2.920e-03		16.267
4		0.00		-1.60		7.204e-03		-42.609		1.902e-03		14.459
4		0.00		-1.20		3.379e-03		-35.585		1.152e-03		27.362
4		0.00		-0.80		2.142e-03		64.342		8.855e-04		62.618
4		0.00		-0.40		5.019e-03		116.038		1.617e-03		24.432
5		0.00		0.00		8.313e-03		120.223		2.603e-03		18.293
5		0.00		0.40		1.213e-02		121.953		3.568e-03		23.754
5		0.00		0.80		1.563e-02		127.735		4.340e-03		11.529
5		0.00		1.20		1.981e-02		128.917		4.658e-03		8.159
5		0.00		1.60		2.229e-02		128.385		4.828e-03		8.123
5		0.00		2.00		2.600e-02		128.805		5.861e-03		9.170
5		0.00		2.40		2.823e-02		128.093		7.285e-03		13.671
5		0.00		2.80		3.047e-02		128.493		8.300e-03		22.018
5		0.00		3.20		3.380e-02		130.782		9.224e-03		10.676
5		0.00		3.60		3.629e-02		129.423		8.643e-03		7.381
5		0.00		4.00		3.886e-02		130.785		8.512e-03		8.614
5		0.00		4.40		4.137e-02		130.467		9.533e-03		7.585
5		0.00		4.80		4.233e-02		128.844		1.258e-02		13.594
5		0.00		5.20		4.465e-02		125.749		1.471e-02		22.898
5		0.00		5.60		4.682e-02		129.473		1.519e-02		10.589
5		0.00		6.00		4.937e-02		131.170		1.386e-02		6.719
5		0.00		6.40		5.011e-02		129.808		1.393e-02		10.384
5		0.00		6.80		5.145e-02		127.131		1.656e-02		14.703
5		0.00		7.20		5.277e-02		127.550		1.829e-02		18.638
5		0.00		7.60		5.486e-02		127.366		1.864e-02		23.297
5		0.00		8.00		5.739e-02		130.204		1.877e-02		10.065
5		0.00		8.40		5.677e-02		129.621		1.582e-02		12.203
5		0.00		8.80		5.886e-02		125.018		1.661e-02		15.733
5		0.00		9.20		5.839e-02		123.185		1.798e-02		26.678
5		0.00		9.60		5.952e-02		123.821		1.951e-02		23.222
5		0.00		10.00		5.683e-02		125.095		1.854e-02		23.350
5		0.00		9.60		6.009e-02		129.257		1.765e-02		9.451
5		0.00		9.20		5.815e-02		128.232		1.516e-02		11.733
5		0.00		8.80		5.484e-02		126.503		1.547e-02		15.321
5		0.00		8.40		5.336e-02		126.422		1.661e-02		18.755
5		0.00		8.00		5.160e-02		128.038		1.564e-02		19.830
5		0.00		7.60		4.976e-02		128.074		1.449e-02		13.712
5		0.00		7.20		4.701e-02		130.383		1.228e-02		6.379
5		0.00		6.80		4.373e-02		131.646		1.059e-02		8.373
5		0.00		6.40		4.063e-02		130.089		9.940e-03		8.244
5		0.00		6.00		3.575e-02		128.507		1.010e-02		13.431
5		0.00		5.60		3.263e-02		125.529		9.849e-03		24.452
5		0.00		5.20		2.975e-02		128.041		8.907e-03		17.112
5		0.00		4.80		2.675e-02		129.461		6.660e-03		8.703
5		0.00		4.40		2.324e-02		131.214		5.069e-03		9.393
5		0.00		4.00		1.895e-02		130.264		4.136e-03		11.130
5		0.00		3.60		1.519e-02		130.857		3.717e-03		12.804
5		0.00		3.20		1.114e-02		125.900		3.174e-03		22.308
5		0.00		2.80		7.114e-03		123.948		1.993e-03		23.565
5		0.00		2.40		3.060e-03		99.052		1.282e-03		56.554
5		0.00		2.00		2.639e-03		-26.283		1.154e-03		44.295
5		0.00		1.60		6.539e-03		-44.919		2.009e-03		18.258
5		0.00		1.20		1.084e-02		-47.732		3.036e-03		15.332
5		0.00		0.80		1.510e-02		-48.916		4.241e-03		14.832
5		0.00		0.40		1.923e-02		-49.444		5.151e-03		13.810
5		0.00		0.00		2.350e-02		-49.836		5.337e-03		9.629
5		0.00		-0.40		2.797e-02		-50.257		5.489e-03		8.246
5		0.00		-0.80		3.214e-02		-50.122		6.948e-03		8.965
5		0.00		-1.20		3.525e-02		-51.415		8.873e-03		10.977
5		0.00		-1.60		3.915e-02		-51.498		1.090e-02		13.940
5		0.00		-2.00		4.280e-02		-53.117		1.251e-02		9.614
5		0.00		-2.40		4.743e-02		-52.957		1.259e-02		6.819
5		0.00		-2.80		5.037e-02		-53.228		1.231e-02		8.336
5		0.00		-3.20		5.178e-02		-53.531		1.315e-02		9.988
5		0.00		-3.60		5.371e-02		-54.619		1.608e-02		14.756
5		0.00		-4.00		5.589e-02		-50.991		1.801e-02		18.967
5		0.00		-4.40		5.889e-02		-51.280		1.825e-02		8.020
5		0.00		-4.80		6.032e-02		-50.837		1.621e-02		10.412
5		0.00		-5.20		6.233e-02		-51.132		1.636e-02		11.349
5		0.00		-5.60		6.218e-02		-50.366		1.696e-02		12.929
5		0.00		-6.00		6.322e-02		-47.110		1.987e-02		17.244
5		0.00		-6.40		6.341e-02		-47.023		1.873e-02		20.037
5		0.00		-6.80		6.520e-02		-46.853		1.793e-02		11.726
5		0.00		-7.20		6.963e-02		-48.491		1.789e-02		10.721
5		0.00		-7.60		6.693e-02		-48.649		1.663e-02		13.302
5		0.00		-8.00		6.358e-02		-50.563		1.722e-02		13.267
5		0.00		-8.40		6.034e-02		-47.531		1.742e-02		14.523
5		0.00		-8.80		5.893e-02		-46.031		1.819e-02		21.493
5		0.00		-9.20		5.566e-02		-43.420		1.727e-02		12.105
5		0.00		-9.60		5.183e-02		-45.938		1.480e-02		6.931
5		0.00		-10.00		4.323e-02		-44.028		1.122e-02		9.718
5		0.00		-9.60		4.799e-02		-46.325		1.394e-02		8.726
5		0.00		-9.20		5.271e-02		-46.797		1.757e-02		16.311
5		0.00		-8.80		5.481e-02		-48.371		1.804e-02		22.975
5		0.00		-8.40		5.693e-02		-45.410		1.841e-02		15.223
5		0.00		-8.00		5.699e-02		-46.633		1.561e-02		7.667
5		0.00		-7.60		5.494e-02		-47.165		1.238e-02		8.302
5		0.00		-7.20		5.183e-02		-49.716		1.301e-02		11.600
5		0.00		-6.80		4.986e-02		-49.802		1.382e-02		10.785
5		0.00		-6.40		4.655e-02		-49.235		1.412e-02		14.844
5		0.00		-6.00		4.414e-02		-48.579		1.367e-02		12.462
5		0.00		-5.60		4.197e-02		-48.963		1.117e-02		6.674
5		0.00		-5.20		3.909e-02		-49.414		8.054e-03		7.227
5		0.00		-4.80		3.594e-02		-49.979		7.243e-03		8.576
5		0.00		-4.40		3.223e-02		-49.788		6.995e-03		8.507
5		0.00		-4.00		2.832e-02		-51.322		6.618e-03		10.486
5		0.00		-3.60		2.496e-02		-51.160		6.384e-03		14.366
5		0.00		-3.20		2.165e-02		-49.642		5.273e-03		8.226
5		0.00		-2.80		1.831e-02		-48.183		3.888e-03		8.669
5		0.00		-2.40		1.477e-02		-47.794		2.512e-03		11.511
5		0.00		-2.00		1.065e-02		-47.289		2.187e-03		12.545
5		0.00		-1.60		6.871e-03		-37.954		1.767e-03		18.227
5		0.00		-1.20		3.437e-03		-35.928		1.253e-03		28.732
5		0.00		-0.80		1.998e-03		42.612		9.483e-04		68.962
5		0.00		-0.40		5.270e-03		117.461		1.762e-03		24.376
6		0.00		0.00		8.869e-03		124.550		2.521e-03		12.364
6		0.00		0.40		1.242e-02		126.148		2.872e-03		10.137
6		0.00		0.80		1.566e-02		127.505		3.999e-03		10.028
6		0.00		1.20		1.884e-02		126.749		5.242e-03		13.979
6		0.00		1.60		2.198e-02		126.295		6.383e-03		17.591
6		0.00		2.00		2.510e-02		128.278		7.538e-03		13.246
6		0.00		2.40		2.817e-02		130.456		7.380e-03		7.874
6		0.00		2.80		3.098e-02		129.464		7.380e-03		7.820
6		0.00		3.20		3.365e-02		129.175		7.787e-03		8.898
6		0.00		3.60		3.625e-02		129.939		9.018e-03		8.802
6		0.00		4.00		3.815e-02		128.149		1.025e-02		19.545
6		0.00		4.40		4.108e-02		129.228		1.126e-02		19.836
6		0.00		4.80		4.367e-02		130.401		1.128e-02		8.097
6		0.00		5.20		4.652e-02		130.879		1.058e-02		7.727
6		0.00		5.60		4.845e-02		130.540		1.030e-02		7.509
6		0.00		6.00		4.986e-02		130.135		1.182e-02		10.078
6		0.00		6.40		5.274e-02		129.295		1.519e-02		13.838
6		0.00		6.80		5.447e-02		128.026		1.635e-02		19.865
6		0.00		7.20		5.720e-02		128.932		1.741e-02		11.409
6		0.00		7.60		5.838e-02		131.075		1.637e-02		7.868
6		0.00		8.00		5.873e-02		129.322		1.623e-02		10.896
6		0.00		8.40		5.727e-02		126.737		1.858e-02		15.146
6		0.00		8.80		5.877e-02		126.374		2.065e-02		20.735
6		0.00		9.20		5.863e-02		125.368		2.072e-02		24.333
6		0.00		9.60		5.691e-02		122.355		2.073e-02		33.653
6		0.00		10.00		5.729e-02		127.460		1.900e-02		11.889
6		0.00		9.60		5.640e-02		125.200		1.705e-02		16.699
6		0.00		9.20		5.838e-02		125.925		1.926e-02		14.368
6		0.00		8.80		5.485e-02		128.282		1.928e-02		18.223
6		0.00		8.40		5.354e-02		126.206		1.718e-02		28.098
6		0.00		8.00		5.258e-02		129.145		1.540e-02		7.891
6		0.00		7.60		5.045e-02		130.524		1.192e-02		8.513
6		0.00		7.20		4.675e-02		130.092		1.065e-02		8.950
6		0.00		6.80		4.393e-02		129.230		1.106e-02		9.638
6		0.00		6.40		4.003e-02		128.637		1.132e-02		18.013
6		0.00		6.00		3.700e-02		128.910		1.069e-02		16.982
6		0.00		5.60		3.424e-02		130.847		8.419e-03		7.304
6		0.00		5.20		3.073e-02		131.723		6.548e-03		8.365
6		0.00		4.80		2.741e-02		130.051		6.272e-03		9.594
6		0.00		4.40		2.368e-02		129.720		6.336e-03		13.548
6		0.00		4.00		1.956e-02		127.158		5.380e-03		25.146
6		0.00		3.60		1.604e-02		132.538		4.403e-03		12.552
6		0.00		3.20		1.190e-02		129.826		2.749e-03		12.749
6		0.00		2.80		7.896e-03		127.578		1.922e-03		13.802
6		0.00		2.40		3.921e-03		117.260		1.390e-03		35.162
6		0.00		2.00		2.110e-03		-0.517		8.779e-04		54.192
6		0.00		1.60		5.290e-03		-47.995		1.826e-03		22.632
6		0.00		1.20		9.666e-03		-49.440		3.275e-03		12.746
6		0.00		0.80		1.386e-02		-49.580		3.947e-03		11.685
6		0.00		0.40		1.817e-02		-50.951		4.480e-03		9.606
6		0.00		0.00		2.194e-02		-49.703		5.389e-03		9.905
6		0.00		-0.40		2.594e-02		-50.044		7.104e-03		16.073
6		0.00		-0.80		2.949e-02		-48.260		8.218e-03		11.886
6		0.00		-1.20		3.444e-02		-51.365		8.483e-03		7.893
6		0.00		-1.60		3.852e-02		-51.354		8.175e-03		6.761
6		0.00		-2.00		4.171e-02		-51.169		8.655e-03		8.979
6		0.00		-2.40		4.493e-02		-51.866		1.071e-02		10.139
6		0.00		-2.80		4.723e-02		-53.593		1.287e-02		16.949
6		0.00		-3.20		5.188e-02		-51.558		1.542e-02		9.426
6		0.00		-3.60		5.489e-02		-53.264		1.404e-02		7.505
6		0.00		-4.00		5.642e-02		-53.720		1.327e-02		9.855
6		0.00		-4.40		5.689e-02		-54.076		1.438e-02		12.641
6		0.00		-4.80		6.074e-02		-51.562		1.818e-02		12.341
6		0.00		-5.20		6.017e-02		-49.257		1.898e-02		16.361
6		0.00		-5.60		6.257e-02		-48.650		1.975e-02		8.851
6		0.00		-6.00		6.394e-02		-48.904		1.786e-02		10.079
6		0.00		-6.40		6.253e-02		-49.267		1.699e-02		13.403
6		0.00		-6.80		6.286e-02		-49.846		1.762e-02		13.246
6		0.00		-7.20		6.222e-02		-47.606		2.063e-02		22.704
6		0.00		-7.60		6.088e-02		-42.406		2.048e-02		26.898
6		0.00		-8.00		6.200e-02		-48.182		1.981e-02		10.991
6		0.00		-8.40		6.108e-02		-45.201		1.658e-02		12.096
6		0.00		-8.80		5.661e-02		-48.570		1.537e-02		12.474
6		0.00		-9.20		5.422e-02		-45.883		1.665e-02		11.018
6		0.00		-9.60		4.981e-02		-48.393		1.634e-02		18.462
6		0.00		-10.00		4.403e-02		-40.046		1.426e-02		18.536
6		0.00		-9.60		4.973e-02		-46.371		1.511e-02		7.984
6		0.00		-9.20		5.356e-02		-44.755		1.447e-02		8.432
6		0.00		-8.80		5.404e-02		-45.368		1.382e-02		10.469
6		0.00		-8.40		5.526e-02		-47.162		1.549e-02		11.343
6		0.00		-8.00		5.596e-02		-47.687		1.660e-02		18.888
6		0.00		-7.60		5.503e-02		-47.823		1.712e-02		18.921
6		0.00		-7.20		5.418e-02		-48.399		1.412e-02		7.942
6		0.00		-6.80		5.096e-02		-47.574		1.189e-02		8.216
6		0.00		-6.40		4.766e-02		-47.456		1.084e-02		8.489
6		0.00		-6.00		4.393e-02		-48.608		1.178e-02		10.528
6		0.00		-5.60		4.036e-02		-50.824		1.184e-02		14.075
6		0.00		-5.20		3.736e-02		-51.667		1.179e-02		17.459
6		0.00		-4.80		3.500e-02		-49.190		1.007e-02		7.356
6		0.00		-4.40		3.159e-02		-49.102		7.551e-03		7.955
6		0.00		-4.00		2.792e-02		-51.114		5.930e-03		9.412
6		0.00		-3.60		2.378e-02		-49.539		5.748e-03		10.813
6		0.00		-3.20		2.006e-02		-49.517		5.488e-03		15.188
6		0.00		-2.80		1.718e-02		-49.897		4.776e-03		16.877
6		0.00		-2.40		1.404e-02		-45.552		3.410e-03		11.536
6		0.00		-2.00		1.034e-02		-45.580		2.399e-03		13.498
6		0.00		-1.60		6.676e-03		-40.622		1.552e-03		16.477
6		0.00		-1.20		3.437e-03		-38.497		1.272e-03		27.328
6		0.00		-0.80		2.034e-03		50.399		9.437e-04		64.524
6		0.00		-0.40		5.071e-03		110.898		1.702e-03		29.266
7		0.00		0.00		8.212e-03		121.959		2.513e-03		29.392
7		0.00		0.40		1.196e-02		123.669		3.260e-03		15.319
7		0.00		0.80		1.585e-02		128.556		3.490e-03		8.046
7		0.00		1.20		1.936e-02		128.533		4.026e-03		8.134
7		0.00		1.60		2.226e-02		129.812		4.864e-03		9.744
7		0.00		2.00		2.502e-02		129.012		6.649e-03		14.653
7		0.00		2.40		2.796e-02		128.325		8.322e-03		17.279
7		0.00		2.80		3.141e-02		130.445		9.107e-03		7.379
7		0.00		3.20		3.412e-02		130.521		8.476e-03		7.934
7		0.00		3.60		3.698e-02		130.022		8.653e-03		7.357
7		0.00		4.00		3.863e-02		131.179		9.226e-03		9.060
7		0.00		4.40		4.091e-02		130.472		1.138e-02		11.473
7		0.00		4.80		4.286e-02		127.935		1.274e-02		20.774
7		0.00		5.20		4.516e-02		129.970		1.377e-02		17.114
7		0.00		5.60		4.848e-02		130.936		1.356e-02		6.844
7		0.00		6.00		5.193e-02		131.174		1.203e-02		6.845
7		0.00		6.40		5.221e-02		131.941		1.144e-02		8.119
7		0.00		6.80		5.419e-02		130.282		1.356e-02		11.209
7		0.00		7.20		5.545e-02		129.193		1.651e-02		13.099
7		0.00		7.60		5.771e-02		128.578		1.806e-02		20.906
7		0.00		8.00		5.970e-02		127.998		1.849e-02		18.616
7		0.00		8.40		6.081e-02		131.446		1.797e-02		11.269
7		0.00		8.80		6.234e-02		130.699		1.652e-02		11.717
7		0.00		9.20		6.340e-02		127.639		1.747e-02		13.346
7		0.00		9.60		6.095e-02		127.653		1.679e-02		15.260
7		0.00		10.00		5.899e-02		125.652		1.983e-02		17.841
7		0.00		9.60		5.864e-02		124.371		2.014e-02		25.183
7		0.00		9.20		5.779e-02		125.266		1.952e-02		18.669
7		0.00		8.80		5.699e-02		129.658		1.819e-02		8.036
7		0.00		8.40		5.491e-02		130.470		1.601e-02		9.328
7		0.00		8.00		5.118e-02		129.986		1.347e-02		10.654
7		0.00		7.60		4.786e-02		128.466		1.390e-02		13.415
7		0.00		7.20		4.547e-02		127.768		1.452e-02		16.024
7		0.00		6.80		4.244e-02		127.969		1.359e-02		23.221
7		0.00		6.40		4.024e-02		126.692		1.300e-02		23.627
7		0.00		6.00		3.760e-02		130.748		1.118e-02		9.599
7		0.00		5.60		3.466e-02		130.617		7.894e-03		9.369
7		0.00		5.20		3.155e-02		130.389		6.600e-03		9.768
7		0.00		4.80		2.810e-02		131.731		5.753e-03		9.223
7		0.00		4.40		2.432e-02		131.520		5.580e-03		10.522
7		0.00		4.00		2.053e-02		129.280		5.012e-03		17.006
7		0.00		3.60		1.659e-02		127.918		4.255e-03		19.296
7		0.00		3.20		1.299e-02		126.543		3.339e-03		14.139
7		0.00		2.80		9.071e-03		129.864		2.209e-03		12.109
7		0.00		2.40		4.240e-03		125.749		1.359e-03		18.691
7		0.00		2.00		1.894e-03		-4.447		7.091e-04		69.764
7		0.00		1.60		4.694e-03		-45.260		1.678e-03		25.522
7		0.00		1.20		8.529e-03		-49.504		2.439e-03		16.390
7		0.00		0.80		1.266e-02		-50.397		3.621e-03		15.257
7		0.00		0.40		1.668e-02		-49.949		5.353e-03		14.857
7		0.00		0.00		2.075e-02		-51.705		6.084e-03		10.822
7		0.00		-0.40		2.528e-02		-50.144		6.656e-03		7.663
7		0.00		-0.80		2.948e-02		-49.536		6.591e-03		7.458
7		0.00		-1.20		3.356e-02		-53.014		7.459e-03		8.961
7		0.00		-1.60		3.719e-02		-51.651		8.500e-03		8.889
7		0.00		-2.00		4.001e-02		-52.115		1.090e-02		11.961
7		0.00		-2.40		4.292e-02		-52.740		1.245e-02		17.508
7		0.00		-2.80		4.634e-02		-51.893		1.353e-02		14.973
7		0.00		-3.20		5.062e-02		-52.132		1.432e-02		9.900
7		0.00		-3.60		5.434e-02		-52.706		1.352e-02		7.316
7		0.00		-4.00		5.759e-02		-52.493		1.244e-02		7.476
7		0.00		-4.40		5.787e-02		-54.142		1.412e-02		12.759
7		0.00		-4.80		5.774e-02		-52.230		1.561e-02		13.342
7		0.00		-5.20		6.104e-02		-50.510		1.789e-02		11.711
7		0.00		-5.60		6.181e-02		-50.934		1.889e-02		16.791
7		0.00		-6.00		6.314e-02		-44.641		2.032e-02		22.115
7		0.00		-6.40		6.445e-02		-47.494		1.914e-02		9.920
7		0.00		-6.80		6.826e-02		-47.135		1.849e-02		10.199
7		0.00		-7.20		6.934e-02		-49.974		1.929e-02		11.265
7		0.00		-7.60		6.302e-02		-49.338		1.885e-02		16.758
7		0.00		-8.00		6.143e-02		-51.383		1.992e-02		17.310
7		0.00		-8.40		5.935e-02		-50.005		2.109e-02		15.308
7		0.00		-8.80		5.495e-02		-47.338		1.902e-02		19.817
7		0.00		-9.20		5.364e-02		-45.999		1.982e-02		18.760
7		0.00		-9.60		4.796e-02		-47.965		1.722e-02		10.862
7		0.00		-10.00		4.131e-02		-44.762		1.291e-02		8.778
7		0.00		-9.60		4.541e-02		-46.214		1.378e-02		10.170
7		0.00		-9.20		4.925e-02		-46.326		1.492e-02		11.484
7		0.00		-8.80		5.254e-02		-46.691		1.660e-02		13.156
7		0.00		-8.40		5.451e-02		-47.178		1.700e-02		18.131
7		0.00		-8.00		5.460e-02		-48.595		1.695e-02		18.068
7		0.00		-7.60		5.423e-02		-48.780		1.619e-02		9.797
7		0.00		-7.20		5.192e-02		-46.905		1.268e-02		8.022
7		0.00		-6.80		4.905e-02		-47.249		1.059e-02		9.167
7		0.00		-6.40		4.665e-02		-47.654		1.010e-02		9.353
7		0.00		-6.00		4.383e-02		-48.095		1.049e-02		9.232
7		0.00		-5.60		4.077e-02		-48.335		1.083e-02		10.705
7		0.00		-5.20		3.752e-02		-47.730		1.071e-02		13.607
7		0.00		-4.80		3.436e-02		-48.688		9.613e-03		11.924
7		0.00		-4.40		3.110e-02		-49.590		7.784e-03		7.903
7		0.00		-4.00		2.773e-02		-49.470		5.926e-03		7.557
7		0.00		-3.60		2.370e-02		-50.034		5.039e-03		10.644
7		0.00		-3.20		2.065e-02		-48.723		4.627e-03		10.118
7		0.00		-2.80		1.699e-02		-47.725		4.444e-03		14.872
7		0.00		-2.40		1.366e-02		-47.050		3.542e-03		14.978
7		0.00		-2.00		1.005e-02		-45.945		2.943e-03		16.311
7		0.00		-1.60		6.333e-03		-37.744		1.671e-03		15.767
7		0.00		-1.20		2.619e-03		-44.164		1.196e-03		48.318
7		0.00		-0.80		2.035e-03		56.261		7.294e-04		63.340
7		0.00		-0.40		5.084e-03		113.211		1.674e-03		17.986
8		0.00		0.00		8.564e-03		123.685		2.338e-03		14.534
8		0.00		0.40		1.244e-02		124.672		3.332e-03		20.836
8		0.00		0.80		1.586e-02		128.442		4.214e-03		19.586
8		0.00		1.20		1.980e-02		127.619		4.836e-03		7.982
8		0.00		1.60		2.301e-02		129.077		4.830e-03		8.540
8		0.00		2.00		2.591e-02		129.944		5.406e-03		7.879
8		0.00		2.40		2.886e-02		130.006		6.361e-03		9.015
8		0.00		2.80		3.139e-02		128.768		8.019e-03		12.499
8		0.00		3.20		3.437e-02		127.802		9.444e-03		18.681
8		0.00		3.60		3.723e-02		128.972		1.055e-02		10.348
8		0.00		4.00		3.988e-02		131.549		1.005e-02		6.641
8		0.00		4.40		4.206e-02		130.247		1.013e-02		7.263
8		0.00		4.80		4.323e-02		130.738		1.081e-02		8.296
8		0.00		5.20		4.587e-02		129.340		1.343e-02		9.282
8		0.00		5.60		4.643e-02		128.915		1.506e-02		17.338
8		0.00		6.00		4.935e-02		126.564		1.657e-02		24.272
8		0.00		6.40		5.081e-02		129.052		1.634e-02		14.066
8		0.00		6.80		5.373e-02		131.067		1.570e-02		8.075
8		0.00		7.20		5.494e-02		131.241		1.411e-02		8.714
8		0.00		7.60		5.490e-02		127.440		1.469e-02		14.988
8		0.00		8.00		5.647e-02		127.656		1.662e-02		13.721
8		0.00		8.40		6.007e-02		127.553		1.938e-02		18.743
8		0.00		8.80		6.019e-02		127.509		1.904e-02		23.401
8		0.00		9.20		6.062e-02		124.985		1.909e-02		26.666
8		0.00		9.60		6.296e-02		127.587		2.006e-02		10.958
8		0.00		10.00		5.936e-02		129.998		1.733e-02		11.703
8		0.00		9.60		5.873e-02		127.302		1.562e-02		12.939
8		0.00		9.20		5.905e-02		127.156		1.738e-02		14.398
8		0.00		8.80		5.712e-02		128.324		1.751e-02		11.616
8		0.00		8.40		5.528e-02		128.011		1.681e-02		19.943
8		0.00		8.00		5.307e-02		127.924		1.616e-02		15.921
8		0.00		7.60		5.037e-02		130.938		1.418e-02		7.302
8		0.00		7.20		4.730e-02		131.042		1.223e-02		8.427
8		0.00		6.80		4.428e-02		130.780		1.110e-02		9.110
8		0.00		6.40		4.028e-02		130.029		1.080e-02		9.528
8		0.00		6.00		3.714e-02		128.385		1.131e-02		15.650
8		0.00		5.60		3.350e-02		126.162		1.049e-02		26.610
8		0.00		5.20		3.115e-02		129.816		9.486e-03		18.643
8		0.00		4.80		2.782e-02		131.083		7.128e-03		7.652
8		0.00		4.40		2.394e-02		130.857		5.321e-03		9.311
8		0.00		4.00		2.088e-02		130.529		4.369e-03		10.293
8		0.00		3.60		1.690e-02		132.800		3.618e-03		10.727
8		0.00		3.20		1.284e-02		129.430		3.121e-03		15.410
8		0.00		2.80		9.124e-03		127.081		2.371e-03		23.748
8		0.00		2.40		5.076e-03		125.818		1.501e-03		27.976
8		0.00		2.00		1.917e-03		28.175		8.824e-04		68.690
8		0.00		1.60		3.903e-03		-47.767		1.544e-03		22.509
8		0.00		1.20		8.140e-03		-53.815		2.088e-03		13.016
8		0.00		0.80		1.197e-02		-49.862		2.897e-03		14.748
8		0.00		0.40		1.627e-02		-48.572		4.416e-03		12.534
8		0.00		0.00		2.039e-02		-51.753		5.380e-03		15.540
8		0.00		-0.40		2.471e-02		-49.716		6.809e-03		8.456
8		0.00		-0.80		2.867e-02		-51.460		7.224e-03		7.072
8		0.00		-1.20		3.269e-02		-49.586		7.491e-03		8.108
8		0.00		-1.60		3.598e-02		-50.950		8.688e-03		8.790
8		0.00		-2.00		3.891e-02		-51.543		1.037e-02		10.192
8		0.00		-2.40		4.168e-02		-52.147		1.229e-02		15.034
8		0.00		-2.80		4.527e-02		-52.739		1.441e-02		17.677
8		0.00		-3.20		4.812e-02		-52.203		1.550e-02		9.028
8		0.00		-3.60		5.184e-02		-53.915		1.417e-02		7.882
8		0.00		-4.00		5.412e-02		-53.389		1.314e-02		9.332
8		0.00		-4.40		5.439e-02		-54.002		1.415e-02		12.006
8		0.00		-4.80		5.678e-02		-55.316		1.737e-02		15.557
8		0.00		-5.20		5.928e-02		-53.163		1.819e-02		17.889
8		0.00		-5.60		6.087e-02		-48.456		1.832e-02		16.127
8		0.00		-6.00		6.405e-02		-49.923		1.874e-02		8.861
8		0.00		-6.40		6.506e-02		-46.795		1.663e-02		8.821
8		0.00		-6.80		6.461e-02		-51.403		1.583e-02		13.577
8		0.00		-7.20		6.466e-02		-51.336		1.822e-02		14.713
8		0.00		-7.60		6.363e-02		-48.659		1.826e-02		13.661
8		0.00		-8.00		6.408e-02		-49.058		2.004e-02		16.600
8		0.00		-8.40		6.058e-02		-48.323		1.889e-02		19.209
8		0.00		-8.80		6.030e-02		-46.815		1.853e-02		10.239
8		0.00		-9.20		5.616e-02		-45.847		1.617e-02		10.283
8		0.00		-9.60		4.909e-02		-46.127		1.436e-02		10.686
8		0.00		-10.00		4.232e-02		-46.870		1.327e-02		9.829
8		0.00		-9.60		4.721e-02		-47.985		1.662e-02		12.926
8		0.00		-9.20		5.094e-02		-44.338		1.813e-02		25.533
8		0.00		-8.80		5.320e-02		-44.627		1.793e-02		21.633
8		0.00		-8.40		5.631e-02		-47.326		1.804e-02		8.219
8		0.00		-8.00		5.581e-02		-47.507		1.434e-02		8.678
8		0.00		-7.60		5.423e-02		-48.195		1.282e-02		9.263
8		0.00		-7.20		5.158e-02		-47.515		1.305e-02		9.895
8		0.00		-6.80		4.926e-02		-49.390		1.400e-02		11.924
8		0.00		-6.40		4.728e-02		-49.010		1.329e-02		15.966
8		0.00		-6.00		4.477e-02		-48.549		1.262e-02		14.798
8		0.00		-5.60		4.240e-02		-48.164		1.131e-02		6.576
8		0.00		-5.20		3.947e-02		-48.904		8.642e-03		6.415
8		0.00		-4.80		3.551e-02		-50.203		7.471e-03		7.390
8		0.00		-4.40		3.188e-02		-50.783		7.030e-03		8.849
8		0.00		-4.00		2.821e-02		-50.669		6.589e-03		9.631
8		0.00		-3.60		2.472e-02		-49.965		6.477e-03		16.770
8		0.00		-3.20		2.146e-02		-51.018		5.568e-03		13.193
8		0.00		-2.80		1.821e-02		-50.297		4.265e-03		9.212
8		0.00		-2.40		1.457e-02		-45.181		3.271e-03		8.463
8		0.00		-2.00		1.120e-02		-41.054		2.421e-03		12.656
8		0.00		-1.60		7.088e-03		-41.408		1.916e-03		15.348
8		0.00		-1.20		3.391e-03		-33.674		1.231e-03		27.369
8		0.00		-0.80		1.832e-03		34.452		7.992e-04		63.771
8		0.00		-0.40		4.299e-03		114.208		1.713e-03		30.888
