# Date of analysis: 2024-03-08 10;59
# Segment other properties: height: -76.65449691675305, diff height: 514.6447396146451, deflection: 33.02404362535957, deflection error: 2.3116964691737074, adhesion: 34.98029494709672, phase offset: 0
# 
# Loop index	Read Volt (V)	Write Volt (V)	Amplitude (a.u)	Phase (deg)	Sigma Amp (a.u)	Sigma Pha (deg)	
1		0.00		0.00		9.360e-03		-63.066		3.813e-03		35.947
1		0.00		0.40		7.016e-03		-42.845		1.557e-03		14.772
1		0.00		0.80		2.469e-03		-33.759		1.005e-03		36.563
1		0.00		1.20		3.117e-03		93.879		1.052e-03		48.345
1		0.00		1.60		7.519e-03		119.651		1.699e-03		15.937
1		0.00		2.00		1.183e-02		126.486		2.448e-03		13.152
1		0.00		2.40		1.637e-02		128.900		2.472e-03		10.514
1		0.00		2.80		2.019e-02		128.786		3.725e-03		11.448
1		0.00		3.20		2.403e-02		129.340		5.427e-03		11.241
1		0.00		3.60		2.783e-02		128.912		6.209e-03		9.465
1		0.00		4.00		3.183e-02		129.475		5.302e-03		9.121
1		0.00		4.40		3.465e-02		131.126		6.524e-03		8.860
1		0.00		4.80		3.754e-02		130.016		8.920e-03		13.897
1		0.00		5.20		4.009e-02		130.457		9.952e-03		10.415
1		0.00		5.60		4.350e-02		130.697		8.222e-03		9.399
1		0.00		6.00		4.625e-02		131.533		8.112e-03		7.686
1		0.00		6.40		4.742e-02		130.111		1.133e-02		15.577
1		0.00		6.80		5.106e-02		131.655		1.310e-02		10.856
1		0.00		7.20		5.503e-02		131.809		1.149e-02		9.664
1		0.00		7.60		5.451e-02		132.760		1.042e-02		9.467
1		0.00		8.00		5.495e-02		131.664		1.385e-02		16.826
1		0.00		8.40		5.849e-02		132.474		1.588e-02		15.263
1		0.00		8.80		6.271e-02		133.180		1.340e-02		10.568
1		0.00		9.20		6.142e-02		130.989		1.458e-02		13.903
1		0.00		9.60		6.001e-02		130.132		1.671e-02		17.292
1		0.00		10.00		5.837e-02		133.156		1.652e-02		15.210
1		0.00		9.60		5.985e-02		128.458		1.430e-02		13.475
1		0.00		9.20		5.826e-02		130.324		1.512e-02		17.801
1		0.00		8.80		5.667e-02		132.221		1.499e-02		14.907
1		0.00		8.40		5.468e-02		129.088		1.576e-02		20.130
1		0.00		8.00		5.357e-02		130.869		1.323e-02		9.424
1		0.00		7.60		4.985e-02		130.774		1.117e-02		11.602
1		0.00		7.20		4.711e-02		131.153		1.145e-02		13.452
1		0.00		6.80		4.363e-02		129.868		1.162e-02		17.909
1		0.00		6.40		4.081e-02		131.675		1.024e-02		9.076
1		0.00		6.00		3.842e-02		132.415		7.118e-03		8.249
1		0.00		5.60		3.503e-02		131.423		7.322e-03		10.835
1		0.00		5.20		3.061e-02		130.691		7.404e-03		18.190
1		0.00		4.80		2.776e-02		131.815		6.105e-03		9.602
1		0.00		4.40		2.424e-02		132.038		3.938e-03		9.820
1		0.00		4.00		2.078e-02		132.617		3.391e-03		8.391
1		0.00		3.60		1.621e-02		133.604		3.175e-03		14.860
1		0.00		3.20		1.195e-02		133.596		2.507e-03		12.088
1		0.00		2.80		7.990e-03		132.218		1.383e-03		14.819
1		0.00		2.40		3.775e-03		126.277		1.048e-03		25.078
1		0.00		2.00		2.279e-03		-30.896		9.337e-04		47.199
1		0.00		1.60		6.488e-03		-54.694		1.843e-03		14.141
1		0.00		1.20		1.141e-02		-46.636		2.167e-03		11.814
1		0.00		0.80		1.601e-02		-51.070		2.842e-03		11.034
1		0.00		0.40		2.134e-02		-49.503		3.718e-03		8.670
1		0.00		0.00		2.507e-02		-49.079		4.776e-03		11.118
1		0.00		-0.40		2.965e-02		-49.122		5.966e-03		10.019
1		0.00		-0.80		3.517e-02		-51.159		5.832e-03		8.587
1		0.00		-1.20		3.939e-02		-50.723		5.673e-03		7.317
1		0.00		-1.60		4.253e-02		-51.822		7.066e-03		6.675
1		0.00		-2.00		4.502e-02		-50.179		9.347e-03		8.289
1		0.00		-2.40		4.872e-02		-51.880		9.682e-03		9.000
1		0.00		-2.80		5.346e-02		-53.633		8.937e-03		8.336
1		0.00		-3.20		5.453e-02		-51.931		9.060e-03		8.124
1		0.00		-3.60		5.715e-02		-50.788		1.335e-02		11.218
1		0.00		-4.00		5.857e-02		-52.559		1.466e-02		9.776
1		0.00		-4.40		6.408e-02		-53.044		1.338e-02		11.057
1		0.00		-4.80		6.324e-02		-50.383		1.394e-02		13.395
1		0.00		-5.20		6.395e-02		-48.929		1.669e-02		13.559
1		0.00		-5.60		6.441e-02		-46.058		1.660e-02		15.142
1		0.00		-6.00		6.582e-02		-49.738		1.784e-02		20.060
1		0.00		-6.40		6.471e-02		-39.358		1.377e-02		16.851
1		0.00		-6.80		6.917e-02		-41.024		1.395e-02		15.247
1		0.00		-7.20		6.835e-02		-44.034		1.999e-02		20.691
1		0.00		-7.60		6.769e-02		-46.918		2.108e-02		24.004
1		0.00		-8.00		6.726e-02		-41.408		1.769e-02		23.188
1		0.00		-8.40		6.669e-02		-37.819		1.707e-02		23.743
1		0.00		-8.80		7.233e-02		-43.727		1.998e-02		18.702
1		0.00		-9.20		6.583e-02		-37.958		2.229e-02		25.817
1		0.00		-9.60		6.323e-02		-41.168		1.921e-02		14.595
1		0.00		-10.00		5.617e-02		-41.352		1.427e-02		9.913
1		0.00		-9.60		5.755e-02		-45.109		1.693e-02		20.423
1		0.00		-9.20		6.323e-02		-43.646		1.978e-02		17.511
1		0.00		-8.80		6.019e-02		-45.387		2.124e-02		31.938
1		0.00		-8.40		6.606e-02		-43.763		1.813e-02		18.231
1		0.00		-8.00		6.786e-02		-41.892		1.526e-02		13.438
1		0.00		-7.60		6.467e-02		-46.099		1.530e-02		17.351
1		0.00		-7.20		6.215e-02		-45.900		1.628e-02		14.366
1		0.00		-6.80		6.089e-02		-43.903		1.778e-02		16.554
1		0.00		-6.40		6.411e-02		-47.827		1.435e-02		9.005
1		0.00		-6.00		6.075e-02		-49.754		1.202e-02		12.153
1		0.00		-5.60		5.679e-02		-47.503		1.071e-02		8.788
1		0.00		-5.20		5.471e-02		-49.596		1.177e-02		11.535
1		0.00		-4.80		5.150e-02		-49.616		1.172e-02		9.530
1		0.00		-4.40		4.740e-02		-52.345		9.076e-03		8.202
1		0.00		-4.00		4.389e-02		-51.867		7.197e-03		9.448
1		0.00		-3.60		3.961e-02		-50.699		6.692e-03		8.230
1		0.00		-3.20		3.527e-02		-51.498		6.947e-03		10.294
1		0.00		-2.80		3.110e-02		-48.849		6.323e-03		8.459
1		0.00		-2.40		2.742e-02		-48.560		4.428e-03		9.852
1		0.00		-2.00		2.334e-02		-46.829		3.636e-03		9.107
1		0.00		-1.60		1.812e-02		-45.541		2.998e-03		9.944
1		0.00		-1.20		1.341e-02		-44.035		2.536e-03		12.698
1		0.00		-0.80		8.945e-03		-38.280		2.041e-03		13.083
1		0.00		-0.40		4.030e-03		-15.302		1.167e-03		26.401
2		0.00		0.00		2.174e-03		28.750		8.161e-04		57.042
2		0.00		0.40		5.274e-03		111.156		1.494e-03		28.823
2		0.00		0.80		9.080e-03		123.636		2.237e-03		18.664
2		0.00		1.20		1.381e-02		126.295		2.925e-03		9.984
2		0.00		1.60		1.856e-02		126.580		3.437e-03		8.479
2		0.00		2.00		2.227e-02		129.587		4.039e-03		8.811
2		0.00		2.40		2.585e-02		128.225		5.653e-03		14.671
2		0.00		2.80		2.935e-02		129.349		6.812e-03		10.793
2		0.00		3.20		3.349e-02		130.102		6.141e-03		8.241
2		0.00		3.60		3.730e-02		129.893		6.990e-03		8.785
2		0.00		4.00		3.886e-02		130.911		7.979e-03		10.787
2		0.00		4.40		4.144e-02		129.026		1.012e-02		14.756
2		0.00		4.80		4.473e-02		130.275		1.069e-02		8.763
2		0.00		5.20		4.766e-02		131.011		9.517e-03		8.057
2		0.00		5.60		4.900e-02		131.949		9.222e-03		7.161
2		0.00		6.00		5.032e-02		131.316		1.178e-02		12.154
2		0.00		6.40		5.367e-02		131.492		1.362e-02		11.817
2		0.00		6.80		5.590e-02		130.930		1.476e-02		10.530
2		0.00		7.20		5.727e-02		132.763		1.255e-02		8.887
2		0.00		7.60		5.748e-02		134.661		1.219e-02		11.978
2		0.00		8.00		5.631e-02		128.953		1.666e-02		20.248
2		0.00		8.40		6.036e-02		129.273		1.842e-02		26.077
2		0.00		8.80		6.210e-02		132.019		1.797e-02		18.306
2		0.00		9.20		6.412e-02		132.050		1.635e-02		12.573
2		0.00		9.60		6.047e-02		133.866		1.509e-02		14.736
2		0.00		10.00		5.778e-02		128.630		1.777e-02		21.353
2		0.00		9.60		5.948e-02		130.362		1.772e-02		16.125
2		0.00		9.20		6.089e-02		128.607		1.663e-02		20.290
2		0.00		8.80		6.106e-02		131.600		1.424e-02		9.867
2		0.00		8.40		5.687e-02		134.222		1.050e-02		7.628
2		0.00		8.00		5.389e-02		131.900		1.177e-02		12.735
2		0.00		7.60		5.329e-02		131.568		1.209e-02		14.277
2		0.00		7.20		5.090e-02		130.999		1.243e-02		16.296
2		0.00		6.80		4.838e-02		131.691		1.167e-02		10.137
2		0.00		6.40		4.588e-02		132.711		8.632e-03		8.927
2		0.00		6.00		4.260e-02		132.020		6.896e-03		7.967
2		0.00		5.60		3.867e-02		133.524		6.770e-03		8.269
2		0.00		5.20		3.460e-02		132.468		7.028e-03		9.557
2		0.00		4.80		3.091e-02		131.456		6.813e-03		12.134
2		0.00		4.40		2.695e-02		132.791		5.813e-03		9.892
2		0.00		4.00		2.308e-02		130.220		4.064e-03		10.019
2		0.00		3.60		1.946e-02		133.423		3.188e-03		11.000
2		0.00		3.20		1.529e-02		129.890		2.576e-03		11.125
2		0.00		2.80		1.111e-02		132.821		2.242e-03		16.688
2		0.00		2.40		6.671e-03		126.206		1.829e-03		19.189
2		0.00		2.00		2.895e-03		103.554		1.108e-03		45.352
2		0.00		1.60		2.640e-03		-46.919		1.041e-03		39.339
2		0.00		1.20		6.943e-03		-48.493		1.684e-03		16.091
2		0.00		0.80		1.155e-02		-48.914		2.422e-03		12.032
2		0.00		0.40		1.549e-02		-47.628		3.379e-03		11.890
2		0.00		0.00		2.004e-02		-49.955		4.614e-03		10.568
2		0.00		-0.40		2.485e-02		-46.933		5.112e-03		8.730
2		0.00		-0.80		2.963e-02		-50.173		5.263e-03		8.214
2		0.00		-1.20		3.370e-02		-51.097		5.919e-03		7.920
2		0.00		-1.60		3.643e-02		-50.459		7.140e-03		10.211
2		0.00		-2.00		4.012e-02		-51.035		8.656e-03		12.024
2		0.00		-2.40		4.300e-02		-51.834		9.941e-03		9.747
2		0.00		-2.80		4.844e-02		-51.931		9.592e-03		8.824
2		0.00		-3.20		5.154e-02		-52.752		8.669e-03		7.702
2		0.00		-3.60		5.195e-02		-52.999		1.042e-02		11.073
2		0.00		-4.00		5.571e-02		-51.956		1.246e-02		12.237
2		0.00		-4.40		5.705e-02		-50.526		1.567e-02		16.597
2		0.00		-4.80		6.040e-02		-50.457		1.420e-02		8.972
2		0.00		-5.20		6.168e-02		-50.324		1.340e-02		11.872
2		0.00		-5.60		6.149e-02		-50.812		1.655e-02		17.563
2		0.00		-6.00		6.473e-02		-52.183		1.661e-02		15.959
2		0.00		-6.40		6.415e-02		-45.664		1.886e-02		15.694
2		0.00		-6.80		6.375e-02		-47.220		2.013e-02		21.999
2		0.00		-7.20		6.852e-02		-46.926		1.886e-02		19.977
2		0.00		-7.60		6.905e-02		-42.946		1.609e-02		15.515
2		0.00		-8.00		6.786e-02		-44.893		1.908e-02		22.221
2		0.00		-8.40		6.797e-02		-41.152		2.035e-02		21.319
2		0.00		-8.80		6.560e-02		-37.556		1.731e-02		21.002
2		0.00		-9.20		6.738e-02		-43.436		1.871e-02		15.506
2		0.00		-9.60		6.181e-02		-40.148		1.517e-02		14.573
2		0.00		-10.00		5.466e-02		-46.913		1.409e-02		15.919
2		0.00		-9.60		6.093e-02		-43.707		1.690e-02		13.867
2		0.00		-9.20		6.591e-02		-43.093		1.843e-02		20.099
2		0.00		-8.80		6.602e-02		-41.333		1.880e-02		14.906
2		0.00		-8.40		6.761e-02		-42.731		1.726e-02		19.065
2		0.00		-8.00		6.468e-02		-47.145		1.601e-02		20.184
2		0.00		-7.60		6.770e-02		-44.221		1.588e-02		15.484
2		0.00		-7.20		6.508e-02		-45.329		1.591e-02		11.852
2		0.00		-6.80		6.390e-02		-47.282		1.695e-02		9.463
2		0.00		-6.40		6.445e-02		-48.342		1.361e-02		10.548
2		0.00		-6.00		6.103e-02		-48.831		1.110e-02		9.379
2		0.00		-5.60		5.590e-02		-49.261		1.185e-02		11.925
2		0.00		-5.20		5.301e-02		-49.672		1.288e-02		13.371
2		0.00		-4.80		4.998e-02		-50.681		1.224e-02		10.107
2		0.00		-4.40		4.717e-02		-51.478		1.017e-02		8.461
2		0.00		-4.00		4.424e-02		-52.194		7.122e-03		7.574
2		0.00		-3.60		4.010e-02		-51.246		6.240e-03		7.684
2		0.00		-3.20		3.562e-02		-48.698		6.380e-03		8.391
2		0.00		-2.80		3.089e-02		-49.200		6.124e-03		10.475
2		0.00		-2.40		2.699e-02		-47.644		5.353e-03		9.669
2		0.00		-2.00		2.261e-02		-47.140		3.705e-03		8.930
2		0.00		-1.60		1.837e-02		-49.984		2.580e-03		9.222
2		0.00		-1.20		1.341e-02		-42.654		2.092e-03		10.852
2		0.00		-0.80		8.816e-03		-38.515		1.562e-03		12.616
2		0.00		-0.40		4.404e-03		-33.784		1.245e-03		29.557
3		0.00		0.00		1.922e-03		24.616		7.382e-04		67.632
3		0.00		0.40		5.427e-03		117.964		1.751e-03		19.117
3		0.00		0.80		9.265e-03		124.273		1.725e-03		11.111
3		0.00		1.20		1.417e-02		127.525		2.730e-03		10.051
3		0.00		1.60		1.770e-02		128.138		3.960e-03		14.215
3		0.00		2.00		2.136e-02		128.945		5.160e-03		9.625
3		0.00		2.40		2.580e-02		128.053		5.530e-03		9.123
3		0.00		2.80		2.962e-02		128.797		5.662e-03		9.722
3		0.00		3.20		3.276e-02		129.815		6.616e-03		9.242
3		0.00		3.60		3.572e-02		129.778		7.858e-03		12.108
3		0.00		4.00		3.850e-02		128.913		9.620e-03		16.047
3		0.00		4.40		4.128e-02		131.147		1.000e-02		8.791
3		0.00		4.80		4.508e-02		130.083		9.593e-03		8.270
3		0.00		5.20		4.747e-02		130.621		8.683e-03		8.925
3		0.00		5.60		4.941e-02		130.641		9.248e-03		9.552
3		0.00		6.00		5.174e-02		132.490		1.041e-02		10.254
3		0.00		6.40		5.344e-02		131.955		1.213e-02		13.348
3		0.00		6.80		5.689e-02		131.230		1.411e-02		16.681
3		0.00		7.20		5.883e-02		131.729		1.350e-02		8.680
3		0.00		7.60		5.924e-02		131.707		1.288e-02		12.738
3		0.00		8.00		6.048e-02		135.024		1.194e-02		10.083
3		0.00		8.40		6.225e-02		132.779		1.455e-02		14.301
3		0.00		8.80		6.386e-02		131.555		1.658e-02		17.066
3		0.00		9.20		6.509e-02		128.842		1.753e-02		27.850
3		0.00		9.60		6.237e-02		133.154		1.614e-02		12.785
3		0.00		10.00		6.086e-02		132.951		1.560e-02		14.414
3		0.00		9.60		6.003e-02		132.002		1.486e-02		17.600
3		0.00		9.20		5.940e-02		128.967		1.647e-02		19.438
3		0.00		8.80		5.827e-02		132.066		1.552e-02		16.066
3		0.00		8.40		5.607e-02		131.200		1.565e-02		19.979
3		0.00		8.00		5.402e-02		131.792		1.544e-02		15.368
3		0.00		7.60		5.409e-02		132.650		1.225e-02		7.789
3		0.00		7.20		5.025e-02		133.116		8.935e-03		8.146
3		0.00		6.80		4.712e-02		132.952		9.025e-03		8.288
3		0.00		6.40		4.378e-02		132.630		9.099e-03		9.670
3		0.00		6.00		4.019e-02		130.562		9.923e-03		14.621
3		0.00		5.60		3.804e-02		131.232		9.026e-03		12.381
3		0.00		5.20		3.551e-02		132.820		7.572e-03		8.480
3		0.00		4.80		3.160e-02		131.890		5.855e-03		9.371
3		0.00		4.40		2.872e-02		132.634		5.292e-03		9.723
3		0.00		4.00		2.384e-02		134.204		4.311e-03		9.733
3		0.00		3.60		1.993e-02		131.855		4.146e-03		14.607
3		0.00		3.20		1.586e-02		132.607		3.493e-03		10.005
3		0.00		2.80		1.183e-02		131.200		2.381e-03		10.532
3		0.00		2.40		7.645e-03		129.195		1.560e-03		14.310
3		0.00		2.00		3.266e-03		114.355		9.727e-04		30.458
3		0.00		1.60		2.239e-03		-37.076		9.128e-04		48.524
3		0.00		1.20		6.319e-03		-44.944		1.891e-03		17.495
3		0.00		0.80		1.097e-02		-50.322		2.661e-03		11.780
3		0.00		0.40		1.556e-02		-50.697		3.263e-03		11.766
3		0.00		0.00		2.012e-02		-50.607		3.490e-03		10.027
3		0.00		-0.40		2.429e-02		-48.381		4.682e-03		10.420
3		0.00		-0.80		2.833e-02		-50.314		6.314e-03		11.545
3		0.00		-1.20		3.243e-02		-50.910		7.464e-03		10.579
3		0.00		-1.60		3.635e-02		-51.678		7.501e-03		9.286
3		0.00		-2.00		4.050e-02		-52.149		6.668e-03		8.360
3		0.00		-2.40		4.444e-02		-51.725		7.845e-03		7.835
3		0.00		-2.80		4.764e-02		-50.708		9.354e-03		8.979
3		0.00		-3.20		5.067e-02		-51.074		1.089e-02		9.537
3		0.00		-3.60		5.420e-02		-52.213		1.127e-02		7.730
3		0.00		-4.00		5.779e-02		-53.754		9.918e-03		8.670
3		0.00		-4.40		6.007e-02		-52.256		1.131e-02		9.106
3		0.00		-4.80		5.987e-02		-50.422		1.246e-02		11.884
3		0.00		-5.20		6.296e-02		-50.362		1.508e-02		10.935
3		0.00		-5.60		6.447e-02		-45.834		1.383e-02		9.837
3		0.00		-6.00		6.629e-02		-47.283		1.379e-02		14.236
3		0.00		-6.40		6.476e-02		-51.201		1.519e-02		17.219
3		0.00		-6.80		6.942e-02		-43.683		1.657e-02		16.216
3		0.00		-7.20		6.862e-02		-41.875		1.797e-02		15.114
3		0.00		-7.60		6.804e-02		-45.330		1.893e-02		17.988
3		0.00		-8.00		7.014e-02		-47.363		1.957e-02		24.427
3		0.00		-8.40		6.844e-02		-43.356		1.605e-02		18.521
3		0.00		-8.80		6.483e-02		-38.915		1.980e-02		19.102
3		0.00		-9.20		6.295e-02		-36.847		1.920e-02		25.687
3		0.00		-9.60		6.192e-02		-43.528		1.884e-02		16.592
3		0.00		-10.00		5.771e-02		-42.737		1.419e-02		7.936
3		0.00		-9.60		5.851e-02		-43.261		1.593e-02		15.449
3		0.00		-9.20		6.404e-02		-41.477		1.914e-02		15.525
3		0.00		-8.80		6.502e-02		-38.468		2.022e-02		26.627
3		0.00		-8.40		6.883e-02		-43.817		1.675e-02		14.732
3		0.00		-8.00		6.709e-02		-44.215		1.652e-02		20.149
3		0.00		-7.60		6.405e-02		-40.615		1.167e-02		12.711
3		0.00		-7.20		6.763e-02		-45.147		1.500e-02		9.960
3		0.00		-6.80		6.538e-02		-45.655		1.620e-02		11.860
3		0.00		-6.40		6.293e-02		-47.827		1.572e-02		10.246
3		0.00		-6.00		6.123e-02		-47.822		1.079e-02		7.361
3		0.00		-5.60		5.806e-02		-49.411		9.580e-03		8.097
3		0.00		-5.20		5.433e-02		-49.894		1.070e-02		10.453
3		0.00		-4.80		5.064e-02		-51.688		1.171e-02		14.388
3		0.00		-4.40		4.772e-02		-50.899		9.599e-03		8.368
3		0.00		-4.00		4.412e-02		-52.191		7.433e-03		8.083
3		0.00		-3.60		3.922e-02		-50.974		6.303e-03		7.110
3		0.00		-3.20		3.414e-02		-50.618		6.781e-03		8.960
3		0.00		-2.80		2.940e-02		-50.494		7.318e-03		12.098
3		0.00		-2.40		2.541e-02		-48.078		5.587e-03		9.258
3		0.00		-2.00		2.161e-02		-48.544		3.742e-03		9.844
3		0.00		-1.60		1.744e-02		-47.411		2.980e-03		10.021
3		0.00		-1.20		1.255e-02		-46.518		2.522e-03		14.584
3		0.00		-0.80		8.054e-03		-48.022		1.980e-03		15.613
3		0.00		-0.40		3.837e-03		-28.700		1.136e-03		31.548
4		0.00		0.00		2.017e-03		41.156		8.068e-04		55.795
4		0.00		0.40		5.200e-03		115.745		1.661e-03		29.221
4		0.00		0.80		9.159e-03		123.029		2.277e-03		17.601
4		0.00		1.20		1.350e-02		123.427		3.334e-03		12.488
4		0.00		1.60		1.777e-02		125.715		3.524e-03		8.671
4		0.00		2.00		2.254e-02		128.200		3.847e-03		9.075
4		0.00		2.40		2.580e-02		130.148		5.240e-03		9.741
4		0.00		2.80		2.885e-02		129.551		6.397e-03		12.589
4		0.00		3.20		3.244e-02		129.815		6.961e-03		9.472
4		0.00		3.60		3.561e-02		129.724		6.553e-03		9.321
4		0.00		4.00		3.856e-02		131.122		6.617e-03		7.925
4		0.00		4.40		4.095e-02		130.507		9.082e-03		10.572
4		0.00		4.80		4.355e-02		130.971		1.063e-02		8.399
4		0.00		5.20		4.663e-02		130.835		9.072e-03		8.177
4		0.00		5.60		4.866e-02		131.488		9.652e-03		7.383
4		0.00		6.00		4.962e-02		131.303		1.226e-02		12.056
4		0.00		6.40		5.146e-02		130.265		1.457e-02		14.342
4		0.00		6.80		5.553e-02		131.656		1.304e-02		8.674
4		0.00		7.20		5.643e-02		133.571		1.090e-02		8.594
4		0.00		7.60		5.560e-02		131.723		1.447e-02		17.337
4		0.00		8.00		5.862e-02		128.645		1.714e-02		27.766
4		0.00		8.40		6.181e-02		132.615		1.536e-02		9.532
4		0.00		8.80		6.240e-02		132.403		1.402e-02		12.640
4		0.00		9.20		6.004e-02		130.111		1.623e-02		18.022
4		0.00		9.60		6.184e-02		130.930		1.726e-02		18.534
4		0.00		10.00		6.293e-02		131.809		1.712e-02		12.423
4		0.00		9.60		6.313e-02		131.437		1.434e-02		10.395
4		0.00		9.20		5.925e-02		131.845		1.428e-02		16.582
4		0.00		8.80		5.918e-02		129.530		1.598e-02		19.957
4		0.00		8.40		5.771e-02		131.264		1.518e-02		22.694
4		0.00		8.00		5.698e-02		132.859		1.308e-02		8.081
4		0.00		7.60		5.331e-02		132.148		1.105e-02		11.132
4		0.00		7.20		4.988e-02		131.160		1.138e-02		13.229
4		0.00		6.80		4.761e-02		130.547		1.160e-02		15.070
4		0.00		6.40		4.508e-02		131.901		1.098e-02		10.713
4		0.00		6.00		4.175e-02		132.010		8.174e-03		7.997
4		0.00		5.60		3.793e-02		133.165		7.539e-03		8.968
4		0.00		5.20		3.398e-02		131.337		7.484e-03		13.483
4		0.00		4.80		3.017e-02		129.858		7.881e-03		17.888
4		0.00		4.40		2.676e-02		131.241		6.447e-03		10.658
4		0.00		4.00		2.365e-02		131.075		4.556e-03		9.151
4		0.00		3.60		1.999e-02		133.208		3.601e-03		9.371
4		0.00		3.20		1.552e-02		132.112		3.323e-03		15.638
4		0.00		2.80		1.163e-02		129.358		2.972e-03		19.721
4		0.00		2.40		7.766e-03		132.654		1.758e-03		15.892
4		0.00		2.00		3.422e-03		109.472		1.286e-03		42.554
4		0.00		1.60		2.218e-03		-21.882		8.758e-04		58.056
4		0.00		1.20		6.149e-03		-53.665		1.711e-03		19.174
4		0.00		0.80		9.988e-03		-45.619		2.434e-03		13.371
4		0.00		0.40		1.505e-02		-45.613		2.973e-03		12.229
4		0.00		0.00		1.925e-02		-49.628		3.259e-03		9.461
4		0.00		-0.40		2.402e-02		-47.933		3.896e-03		9.023
4		0.00		-0.80		2.793e-02		-48.428		4.687e-03		8.163
4		0.00		-1.20		3.173e-02		-49.222		6.384e-03		8.935
4		0.00		-1.60		3.500e-02		-50.105		6.859e-03		8.279
4		0.00		-2.00		4.039e-02		-52.657		6.719e-03		7.806
4		0.00		-2.40		4.385e-02		-52.438		7.439e-03		7.764
4		0.00		-2.80		4.716e-02		-51.360		8.349e-03		8.477
4		0.00		-3.20		4.961e-02		-51.928		1.130e-02		10.624
4		0.00		-3.60		5.266e-02		-52.717		1.210e-02		8.200
4		0.00		-4.00		5.664e-02		-52.863		1.026e-02		8.460
4		0.00		-4.40		5.833e-02		-52.142		1.042e-02		10.322
4		0.00		-4.80		5.875e-02		-50.269		1.318e-02		9.708
4		0.00		-5.20		6.010e-02		-51.431		1.685e-02		13.709
4		0.00		-5.60		6.320e-02		-48.244		1.603e-02		11.112
4		0.00		-6.00		6.601e-02		-46.550		1.535e-02		14.690
4		0.00		-6.40		6.616e-02		-47.307		1.588e-02		15.240
4		0.00		-6.80		6.653e-02		-44.869		1.826e-02		13.638
4		0.00		-7.20		6.787e-02		-40.991		1.813e-02		15.019
4		0.00		-7.60		7.152e-02		-47.156		1.837e-02		19.372
4		0.00		-8.00		6.993e-02		-48.616		1.757e-02		20.730
4		0.00		-8.40		6.917e-02		-44.754		1.607e-02		19.527
4		0.00		-8.80		6.974e-02		-40.420		1.992e-02		16.262
4		0.00		-9.20		6.526e-02		-37.465		1.786e-02		23.447
4		0.00		-9.60		6.354e-02		-41.322		1.674e-02		11.762
4		0.00		-10.00		5.574e-02		-42.876		1.280e-02		10.868
4		0.00		-9.60		6.063e-02		-45.024		1.699e-02		17.512
4		0.00		-9.20		6.553e-02		-40.250		2.011e-02		16.995
4		0.00		-8.80		6.518e-02		-38.879		1.757e-02		13.632
4		0.00		-8.40		6.786e-02		-39.554		1.473e-02		12.467
4		0.00		-8.00		6.680e-02		-45.209		1.775e-02		16.845
4		0.00		-7.60		6.409e-02		-44.448		1.812e-02		14.923
4		0.00		-7.20		6.467e-02		-46.177		1.883e-02		14.357
4		0.00		-6.80		6.334e-02		-49.588		1.667e-02		12.409
4		0.00		-6.40		6.097e-02		-49.256		1.287e-02		12.712
4		0.00		-6.00		5.698e-02		-51.814		1.488e-02		16.623
4		0.00		-5.60		5.443e-02		-50.627		1.446e-02		15.514
4		0.00		-5.20		5.269e-02		-50.300		1.416e-02		9.797
4		0.00		-4.80		4.977e-02		-51.090		9.433e-03		8.223
4		0.00		-4.40		4.561e-02		-52.547		8.770e-03		9.359
4		0.00		-4.00		4.164e-02		-50.625		8.312e-03		8.579
4		0.00		-3.60		3.751e-02		-50.837		8.382e-03		10.421
4		0.00		-3.20		3.402e-02		-51.339		6.855e-03		8.945
4		0.00		-2.80		3.049e-02		-48.919		4.695e-03		8.918
4		0.00		-2.40		2.605e-02		-48.952		4.402e-03		8.897
4		0.00		-2.00		2.199e-02		-49.614		4.170e-03		11.045
4		0.00		-1.60		1.755e-02		-46.431		3.480e-03		9.534
4		0.00		-1.20		1.377e-02		-44.890		2.311e-03		9.731
4		0.00		-0.80		9.093e-03		-40.282		1.650e-03		17.238
4		0.00		-0.40		4.450e-03		-32.529		1.049e-03		23.193
5		0.00		0.00		1.888e-03		5.660		7.961e-04		67.177
5		0.00		0.40		4.873e-03		109.076		1.447e-03		25.846
5		0.00		0.80		8.567e-03		120.749		1.851e-03		15.458
5		0.00		1.20		1.274e-02		127.281		2.478e-03		11.354
5		0.00		1.60		1.642e-02		129.489		3.950e-03		12.816
5		0.00		2.00		2.034e-02		129.618		4.823e-03		11.129
5		0.00		2.40		2.425e-02		128.487		5.057e-03		9.794
5		0.00		2.80		2.858e-02		129.214		5.248e-03		7.838
5		0.00		3.20		3.090e-02		130.510		6.710e-03		10.938
5		0.00		3.60		3.346e-02		129.033		8.650e-03		15.946
5		0.00		4.00		3.666e-02		131.809		9.025e-03		9.420
5		0.00		4.40		4.003e-02		130.703		8.027e-03		8.710
5		0.00		4.80		4.266e-02		131.207		8.430e-03		8.279
5		0.00		5.20		4.452e-02		129.226		1.082e-02		15.494
5		0.00		5.60		4.781e-02		131.548		1.163e-02		8.563
5		0.00		6.00		5.176e-02		132.036		9.995e-03		7.120
5		0.00		6.40		5.152e-02		131.391		1.138e-02		11.681
5		0.00		6.80		5.302e-02		129.939		1.434e-02		20.640
5		0.00		7.20		5.625e-02		128.739		1.504e-02		26.347
5		0.00		7.60		5.942e-02		131.530		1.319e-02		9.789
5		0.00		8.00		5.613e-02		134.027		1.121e-02		12.313
5		0.00		8.40		5.893e-02		129.334		1.690e-02		22.508
5		0.00		8.80		6.253e-02		127.367		1.704e-02		25.317
5		0.00		9.20		6.564e-02		130.966		1.623e-02		12.633
5		0.00		9.60		6.051e-02		132.502		1.565e-02		15.099
5		0.00		10.00		5.857e-02		129.873		1.806e-02		23.432
5		0.00		9.60		6.133e-02		128.568		1.942e-02		22.281
5		0.00		9.20		6.153e-02		130.956		1.736e-02		11.933
5		0.00		8.80		5.883e-02		131.494		1.405e-02		14.763
5		0.00		8.40		5.502e-02		132.305		1.337e-02		14.314
5		0.00		8.00		5.270e-02		128.774		1.536e-02		19.648
5		0.00		7.60		5.114e-02		130.806		1.464e-02		17.607
5		0.00		7.20		4.919e-02		132.381		1.299e-02		9.408
5		0.00		6.80		4.679e-02		132.716		9.972e-03		8.253
5		0.00		6.40		4.323e-02		131.990		8.881e-03		9.850
5		0.00		6.00		3.997e-02		131.181		9.422e-03		15.055
5		0.00		5.60		3.743e-02		132.392		8.464e-03		12.109
5		0.00		5.20		3.396e-02		132.343		6.499e-03		8.812
5		0.00		4.80		3.106e-02		133.893		5.372e-03		8.769
5		0.00		4.40		2.683e-02		132.363		5.051e-03		10.261
5		0.00		4.00		2.358e-02		132.659		5.072e-03		12.845
5		0.00		3.60		1.949e-02		132.306		4.311e-03		10.063
5		0.00		3.20		1.615e-02		132.898		2.815e-03		11.013
5		0.00		2.80		1.165e-02		128.611		2.042e-03		11.408
5		0.00		2.40		7.532e-03		133.563		1.782e-03		16.223
5		0.00		2.00		3.284e-03		112.209		1.017e-03		47.100
5		0.00		1.60		1.812e-03		-15.465		7.211e-04		61.998
5		0.00		1.20		5.798e-03		-49.289		1.702e-03		15.866
5		0.00		0.80		9.795e-03		-44.514		1.965e-03		14.361
5		0.00		0.40		1.400e-02		-49.622		3.113e-03		12.407
5		0.00		0.00		1.837e-02		-47.900		4.212e-03		10.105
5		0.00		-0.40		2.236e-02		-48.820		4.041e-03		9.113
5		0.00		-0.80		2.751e-02		-48.988		4.318e-03		8.730
5		0.00		-1.20		3.156e-02		-49.621		5.981e-03		9.263
5		0.00		-1.60		3.473e-02		-51.327		7.490e-03		10.740
5		0.00		-2.00		3.825e-02		-51.025		8.495e-03		8.460
5		0.00		-2.40		4.330e-02		-52.228		7.947e-03		8.197
5		0.00		-2.80		4.749e-02		-52.495		8.159e-03		7.772
5		0.00		-3.20		4.900e-02		-52.752		9.739e-03		10.622
5		0.00		-3.60		5.262e-02		-51.923		1.194e-02		10.772
5		0.00		-4.00		5.598e-02		-51.170		1.349e-02		9.285
5		0.00		-4.40		6.046e-02		-52.379		1.161e-02		8.657
5		0.00		-4.80		6.010e-02		-50.354		1.080e-02		8.480
5		0.00		-5.20		6.121e-02		-47.419		1.382e-02		6.485
5		0.00		-5.60		6.429e-02		-47.802		1.479e-02		11.183
5		0.00		-6.00		6.606e-02		-46.626		1.597e-02		12.135
5		0.00		-6.40		6.530e-02		-46.293		1.549e-02		16.819
5		0.00		-6.80		6.510e-02		-46.778		1.704e-02		21.170
5		0.00		-7.20		6.660e-02		-41.979		1.834e-02		17.002
5		0.00		-7.60		6.619e-02		-46.210		1.923e-02		20.940
5		0.00		-8.00		6.891e-02		-45.402		2.045e-02		22.714
5		0.00		-8.40		6.714e-02		-42.593		1.846e-02		21.511
5		0.00		-8.80		6.810e-02		-44.222		2.108e-02		20.688
5		0.00		-9.20		6.168e-02		-38.524		2.033e-02		17.846
5		0.00		-9.60		6.047e-02		-41.375		1.903e-02		18.524
5		0.00		-10.00		5.456e-02		-42.593		1.401e-02		9.702
5		0.00		-9.60		5.996e-02		-44.374		1.768e-02		15.010
5		0.00		-9.20		6.143e-02		-45.014		1.821e-02		16.021
5		0.00		-8.80		6.357e-02		-39.378		1.879e-02		19.488
5		0.00		-8.40		6.818e-02		-46.260		1.660e-02		16.286
5		0.00		-8.00		6.897e-02		-43.376		1.630e-02		14.682
5		0.00		-7.60		6.549e-02		-45.933		1.391e-02		15.655
5		0.00		-7.20		6.539e-02		-44.123		1.594e-02		9.337
5		0.00		-6.80		6.459e-02		-46.829		1.609e-02		11.529
5		0.00		-6.40		6.417e-02		-48.510		1.413e-02		9.857
5		0.00		-6.00		6.034e-02		-48.695		1.067e-02		8.448
5		0.00		-5.60		5.604e-02		-49.701		1.118e-02		13.144
5		0.00		-5.20		5.331e-02		-50.024		1.190e-02		12.957
5		0.00		-4.80		4.963e-02		-49.359		1.145e-02		9.603
5		0.00		-4.40		4.772e-02		-50.583		8.002e-03		7.268
5		0.00		-4.00		4.295e-02		-52.213		6.727e-03		7.241
5		0.00		-3.60		3.894e-02		-50.235		6.916e-03		6.640
5		0.00		-3.20		3.405e-02		-49.709		7.770e-03		9.733
5		0.00		-2.80		3.057e-02		-49.483		6.213e-03		8.887
5		0.00		-2.40		2.639e-02		-47.799		3.907e-03		8.218
5		0.00		-2.00		2.249e-02		-46.611		3.198e-03		8.676
5		0.00		-1.60		1.792e-02		-46.662		2.920e-03		11.409
5		0.00		-1.20		1.278e-02		-41.139		2.473e-03		11.674
5		0.00		-0.80		8.331e-03		-34.556		1.710e-03		17.902
5		0.00		-0.40		4.449e-03		-38.617		1.409e-03		20.333
6		0.00		0.00		1.865e-03		26.394		7.311e-04		62.211
6		0.00		0.40		5.246e-03		115.107		1.626e-03		26.083
6		0.00		0.80		9.383e-03		122.825		2.198e-03		14.058
6		0.00		1.20		1.386e-02		125.915		3.053e-03		9.600
6		0.00		1.60		1.824e-02		126.226		3.145e-03		8.448
6		0.00		2.00		2.269e-02		128.489		4.270e-03		9.358
6		0.00		2.40		2.563e-02		129.565		4.863e-03		11.001
6		0.00		2.80		2.873e-02		130.611		6.244e-03		11.526
6		0.00		3.20		3.280e-02		129.472		6.290e-03		7.585
6		0.00		3.60		3.661e-02		129.586		6.402e-03		8.818
6		0.00		4.00		3.873e-02		131.703		7.060e-03		7.439
6		0.00		4.40		4.125e-02		130.502		9.618e-03		11.814
6		0.00		4.80		4.376e-02		131.663		1.072e-02		10.145
6		0.00		5.20		4.666e-02		130.887		1.012e-02		8.629
6		0.00		5.60		4.892e-02		130.943		1.023e-02		8.127
6		0.00		6.00		4.949e-02		128.710		1.368e-02		18.264
6		0.00		6.40		5.136e-02		127.950		1.390e-02		20.539
6		0.00		6.80		5.396e-02		131.821		1.447e-02		9.845
6		0.00		7.20		5.746e-02		132.627		1.234e-02		8.068
6		0.00		7.60		5.582e-02		132.824		1.288e-02		11.723
6		0.00		8.00		5.783e-02		130.320		1.680e-02		17.667
6		0.00		8.40		6.030e-02		129.339		1.826e-02		20.509
6		0.00		8.80		6.329e-02		131.581		1.628e-02		11.120
6		0.00		9.20		6.361e-02		131.755		1.620e-02		14.292
6		0.00		9.60		6.272e-02		130.582		1.725e-02		15.891
6		0.00		10.00		6.197e-02		132.726		1.731e-02		12.130
6		0.00		9.60		6.224e-02		130.855		1.622e-02		13.648
6		0.00		9.20		6.250e-02		132.904		1.387e-02		9.367
6		0.00		8.80		5.952e-02		132.604		1.227e-02		10.506
6		0.00		8.40		5.619e-02		131.026		1.406e-02		16.903
6		0.00		8.00		5.673e-02		131.120		1.432e-02		18.257
6		0.00		7.60		5.423e-02		132.539		1.267e-02		8.527
6		0.00		7.20		5.049e-02		132.805		9.556e-03		9.046
6		0.00		6.80		4.710e-02		132.428		9.715e-03		9.719
6		0.00		6.40		4.434e-02		131.218		1.046e-02		14.361
6		0.00		6.00		4.076e-02		131.804		9.931e-03		11.792
6		0.00		5.60		3.768e-02		131.623		7.831e-03		10.086
6		0.00		5.20		3.444e-02		132.385		6.282e-03		8.892
6		0.00		4.80		3.082e-02		132.762		6.486e-03		11.006
6		0.00		4.40		2.659e-02		130.490		6.589e-03		16.977
6		0.00		4.00		2.344e-02		131.262		5.344e-03		10.422
6		0.00		3.60		2.041e-02		133.148		3.342e-03		9.736
6		0.00		3.20		1.666e-02		132.778		2.896e-03		10.106
6		0.00		2.80		1.219e-02		134.667		2.608e-03		16.620
6		0.00		2.40		7.684e-03		126.405		1.800e-03		15.896
6		0.00		2.00		3.908e-03		115.817		1.248e-03		38.137
6		0.00		1.60		1.682e-03		-9.538		6.219e-04		74.709
6		0.00		1.20		4.750e-03		-54.138		1.429e-03		22.009
6		0.00		0.80		8.927e-03		-50.734		2.362e-03		13.513
6		0.00		0.40		1.349e-02		-48.960		3.133e-03		10.533
6		0.00		0.00		1.784e-02		-49.816		3.023e-03		10.781
6		0.00		-0.40		2.193e-02		-49.162		4.143e-03		9.638
6		0.00		-0.80		2.584e-02		-50.006		5.477e-03		10.293
6		0.00		-1.20		2.954e-02		-49.824		6.272e-03		8.776
6		0.00		-1.60		3.383e-02		-50.022		5.940e-03		9.030
6		0.00		-2.00		3.793e-02		-52.211		6.816e-03		8.933
6		0.00		-2.40		4.094e-02		-50.822		8.729e-03		11.508
6		0.00		-2.80		4.418e-02		-51.493		1.013e-02		8.821
6		0.00		-3.20		4.893e-02		-51.727		8.836e-03		6.977
6		0.00		-3.60		5.088e-02		-52.554		1.048e-02		9.167
6		0.00		-4.00		5.231e-02		-52.926		1.369e-02		12.292
6		0.00		-4.40		5.564e-02		-51.861		1.542e-02		8.869
6		0.00		-4.80		5.989e-02		-52.465		1.373e-02		12.238
6		0.00		-5.20		5.855e-02		-49.969		1.389e-02		13.488
6		0.00		-5.60		6.092e-02		-50.054		1.650e-02		14.712
6		0.00		-6.00		6.352e-02		-45.957		1.819e-02		16.758
6		0.00		-6.40		6.558e-02		-49.643		1.618e-02		16.055
6		0.00		-6.80		6.615e-02		-41.045		1.421e-02		12.116
6		0.00		-7.20		6.767e-02		-45.646		2.025e-02		14.215
6		0.00		-7.60		7.017e-02		-45.634		1.868e-02		14.438
6		0.00		-8.00		7.104e-02		-43.055		1.694e-02		15.081
6		0.00		-8.40		6.793e-02		-39.358		1.664e-02		16.113
6		0.00		-8.80		6.949e-02		-39.403		1.988e-02		17.508
6		0.00		-9.20		6.570e-02		-42.019		1.893e-02		21.165
6		0.00		-9.60		6.342e-02		-42.810		1.721e-02		10.845
6		0.00		-10.00		5.755e-02		-43.078		1.280e-02		7.825
6		0.00		-9.60		6.159e-02		-43.287		1.620e-02		13.061
6		0.00		-9.20		6.480e-02		-43.288		1.717e-02		15.879
6		0.00		-8.80		6.503e-02		-41.573		1.705e-02		15.246
6		0.00		-8.40		7.138e-02		-42.654		1.594e-02		9.981
6		0.00		-8.00		6.646e-02		-49.801		1.778e-02		19.446
6		0.00		-7.60		6.742e-02		-47.016		1.788e-02		14.186
6		0.00		-7.20		6.284e-02		-43.901		1.831e-02		23.005
6		0.00		-6.80		6.439e-02		-47.270		1.629e-02		7.933
6		0.00		-6.40		6.127e-02		-48.766		1.258e-02		11.749
6		0.00		-6.00		5.666e-02		-49.184		1.174e-02		11.294
6		0.00		-5.60		5.341e-02		-50.461		1.347e-02		14.455
6		0.00		-5.20		5.193e-02		-50.719		1.398e-02		9.956
6		0.00		-4.80		4.910e-02		-51.385		1.048e-02		9.451
6		0.00		-4.40		4.480e-02		-52.278		8.076e-03		8.894
6		0.00		-4.00		4.028e-02		-50.158		8.268e-03		9.211
6		0.00		-3.60		3.642e-02		-49.152		8.385e-03		11.943
6		0.00		-3.20		3.352e-02		-50.241		6.498e-03		8.728
6		0.00		-2.80		2.974e-02		-49.613		4.485e-03		7.775
6		0.00		-2.40		2.566e-02		-48.503		4.285e-03		8.493
6		0.00		-2.00		2.145e-02		-48.466		4.170e-03		9.916
6		0.00		-1.60		1.668e-02		-45.101		3.466e-03		10.795
6		0.00		-1.20		1.321e-02		-45.860		2.350e-03		10.553
6		0.00		-0.80		8.113e-03		-37.463		1.431e-03		13.972
6		0.00		-0.40		3.786e-03		-24.602		1.360e-03		28.531
7		0.00		0.00		2.099e-03		44.826		9.399e-04		61.888
7		0.00		0.40		5.448e-03		112.145		1.410e-03		20.602
7		0.00		0.80		9.833e-03		123.998		1.831e-03		13.459
7		0.00		1.20		1.391e-02		129.027		2.810e-03		9.742
7		0.00		1.60		1.737e-02		128.645		4.081e-03		16.164
7		0.00		2.00		2.115e-02		128.754		5.182e-03		10.943
7		0.00		2.40		2.540e-02		127.857		5.108e-03		8.399
7		0.00		2.80		2.871e-02		129.382		5.546e-03		8.999
7		0.00		3.20		3.153e-02		130.348		7.185e-03		12.725
7		0.00		3.60		3.373e-02		129.098		8.896e-03		14.443
7		0.00		4.00		3.748e-02		130.200		8.763e-03		9.269
7		0.00		4.40		4.009e-02		129.633		8.174e-03		9.253
7		0.00		4.80		4.220e-02		131.246		9.143e-03		10.579
7		0.00		5.20		4.419e-02		128.806		1.135e-02		15.022
7		0.00		5.60		4.705e-02		131.481		1.145e-02		8.656
7		0.00		6.00		5.105e-02		132.340		9.667e-03		7.113
7		0.00		6.40		5.231e-02		132.698		9.770e-03		8.043
7		0.00		6.80		5.317e-02		129.692		1.329e-02		16.676
7		0.00		7.20		5.635e-02		128.343		1.463e-02		21.895
7		0.00		7.60		6.047e-02		132.147		1.393e-02		9.767
7		0.00		8.00		6.051e-02		134.469		1.237e-02		10.706
7		0.00		8.40		6.127e-02		131.641		1.500e-02		15.639
7		0.00		8.80		6.356e-02		131.051		1.700e-02		17.682
7		0.00		9.20		6.379e-02		131.147		1.687e-02		16.479
7		0.00		9.60		6.474e-02		131.449		1.493e-02		11.381
7		0.00		10.00		5.980e-02		132.532		1.572e-02		16.487
7		0.00		9.60		6.008e-02		130.344		1.803e-02		17.695
7		0.00		9.20		6.161e-02		127.130		1.825e-02		22.400
7		0.00		8.80		6.224e-02		131.928		1.485e-02		8.073
7		0.00		8.40		5.781e-02		134.408		1.180e-02		8.141
7		0.00		8.00		5.323e-02		131.468		1.340e-02		13.959
7		0.00		7.60		5.165e-02		130.312		1.432e-02		18.970
7		0.00		7.20		4.975e-02		131.364		1.330e-02		9.710
7		0.00		6.80		4.754e-02		132.237		9.865e-03		8.634
7		0.00		6.40		4.331e-02		132.227		8.782e-03		9.748
7		0.00		6.00		4.044e-02		131.404		9.532e-03		12.423
7		0.00		5.60		3.785e-02		130.354		9.462e-03		15.703
7		0.00		5.20		3.423e-02		132.723		7.554e-03		9.119
7		0.00		4.80		3.191e-02		132.649		5.634e-03		8.905
7		0.00		4.40		2.823e-02		133.618		5.375e-03		10.231
7		0.00		4.00		2.400e-02		132.768		5.227e-03		13.504
7		0.00		3.60		1.972e-02		130.938		4.468e-03		14.844
7		0.00		3.20		1.654e-02		131.931		3.261e-03		9.664
7		0.00		2.80		1.248e-02		132.029		1.943e-03		12.069
7		0.00		2.40		8.558e-03		132.532		1.625e-03		13.620
7		0.00		2.00		4.278e-03		107.490		1.303e-03		41.417
7		0.00		1.60		1.995e-03		-11.205		9.188e-04		69.833
7		0.00		1.20		4.933e-03		-49.851		1.610e-03		22.190
7		0.00		0.80		9.148e-03		-45.093		1.937e-03		12.604
7		0.00		0.40		1.328e-02		-50.071		2.925e-03		11.577
7		0.00		0.00		1.719e-02		-49.923		4.247e-03		11.664
7		0.00		-0.40		2.115e-02		-49.786		5.398e-03		9.768
7		0.00		-0.80		2.570e-02		-51.287		5.582e-03		9.464
7		0.00		-1.20		2.980e-02		-52.735		5.702e-03		10.185
7		0.00		-1.60		3.364e-02		-51.340		6.924e-03		9.186
7		0.00		-2.00		3.632e-02		-51.688		8.698e-03		12.086
7		0.00		-2.40		4.003e-02		-51.000		1.021e-02		11.354
7		0.00		-2.80		4.304e-02		-52.559		9.795e-03		9.442
7		0.00		-3.20		4.820e-02		-51.669		8.386e-03		8.375
7		0.00		-3.60		5.052e-02		-52.144		9.510e-03		9.490
7		0.00		-4.00		5.348e-02		-52.500		1.167e-02		13.495
7		0.00		-4.40		5.665e-02		-52.133		1.371e-02		13.804
7		0.00		-4.80		5.960e-02		-50.606		1.424e-02		11.125
7		0.00		-5.20		6.231e-02		-51.013		1.272e-02		13.214
7		0.00		-5.60		6.199e-02		-50.573		1.397e-02		15.440
7		0.00		-6.00		6.543e-02		-48.131		1.457e-02		10.211
7		0.00		-6.40		6.646e-02		-45.501		1.771e-02		17.926
7		0.00		-6.80		6.715e-02		-44.389		1.713e-02		12.514
7		0.00		-7.20		6.855e-02		-44.423		1.553e-02		16.291
7		0.00		-7.60		6.983e-02		-43.277		1.695e-02		13.991
7		0.00		-8.00		7.116e-02		-43.525		1.989e-02		14.801
7		0.00		-8.40		6.776e-02		-45.367		1.933e-02		23.941
7		0.00		-8.80		6.510e-02		-43.186		1.966e-02		20.958
7		0.00		-9.20		6.477e-02		-45.332		1.792e-02		14.143
7		0.00		-9.60		6.175e-02		-43.458		1.706e-02		13.410
7		0.00		-10.00		5.481e-02		-46.262		1.589e-02		14.885
7		0.00		-9.60		5.918e-02		-44.563		1.841e-02		14.490
7		0.00		-9.20		6.171e-02		-38.829		1.984e-02		27.929
7		0.00		-8.80		6.615e-02		-44.972		2.001e-02		16.803
7		0.00		-8.40		6.989e-02		-44.579		1.557e-02		12.271
7		0.00		-8.00		6.854e-02		-45.360		1.518e-02		14.895
7		0.00		-7.60		7.067e-02		-50.331		1.811e-02		14.300
7		0.00		-7.20		6.289e-02		-44.911		1.642e-02		12.932
7		0.00		-6.80		6.441e-02		-48.190		1.617e-02		15.671
7		0.00		-6.40		6.293e-02		-46.334		1.443e-02		8.875
7		0.00		-6.00		6.327e-02		-48.585		1.165e-02		5.554
7		0.00		-5.60		5.592e-02		-49.050		1.040e-02		10.446
7		0.00		-5.20		5.188e-02		-49.167		1.037e-02		10.755
7		0.00		-4.80		4.940e-02		-49.703		1.080e-02		10.960
7		0.00		-4.40		4.547e-02		-51.740		1.059e-02		11.827
7		0.00		-4.00		4.221e-02		-50.840		8.613e-03		8.088
7		0.00		-3.60		3.843e-02		-50.263		6.598e-03		7.652
7		0.00		-3.20		3.424e-02		-51.662		6.489e-03		9.305
7		0.00		-2.80		2.919e-02		-50.066		5.689e-03		9.364
7		0.00		-2.40		2.483e-02		-50.946		5.793e-03		11.930
7		0.00		-2.00		2.038e-02		-47.442		4.923e-03		12.011
7		0.00		-1.60		1.720e-02		-47.557		3.505e-03		10.833
7		0.00		-1.20		1.313e-02		-45.410		2.181e-03		11.695
7		0.00		-0.80		8.683e-03		-44.397		1.651e-03		13.669
7		0.00		-0.40		4.503e-03		-37.690		1.329e-03		22.747
8		0.00		0.00		1.900e-03		23.069		7.911e-04		66.306
8		0.00		0.40		4.426e-03		122.034		1.483e-03		36.996
8		0.00		0.80		8.561e-03		121.745		1.970e-03		10.968
8		0.00		1.20		1.328e-02		124.942		2.435e-03		10.740
8		0.00		1.60		1.717e-02		127.774		3.195e-03		7.928
8		0.00		2.00		2.106e-02		129.014		3.894e-03		10.150
8		0.00		2.40		2.492e-02		128.963		4.796e-03		11.020
8		0.00		2.80		2.808e-02		130.533		6.481e-03		13.655
8		0.00		3.20		3.137e-02		130.495		7.387e-03		8.774
8		0.00		3.60		3.468e-02		129.955		7.076e-03		10.129
8		0.00		4.00		3.786e-02		130.650		6.718e-03		9.420
8		0.00		4.40		4.118e-02		130.844		7.529e-03		8.891
8		0.00		4.80		4.297e-02		131.725		8.829e-03		11.418
8		0.00		5.20		4.474e-02		130.605		1.105e-02		13.910
8		0.00		5.60		4.691e-02		129.614		1.234e-02		11.166
8		0.00		6.00		4.954e-02		131.074		1.214e-02		8.586
8		0.00		6.40		5.270e-02		131.205		1.160e-02		9.277
8		0.00		6.80		5.459e-02		131.858		1.107e-02		9.569
8		0.00		7.20		5.391e-02		130.588		1.242e-02		13.625
8		0.00		7.60		5.526e-02		128.643		1.545e-02		21.774
8		0.00		8.00		5.884e-02		129.999		1.712e-02		22.563
8		0.00		8.40		5.982e-02		124.750		1.828e-02		37.626
8		0.00		8.80		6.420e-02		132.573		1.487e-02		8.720
8		0.00		9.20		6.545e-02		133.040		1.242e-02		8.549
8		0.00		9.60		6.373e-02		131.634		1.520e-02		13.061
8		0.00		10.00		6.107e-02		130.938		1.640e-02		18.570
8		0.00		9.60		6.142e-02		129.552		1.665e-02		21.250
8		0.00		9.20		6.136e-02		131.481		1.653e-02		15.932
8		0.00		8.80		6.227e-02		129.569		1.642e-02		18.559
8		0.00		8.40		5.942e-02		132.569		1.577e-02		15.053
8		0.00		8.00		5.724e-02		132.482		1.355e-02		8.215
8		0.00		7.60		5.459e-02		132.147		1.149e-02		12.354
8		0.00		7.20		5.149e-02		133.408		9.686e-03		7.177
8		0.00		6.80		4.801e-02		133.049		9.671e-03		9.079
8		0.00		6.40		4.405e-02		132.052		9.926e-03		10.392
8		0.00		6.00		4.097e-02		131.252		1.017e-02		14.148
8		0.00		5.60		3.724e-02		130.261		9.807e-03		17.369
8		0.00		5.20		3.471e-02		130.801		8.973e-03		15.739
8		0.00		4.80		3.136e-02		132.114		7.942e-03		12.213
8		0.00		4.40		2.774e-02		132.091		6.483e-03		8.600
8		0.00		4.00		2.417e-02		132.561		4.737e-03		9.895
8		0.00		3.60		2.053e-02		132.231		3.965e-03		9.859
8		0.00		3.20		1.732e-02		131.792		3.057e-03		10.836
8		0.00		2.80		1.321e-02		132.275		2.346e-03		9.322
8		0.00		2.40		8.748e-03		133.513		1.845e-03		14.457
8		0.00		2.00		4.519e-03		118.369		1.413e-03		31.352
8		0.00		1.60		1.895e-03		-2.799		7.468e-04		72.027
8		0.00		1.20		4.631e-03		-49.390		1.414e-03		21.655
8		0.00		0.80		8.704e-03		-48.040		1.946e-03		16.382
8		0.00		0.40		1.323e-02		-47.071		2.673e-03		9.966
8		0.00		0.00		1.724e-02		-50.213		2.965e-03		8.989
8		0.00		-0.40		2.177e-02		-48.713		3.152e-03		8.850
8		0.00		-0.80		2.613e-02		-49.123		4.094e-03		7.958
8		0.00		-1.20		3.000e-02		-49.732		5.219e-03		9.112
8		0.00		-1.60		3.403e-02		-51.485		6.538e-03		9.157
8		0.00		-2.00		3.701e-02		-50.886		7.873e-03		10.648
8		0.00		-2.40		4.071e-02		-51.536		8.943e-03		9.011
8		0.00		-2.80		4.452e-02		-51.271		9.951e-03		8.838
8		0.00		-3.20		4.887e-02		-51.862		9.709e-03		7.919
8		0.00		-3.60		5.277e-02		-51.941		8.799e-03		7.844
8		0.00		-4.00		5.541e-02		-53.071		1.004e-02		8.748
8		0.00		-4.40		5.845e-02		-51.962		1.011e-02		8.768
8		0.00		-4.80		5.865e-02		-51.838		1.309e-02		13.926
8		0.00		-5.20		5.999e-02		-49.402		1.487e-02		9.244
8		0.00		-5.60		6.266e-02		-45.978		1.570e-02		10.263
8		0.00		-6.00		6.503e-02		-46.216		1.680e-02		11.403
8		0.00		-6.40		6.809e-02		-44.344		1.710e-02		14.019
8		0.00		-6.80		6.785e-02		-43.909		1.423e-02		12.201
8		0.00		-7.20		7.165e-02		-41.828		1.528e-02		14.771
8		0.00		-7.60		6.966e-02		-36.809		1.518e-02		13.034
8		0.00		-8.00		7.278e-02		-42.731		2.030e-02		18.275
8		0.00		-8.40		6.872e-02		-39.837		1.882e-02		18.964
8		0.00		-8.80		6.668e-02		-37.178		1.979e-02		21.668
8		0.00		-9.20		6.502e-02		-34.617		1.882e-02		19.064
8		0.00		-9.60		6.087e-02		-42.340		1.804e-02		16.055
8		0.00		-10.00		5.848e-02		-43.563		1.627e-02		8.212
8		0.00		-9.60		6.087e-02		-42.224		1.647e-02		15.307
8		0.00		-9.20		6.224e-02		-46.501		1.847e-02		19.378
8		0.00		-8.80		6.763e-02		-43.271		1.806e-02		15.480
8		0.00		-8.40		6.867e-02		-42.127		2.016e-02		15.234
8		0.00		-8.00		6.350e-02		-41.920		1.894e-02		16.672
8		0.00		-7.60		6.382e-02		-44.453		1.767e-02		18.143
8		0.00		-7.20		6.416e-02		-43.689		1.744e-02		15.375
8		0.00		-6.80		6.492e-02		-46.104		1.544e-02		7.866
8		0.00		-6.40		6.417e-02		-48.317		1.255e-02		9.329
8		0.00		-6.00		6.162e-02		-49.738		1.118e-02		11.409
8		0.00		-5.60		5.575e-02		-49.752		9.850e-03		9.654
8		0.00		-5.20		5.328e-02		-48.753		8.971e-03		6.428
8		0.00		-4.80		5.008e-02		-50.097		9.925e-03		9.933
8		0.00		-4.40		4.680e-02		-49.589		9.814e-03		9.906
8		0.00		-4.00		4.227e-02		-50.784		9.249e-03		9.958
8		0.00		-3.60		3.820e-02		-51.174		7.676e-03		8.900
8		0.00		-3.20		3.511e-02		-49.610		6.146e-03		7.797
8		0.00		-2.80		3.129e-02		-51.377		4.710e-03		7.676
8		0.00		-2.40		2.687e-02		-48.524		4.189e-03		9.434
8		0.00		-2.00		2.266e-02		-46.225		3.428e-03		8.328
8		0.00		-1.60		1.745e-02		-47.246		3.267e-03		9.931
8		0.00		-1.20		1.325e-02		-45.012		2.912e-03		8.916
8		0.00		-0.80		8.549e-03		-38.161		2.090e-03		13.797
8		0.00		-0.40		4.594e-03		-34.873		1.318e-03		21.859
