# Date of analysis: 2023-11-20 16;15
# 
# Loop index	Read Volt (V)	Write Volt (V)	Amplitude (a.u)	Phase (deg)	Sigma Amp (a.u)	Sigma Pha (deg)	
1		0.00		0.00		4.033e-02		-52.049		7.551e-03		6.794
1		0.00		0.40		3.075e-02		-52.503		5.822e-03		7.700
1		0.00		0.80		2.305e-02		-53.517		4.378e-03		10.335
1		0.00		1.20		1.587e-02		-56.520		3.247e-03		9.036
1		0.00		1.60		8.702e-03		-60.629		2.249e-03		12.083
1		0.00		2.00		2.496e-03		-37.856		1.095e-03		59.749
1		0.00		2.40		4.718e-03		127.075		1.674e-03		30.467
1		0.00		2.80		1.057e-02		133.536		2.921e-03		13.710
1		0.00		3.20		1.633e-02		130.672		4.700e-03		13.028
1		0.00		3.60		2.183e-02		129.776		6.504e-03		12.748
1		0.00		4.00		2.698e-02		128.528		8.416e-03		14.762
1		0.00		4.40		3.264e-02		127.969		1.036e-02		15.811
1		0.00		4.80		3.599e-02		126.351		1.183e-02		18.671
1		0.00		5.20		4.076e-02		127.161		1.327e-02		19.264
1		0.00		5.60		4.467e-02		126.169		1.468e-02		21.062
1		0.00		6.00		4.692e-02		125.530		1.538e-02		19.094
1		0.00		6.40		5.154e-02		125.345		1.616e-02		22.145
1		0.00		6.80		5.382e-02		124.715		1.687e-02		24.260
1		0.00		7.20		5.627e-02		125.684		1.782e-02		21.484
1		0.00		7.60		5.775e-02		125.665		1.816e-02		22.075
1		0.00		8.00		5.899e-02		126.278		1.876e-02		27.899
1		0.00		8.40		5.637e-02		133.559		1.725e-02		10.922
1		0.00		8.80		5.659e-02		129.271		1.854e-02		17.635
1		0.00		9.20		5.597e-02		132.204		1.697e-02		9.510
1		0.00		9.60		5.472e-02		131.837		1.707e-02		11.289
1		0.00		10.00		5.327e-02		131.824		1.769e-02		9.419
1		0.00		9.60		5.345e-02		129.031		1.779e-02		19.571
1		0.00		9.20		5.202e-02		133.331		1.696e-02		11.107
1		0.00		8.80		5.107e-02		131.830		1.618e-02		10.501
1		0.00		8.40		5.044e-02		133.246		1.591e-02		7.513
1		0.00		8.00		4.818e-02		132.962		1.426e-02		7.608
1		0.00		7.60		4.648e-02		132.624		1.348e-02		6.663
1		0.00		7.20		4.533e-02		131.462		1.312e-02		6.970
1		0.00		6.80		4.216e-02		131.229		1.190e-02		8.570
1		0.00		6.40		3.869e-02		130.921		1.088e-02		8.699
1		0.00		6.00		3.592e-02		130.975		9.578e-03		8.854
1		0.00		5.60		3.149e-02		131.659		8.283e-03		8.465
1		0.00		5.20		2.810e-02		132.886		7.276e-03		9.582
1		0.00		4.80		2.401e-02		132.298		6.381e-03		10.483
1		0.00		4.40		1.979e-02		134.359		5.272e-03		9.321
1		0.00		4.00		1.544e-02		134.025		4.254e-03		11.674
1		0.00		3.60		1.028e-02		128.565		3.428e-03		25.398
1		0.00		3.20		5.097e-03		120.638		2.329e-03		47.853
1		0.00		2.80		2.529e-03		22.010		1.078e-03		75.505
1		0.00		2.40		5.580e-03		-66.184		2.378e-03		25.715
1		0.00		2.00		1.038e-02		-55.136		3.442e-03		14.734
1		0.00		1.60		1.601e-02		-54.199		5.119e-03		12.052
1		0.00		1.20		2.165e-02		-50.945		6.102e-03		10.172
1		0.00		0.80		2.671e-02		-51.198		7.914e-03		10.206
1		0.00		0.40		3.202e-02		-50.621		9.182e-03		8.083
1		0.00		0.00		3.740e-02		-51.374		1.101e-02		10.160
1		0.00		-0.40		4.073e-02		-50.405		1.232e-02		9.760
1		0.00		-0.80		4.310e-02		-50.927		1.294e-02		10.599
1		0.00		-1.20		4.454e-02		-50.418		1.385e-02		9.929
1		0.00		-1.60		4.800e-02		-51.940		1.472e-02		12.739
1		0.00		-2.00		4.990e-02		-54.165		1.458e-02		15.484
1		0.00		-2.40		5.162e-02		-53.115		1.506e-02		14.884
1		0.00		-2.80		5.411e-02		-53.978		1.559e-02		15.889
1		0.00		-3.20		5.584e-02		-54.888		1.666e-02		17.685
1		0.00		-3.60		5.665e-02		-52.762		1.670e-02		15.628
1		0.00		-4.00		5.726e-02		-53.412		1.679e-02		17.591
1		0.00		-4.40		5.942e-02		-50.021		1.802e-02		16.862
1		0.00		-4.80		5.935e-02		-45.971		1.810e-02		17.419
1		0.00		-5.20		6.048e-02		-47.567		1.869e-02		15.932
1		0.00		-5.60		6.030e-02		-44.517		2.013e-02		20.660
1		0.00		-6.00		6.003e-02		-45.652		2.108e-02		20.584
1		0.00		-6.40		6.079e-02		-41.746		2.162e-02		24.287
1		0.00		-6.80		6.020e-02		-42.881		2.277e-02		26.969
1		0.00		-7.20		6.113e-02		-41.786		2.332e-02		29.737
1		0.00		-7.60		6.116e-02		-41.956		2.265e-02		28.795
1		0.00		-8.00		6.297e-02		-43.447		2.283e-02		29.335
1		0.00		-8.40		6.175e-02		-42.592		2.334e-02		23.507
1		0.00		-8.80		6.013e-02		-38.159		2.293e-02		29.584
1		0.00		-9.20		5.662e-02		-38.790		2.099e-02		29.111
1		0.00		-9.60		5.493e-02		-46.928		1.944e-02		15.617
1		0.00		-10.00		4.867e-02		-45.029		1.632e-02		15.198
1		0.00		-9.60		5.428e-02		-42.329		1.826e-02		20.002
1		0.00		-9.20		5.846e-02		-38.325		1.988e-02		22.816
1		0.00		-8.80		6.111e-02		-41.280		2.042e-02		17.756
1		0.00		-8.40		6.107e-02		-42.577		2.019e-02		21.330
1		0.00		-8.00		6.071e-02		-45.214		1.918e-02		14.617
1		0.00		-7.60		6.140e-02		-46.047		1.923e-02		13.763
1		0.00		-7.20		6.025e-02		-43.806		1.915e-02		15.737
1		0.00		-6.80		5.662e-02		-50.159		1.767e-02		17.313
1		0.00		-6.40		5.514e-02		-47.693		1.662e-02		11.813
1		0.00		-6.00		5.334e-02		-49.619		1.594e-02		11.156
1		0.00		-5.60		5.094e-02		-49.394		1.506e-02		9.906
1		0.00		-5.20		4.883e-02		-50.272		1.368e-02		8.441
1		0.00		-4.80		4.616e-02		-49.340		1.274e-02		7.164
1		0.00		-4.40		4.294e-02		-52.253		1.153e-02		9.555
1		0.00		-4.00		4.024e-02		-51.456		1.030e-02		8.517
1		0.00		-3.60		3.636e-02		-50.926		8.786e-03		7.998
1		0.00		-3.20		3.262e-02		-50.588		7.648e-03		8.693
1		0.00		-2.80		2.893e-02		-50.880		6.604e-03		9.877
1		0.00		-2.40		2.484e-02		-49.380		5.677e-03		7.892
1		0.00		-2.00		2.092e-02		-50.008		4.483e-03		8.883
1		0.00		-1.60		1.637e-02		-47.621		3.419e-03		10.699
1		0.00		-1.20		1.223e-02		-51.396		2.701e-03		11.308
1		0.00		-0.80		7.363e-03		-47.104		2.035e-03		15.200
1		0.00		-0.40		2.801e-03		-55.422		1.127e-03		47.725
2		0.00		0.00		3.057e-03		88.873		1.404e-03		75.507
2		0.00		0.40		7.754e-03		129.343		2.466e-03		15.703
2		0.00		0.80		1.233e-02		131.892		2.848e-03		11.454
2		0.00		1.20		1.694e-02		129.986		4.022e-03		8.439
2		0.00		1.60		2.155e-02		130.741		5.179e-03		8.571
2		0.00		2.00		2.638e-02		131.402		6.516e-03		8.336
2		0.00		2.40		3.082e-02		131.574		7.682e-03		8.133
2		0.00		2.80		3.494e-02		131.649		8.860e-03		8.880
2		0.00		3.20		3.856e-02		131.570		1.008e-02		7.242
2		0.00		3.60		4.209e-02		130.829		1.141e-02		7.681
2		0.00		4.00		4.486e-02		130.627		1.254e-02		7.024
2		0.00		4.40		4.817e-02		130.585		1.387e-02		9.213
2		0.00		4.80		5.156e-02		130.318		1.490e-02		9.168
2		0.00		5.20		5.357e-02		129.543		1.570e-02		10.632
2		0.00		5.60		5.564e-02		128.666		1.636e-02		16.475
2		0.00		6.00		5.732e-02		128.856		1.682e-02		12.630
2		0.00		6.40		5.947e-02		126.959		1.807e-02		17.969
2		0.00		6.80		6.008e-02		131.061		1.866e-02		13.727
2		0.00		7.20		6.205e-02		127.069		1.984e-02		21.393
2		0.00		7.60		6.235e-02		130.165		1.930e-02		16.572
2		0.00		8.00		6.462e-02		125.867		2.151e-02		25.952
2		0.00		8.40		6.204e-02		128.559		2.195e-02		23.928
2		0.00		8.80		6.228e-02		130.073		2.216e-02		22.818
2		0.00		9.20		6.206e-02		128.246		2.287e-02		25.493
2		0.00		9.60		6.074e-02		121.128		2.414e-02		38.567
2		0.00		10.00		5.878e-02		125.296		2.314e-02		36.093
2		0.00		9.60		5.856e-02		127.184		2.206e-02		29.647
2		0.00		9.20		5.995e-02		127.282		2.147e-02		22.185
2		0.00		8.80		6.060e-02		129.156		2.156e-02		16.874
2		0.00		8.40		5.786e-02		130.710		1.974e-02		12.724
2		0.00		8.00		5.483e-02		130.236		1.811e-02		11.305
2		0.00		7.60		5.378e-02		129.488		1.674e-02		15.403
2		0.00		7.20		5.153e-02		131.565		1.535e-02		9.413
2		0.00		6.80		4.826e-02		131.956		1.358e-02		8.941
2		0.00		6.40		4.614e-02		131.787		1.276e-02		8.647
2		0.00		6.00		4.248e-02		132.270		1.127e-02		8.495
2		0.00		5.60		3.872e-02		132.933		9.992e-03		7.911
2		0.00		5.20		3.463e-02		133.903		8.783e-03		7.915
2		0.00		4.80		3.063e-02		134.554		7.579e-03		7.797
2		0.00		4.40		2.585e-02		132.482		6.504e-03		8.723
2		0.00		4.00		2.094e-02		134.301		5.427e-03		9.576
2		0.00		3.60		1.655e-02		135.734		4.603e-03		10.732
2		0.00		3.20		1.180e-02		136.563		3.555e-03		13.747
2		0.00		2.80		7.274e-03		127.198		2.639e-03		43.594
2		0.00		2.40		2.407e-03		24.303		1.001e-03		86.814
2		0.00		2.00		4.406e-03		-78.405		1.966e-03		26.431
2		0.00		1.60		9.552e-03		-58.341		2.757e-03		14.455
2		0.00		1.20		1.477e-02		-53.365		3.358e-03		11.231
2		0.00		0.80		2.052e-02		-50.881		4.689e-03		9.722
2		0.00		0.40		2.594e-02		-51.383		5.749e-03		7.940
2		0.00		0.00		3.085e-02		-50.634		6.684e-03		7.357
2		0.00		-0.40		3.520e-02		-51.906		7.149e-03		6.118
2		0.00		-0.80		3.784e-02		-49.874		7.657e-03		6.021
2		0.00		-1.20		4.149e-02		-51.571		8.963e-03		6.981
2		0.00		-1.60		4.433e-02		-51.178		9.496e-03		7.478
2		0.00		-2.00		4.586e-02		-51.226		1.013e-02		7.337
2		0.00		-2.40		4.775e-02		-51.407		1.073e-02		7.762
2		0.00		-2.80		4.979e-02		-51.318		1.140e-02		7.847
2		0.00		-3.20		5.076e-02		-52.044		1.242e-02		8.137
2		0.00		-3.60		5.307e-02		-52.192		1.303e-02		8.542
2		0.00		-4.00		5.244e-02		-52.414		1.446e-02		9.257
2		0.00		-4.40		5.339e-02		-50.757		1.583e-02		10.507
2		0.00		-4.80		5.342e-02		-51.372		1.667e-02		11.418
2		0.00		-5.20		5.356e-02		-50.793		1.721e-02		14.721
2		0.00		-5.60		5.539e-02		-49.979		1.798e-02		14.360
2		0.00		-6.00		5.651e-02		-49.399		1.890e-02		19.436
2		0.00		-6.40		5.740e-02		-43.369		2.052e-02		27.319
2		0.00		-6.80		5.954e-02		-47.490		2.141e-02		26.645
2		0.00		-7.20		6.059e-02		-40.410		2.212e-02		28.370
2		0.00		-7.60		6.520e-02		-45.317		2.287e-02		23.306
2		0.00		-8.00		6.428e-02		-44.597		2.215e-02		25.344
2		0.00		-8.40		6.532e-02		-45.492		2.117e-02		15.809
2		0.00		-8.80		6.248e-02		-39.602		2.099e-02		22.355
2		0.00		-9.20		6.120e-02		-41.135		1.991e-02		16.383
2		0.00		-9.60		5.629e-02		-41.441		1.915e-02		16.590
2		0.00		-10.00		4.976e-02		-43.074		1.646e-02		14.845
2		0.00		-9.60		5.526e-02		-42.446		1.833e-02		11.207
2		0.00		-9.20		5.901e-02		-41.170		1.798e-02		10.320
2		0.00		-8.80		5.926e-02		-39.113		1.536e-02		8.862
2		0.00		-8.40		6.270e-02		-40.905		1.758e-02		8.638
2		0.00		-8.00		6.028e-02		-40.483		1.543e-02		8.283
2		0.00		-7.60		5.853e-02		-42.614		1.549e-02		8.431
2		0.00		-7.20		5.928e-02		-43.874		1.570e-02		6.765
2		0.00		-6.80		5.780e-02		-46.094		1.667e-02		8.298
2		0.00		-6.40		5.540e-02		-47.181		1.667e-02		10.955
2		0.00		-6.00		5.203e-02		-47.294		1.631e-02		11.326
2		0.00		-5.60		4.888e-02		-48.202		1.538e-02		9.296
2		0.00		-5.20		4.657e-02		-48.903		1.497e-02		10.410
2		0.00		-4.80		4.359e-02		-50.486		1.445e-02		10.857
2		0.00		-4.40		4.110e-02		-53.475		1.319e-02		14.468
2		0.00		-4.00		3.874e-02		-54.594		1.141e-02		13.479
2		0.00		-3.60		3.551e-02		-53.847		1.028e-02		11.890
2		0.00		-3.20		3.289e-02		-51.614		8.736e-03		8.184
2		0.00		-2.80		2.948e-02		-49.261		7.050e-03		7.968
2		0.00		-2.40		2.566e-02		-49.717		5.795e-03		8.220
2		0.00		-2.00		2.173e-02		-50.619		4.600e-03		8.587
2		0.00		-1.60		1.709e-02		-50.088		3.466e-03		9.004
2		0.00		-1.20		1.260e-02		-48.720		2.789e-03		11.485
2		0.00		-0.80		7.827e-03		-49.523		2.017e-03		14.808
2		0.00		-0.40		3.520e-03		-56.647		1.571e-03		34.010
3		0.00		0.00		2.301e-03		64.777		1.073e-03		71.937
3		0.00		0.40		6.514e-03		124.738		2.423e-03		20.542
3		0.00		0.80		1.063e-02		126.501		3.528e-03		17.650
3		0.00		1.20		1.558e-02		128.119		4.872e-03		19.479
3		0.00		1.60		2.001e-02		127.075		5.962e-03		17.402
3		0.00		2.00		2.491e-02		128.581		7.497e-03		14.289
3		0.00		2.40		2.964e-02		129.766		8.549e-03		12.013
3		0.00		2.80		3.390e-02		130.193		9.530e-03		8.881
3		0.00		3.20		3.839e-02		132.077		1.004e-02		6.805
3		0.00		3.60		4.290e-02		133.098		1.022e-02		5.680
3		0.00		4.00		4.641e-02		133.362		1.041e-02		5.483
3		0.00		4.40		4.872e-02		132.112		1.095e-02		5.292
3		0.00		4.80		5.208e-02		133.068		1.193e-02		5.168
3		0.00		5.20		5.397e-02		131.740		1.328e-02		7.232
3		0.00		5.60		5.663e-02		131.308		1.487e-02		9.244
3		0.00		6.00		5.824e-02		132.463		1.549e-02		8.445
3		0.00		6.40		5.847e-02		130.630		1.667e-02		18.859
3		0.00		6.80		5.952e-02		129.099		1.790e-02		25.996
3		0.00		7.20		6.033e-02		132.201		1.816e-02		15.625
3		0.00		7.60		6.147e-02		131.116		2.001e-02		21.261
3		0.00		8.00		6.220e-02		128.131		2.199e-02		25.196
3		0.00		8.40		6.051e-02		128.261		2.145e-02		26.849
3		0.00		8.80		6.217e-02		126.578		2.355e-02		27.936
3		0.00		9.20		6.309e-02		130.434		2.407e-02		21.894
3		0.00		9.60		6.331e-02		136.002		2.418e-02		14.975
3		0.00		10.00		5.967e-02		136.227		2.046e-02		11.352
3		0.00		9.60		6.124e-02		135.791		1.989e-02		11.316
3		0.00		9.20		6.017e-02		135.425		1.819e-02		12.702
3		0.00		8.80		6.256e-02		136.633		1.816e-02		10.012
3		0.00		8.40		5.874e-02		133.551		1.695e-02		10.236
3		0.00		8.00		5.719e-02		132.873		1.657e-02		10.365
3		0.00		7.60		5.518e-02		130.369		1.699e-02		20.966
3		0.00		7.20		5.311e-02		133.544		1.595e-02		9.492
3		0.00		6.80		5.092e-02		129.587		1.564e-02		20.863
3		0.00		6.40		4.736e-02		128.201		1.430e-02		19.288
3		0.00		6.00		4.454e-02		128.291		1.299e-02		18.060
3		0.00		5.60		4.016e-02		128.999		1.147e-02		16.176
3		0.00		5.20		3.643e-02		131.452		9.969e-03		10.431
3		0.00		4.80		3.260e-02		134.905		7.886e-03		8.432
3		0.00		4.40		2.849e-02		135.103		6.726e-03		7.824
3		0.00		4.00		2.362e-02		136.096		5.493e-03		7.646
3		0.00		3.60		1.928e-02		135.494		4.912e-03		8.437
3		0.00		3.20		1.415e-02		136.799		3.794e-03		9.221
3		0.00		2.80		9.437e-03		135.297		2.827e-03		16.966
3		0.00		2.40		4.264e-03		114.402		1.903e-03		53.559
3		0.00		2.00		2.215e-03		-19.493		9.869e-04		73.315
3		0.00		1.60		5.918e-03		-64.099		2.407e-03		18.012
3		0.00		1.20		1.113e-02		-53.085		3.616e-03		14.170
3		0.00		0.80		1.615e-02		-51.864		4.551e-03		11.328
3		0.00		0.40		2.172e-02		-51.737		5.864e-03		8.823
3		0.00		0.00		2.751e-02		-50.641		6.026e-03		8.152
3		0.00		-0.40		3.226e-02		-50.903		6.374e-03		6.705
3		0.00		-0.80		3.630e-02		-50.112		6.877e-03		6.147
3		0.00		-1.20		3.996e-02		-49.878		7.620e-03		5.969
3		0.00		-1.60		4.210e-02		-50.573		8.886e-03		7.273
3		0.00		-2.00		4.460e-02		-50.536		1.025e-02		7.033
3		0.00		-2.40		4.640e-02		-49.923		1.180e-02		7.117
3		0.00		-2.80		4.810e-02		-51.032		1.322e-02		11.114
3		0.00		-3.20		5.061e-02		-52.943		1.348e-02		14.559
3		0.00		-3.60		5.158e-02		-54.278		1.417e-02		14.730
3		0.00		-4.00		5.420e-02		-53.042		1.477e-02		7.950
3		0.00		-4.40		5.645e-02		-50.346		1.381e-02		5.110
3		0.00		-4.80		5.810e-02		-49.334		1.336e-02		5.762
3		0.00		-5.20		5.838e-02		-48.864		1.390e-02		8.762
3		0.00		-5.60		5.904e-02		-46.539		1.428e-02		6.896
3		0.00		-6.00		5.988e-02		-47.742		1.747e-02		12.476
3		0.00		-6.40		5.758e-02		-48.258		1.871e-02		15.797
3		0.00		-6.80		5.832e-02		-43.290		1.982e-02		15.063
3		0.00		-7.20		6.079e-02		-42.727		2.069e-02		24.432
3		0.00		-7.60		6.310e-02		-41.387		1.998e-02		20.089
3		0.00		-8.00		6.707e-02		-43.813		1.932e-02		9.115
3		0.00		-8.40		6.578e-02		-41.691		1.670e-02		10.107
3		0.00		-8.80		6.217e-02		-38.513		1.483e-02		8.579
3		0.00		-9.20		5.894e-02		-40.415		1.546e-02		8.113
3		0.00		-9.60		5.549e-02		-43.883		1.707e-02		8.150
3		0.00		-10.00		4.873e-02		-41.066		1.541e-02		7.750
3		0.00		-9.60		5.644e-02		-43.749		1.846e-02		15.288
3		0.00		-9.20		6.027e-02		-40.930		1.942e-02		15.842
3		0.00		-8.80		6.233e-02		-41.678		1.800e-02		12.719
3		0.00		-8.40		6.476e-02		-42.274		1.590e-02		9.216
3		0.00		-8.00		6.238e-02		-40.741		1.340e-02		7.478
3		0.00		-7.60		6.283e-02		-43.722		1.622e-02		8.159
3		0.00		-7.20		5.874e-02		-44.297		1.734e-02		13.231
3		0.00		-6.80		5.725e-02		-45.513		1.825e-02		14.582
3		0.00		-6.40		5.582e-02		-50.251		1.751e-02		21.335
3		0.00		-6.00		5.436e-02		-48.603		1.675e-02		18.211
3		0.00		-5.60		5.344e-02		-48.938		1.448e-02		8.137
3		0.00		-5.20		5.120e-02		-48.063		1.092e-02		5.469
3		0.00		-4.80		4.714e-02		-49.673		9.901e-03		7.074
3		0.00		-4.40		4.340e-02		-49.821		9.863e-03		7.560
3		0.00		-4.00		3.936e-02		-50.415		1.037e-02		7.332
3		0.00		-3.60		3.588e-02		-51.020		9.890e-03		11.067
3		0.00		-3.20		3.267e-02		-51.163		9.091e-03		11.082
3		0.00		-2.80		2.954e-02		-49.055		7.406e-03		6.583
3		0.00		-2.40		2.638e-02		-50.888		5.348e-03		7.043
3		0.00		-2.00		2.231e-02		-49.070		4.251e-03		7.902
3		0.00		-1.60		1.774e-02		-47.887		3.645e-03		9.319
3		0.00		-1.20		1.278e-02		-48.641		3.065e-03		10.085
3		0.00		-0.80		8.296e-03		-45.123		2.301e-03		15.148
3		0.00		-0.40		4.101e-03		-49.941		1.824e-03		26.950
4		0.00		0.00		2.142e-03		40.292		9.333e-04		88.839
4		0.00		0.40		5.865e-03		131.774		1.923e-03		16.588
4		0.00		0.80		1.048e-02		133.100		2.672e-03		10.352
4		0.00		1.20		1.497e-02		131.647		3.553e-03		9.809
4		0.00		1.60		1.900e-02		131.565		5.131e-03		8.568
4		0.00		2.00		2.281e-02		130.936		6.921e-03		12.876
4		0.00		2.40		2.749e-02		128.056		8.365e-03		19.733
4		0.00		2.80		3.152e-02		127.668		9.871e-03		15.040
4		0.00		3.20		3.631e-02		131.323		1.010e-02		8.256
4		0.00		3.60		4.094e-02		132.442		9.855e-03		6.329
4		0.00		4.00		4.344e-02		132.693		9.778e-03		5.930
4		0.00		4.40		4.632e-02		132.827		1.154e-02		7.574
4		0.00		4.80		4.940e-02		131.581		1.335e-02		9.066
4		0.00		5.20		5.219e-02		131.482		1.495e-02		9.719
4		0.00		5.60		5.518e-02		129.230		1.647e-02		16.758
4		0.00		6.00		5.779e-02		127.611		1.710e-02		19.108
4		0.00		6.40		6.031e-02		129.366		1.780e-02		16.963
4		0.00		6.80		6.198e-02		134.389		1.579e-02		9.215
4		0.00		7.20		6.327e-02		134.904		1.515e-02		7.754
4		0.00		7.60		6.237e-02		136.458		1.490e-02		8.458
4		0.00		8.00		6.496e-02		136.719		1.611e-02		10.254
4		0.00		8.40		6.398e-02		125.577		1.922e-02		38.684
4		0.00		8.80		6.492e-02		132.103		2.191e-02		24.497
4		0.00		9.20		6.308e-02		125.594		2.301e-02		41.881
4		0.00		9.60		6.473e-02		125.874		2.470e-02		24.270
4		0.00		10.00		6.391e-02		130.601		2.385e-02		19.727
4		0.00		9.60		6.694e-02		130.591		2.346e-02		8.683
4		0.00		9.20		6.424e-02		134.532		1.932e-02		11.534
4		0.00		8.80		6.171e-02		137.461		1.712e-02		9.429
4		0.00		8.40		5.924e-02		128.674		1.900e-02		25.464
4		0.00		8.00		5.674e-02		129.863		1.926e-02		25.309
4		0.00		7.60		5.457e-02		129.517		1.861e-02		21.106
4		0.00		7.20		5.432e-02		127.444		1.734e-02		18.271
4		0.00		6.80		5.172e-02		129.536		1.536e-02		15.136
4		0.00		6.40		4.972e-02		133.062		1.177e-02		5.515
4		0.00		6.00		4.591e-02		133.768		1.019e-02		5.500
4		0.00		5.60		4.212e-02		133.271		9.409e-03		6.839
4		0.00		5.20		3.730e-02		133.299		9.298e-03		7.711
4		0.00		4.80		3.313e-02		133.315		9.389e-03		10.176
4		0.00		4.40		2.892e-02		131.463		8.167e-03		15.227
4		0.00		4.00		2.453e-02		131.280		6.707e-03		15.938
4		0.00		3.60		1.994e-02		136.925		5.122e-03		7.948
4		0.00		3.20		1.492e-02		137.199		3.477e-03		8.569
4		0.00		2.80		9.738e-03		138.129		2.513e-03		10.743
4		0.00		2.40		4.231e-03		111.311		1.742e-03		68.559
4		0.00		2.00		2.246e-03		-54.740		1.063e-03		66.626
4		0.00		1.60		6.212e-03		-57.517		2.222e-03		16.727
4		0.00		1.20		1.160e-02		-54.940		3.894e-03		14.271
4		0.00		0.80		1.702e-02		-54.146		5.029e-03		10.128
4		0.00		0.40		2.256e-02		-51.124		5.591e-03		7.484
4		0.00		0.00		2.763e-02		-50.912		6.209e-03		6.024
4		0.00		-0.40		3.237e-02		-51.247		6.479e-03		7.093
4		0.00		-0.80		3.623e-02		-51.057		7.917e-03		7.535
4		0.00		-1.20		3.863e-02		-51.568		8.954e-03		8.410
4		0.00		-1.60		4.146e-02		-51.084		1.079e-02		8.590
4		0.00		-2.00		4.452e-02		-51.313		1.182e-02		14.501
4		0.00		-2.40		4.753e-02		-53.655		1.256e-02		14.297
4		0.00		-2.80		5.013e-02		-52.413		1.254e-02		7.724
4		0.00		-3.20		5.296e-02		-50.760		1.127e-02		5.202
4		0.00		-3.60		5.538e-02		-51.208		1.052e-02		5.185
4		0.00		-4.00		5.564e-02		-51.330		1.121e-02		6.785
4		0.00		-4.40		5.695e-02		-50.583		1.285e-02		8.942
4		0.00		-4.80		5.706e-02		-50.048		1.434e-02		9.844
4		0.00		-5.20		5.754e-02		-48.873		1.629e-02		12.708
4		0.00		-5.60		5.970e-02		-49.966		1.862e-02		19.399
4		0.00		-6.00		5.993e-02		-46.383		1.877e-02		18.562
4		0.00		-6.40		6.217e-02		-46.386		1.814e-02		8.601
4		0.00		-6.80		6.440e-02		-45.121		1.685e-02		8.056
4		0.00		-7.20		6.408e-02		-44.248		1.356e-02		6.833
4		0.00		-7.60		6.183e-02		-40.282		1.472e-02		9.750
4		0.00		-8.00		6.195e-02		-39.112		1.729e-02		11.679
4		0.00		-8.40		6.091e-02		-41.380		1.824e-02		11.089
4		0.00		-8.80		5.790e-02		-38.545		1.988e-02		15.240
4		0.00		-9.20		5.794e-02		-41.971		1.992e-02		19.293
4		0.00		-9.60		5.551e-02		-39.876		1.885e-02		18.828
4		0.00		-10.00		4.940e-02		-46.068		1.563e-02		15.368
4		0.00		-9.60		5.702e-02		-43.079		1.748e-02		7.368
4		0.00		-9.20		5.995e-02		-39.882		1.600e-02		7.421
4		0.00		-8.80		6.128e-02		-40.917		1.484e-02		7.212
4		0.00		-8.40		6.209e-02		-40.184		1.380e-02		4.690
4		0.00		-8.00		6.286e-02		-41.100		1.545e-02		8.737
4		0.00		-7.60		6.178e-02		-43.331		1.684e-02		11.024
4		0.00		-7.20		5.956e-02		-46.300		1.704e-02		13.374
4		0.00		-6.80		5.792e-02		-46.876		1.652e-02		13.443
4		0.00		-6.40		5.549e-02		-49.279		1.678e-02		15.920
4		0.00		-6.00		5.432e-02		-51.714		1.715e-02		17.196
4		0.00		-5.60		5.141e-02		-50.385		1.616e-02		9.856
4		0.00		-5.20		4.968e-02		-48.296		1.369e-02		5.437
4		0.00		-4.80		4.742e-02		-49.079		1.171e-02		5.128
4		0.00		-4.40		4.360e-02		-49.877		9.946e-03		6.442
4		0.00		-4.00		4.019e-02		-50.005		8.761e-03		6.096
4		0.00		-3.60		3.613e-02		-50.284		8.143e-03		6.973
4		0.00		-3.20		3.260e-02		-49.650		7.711e-03		7.377
4		0.00		-2.80		2.863e-02		-49.426		6.998e-03		7.593
4		0.00		-2.40		2.487e-02		-48.180		5.994e-03		8.016
4		0.00		-2.00		2.078e-02		-48.554		5.098e-03		9.572
4		0.00		-1.60		1.626e-02		-48.013		4.077e-03		10.989
4		0.00		-1.20		1.229e-02		-50.163		3.205e-03		14.752
4		0.00		-0.80		7.510e-03		-47.914		2.010e-03		14.704
4		0.00		-0.40		3.105e-03		-55.104		1.287e-03		28.376
5		0.00		0.00		2.533e-03		63.416		1.230e-03		84.550
5		0.00		0.40		6.492e-03		132.491		1.992e-03		13.562
5		0.00		0.80		1.099e-02		131.424		2.689e-03		12.317
5		0.00		1.20		1.615e-02		137.423		3.470e-03		7.874
5		0.00		1.60		2.044e-02		132.351		4.410e-03		6.807
5		0.00		2.00		2.493e-02		132.757		5.390e-03		6.616
5		0.00		2.40		2.953e-02		133.216		6.502e-03		6.780
5		0.00		2.80		3.337e-02		132.134		7.783e-03		6.419
5		0.00		3.20		3.703e-02		132.572		9.101e-03		5.971
5		0.00		3.60		4.038e-02		132.688		1.086e-02		7.600
5		0.00		4.00		4.294e-02		132.316		1.233e-02		9.894
5		0.00		4.40		4.652e-02		131.551		1.394e-02		11.611
5		0.00		4.80		4.960e-02		130.864		1.502e-02		14.380
5		0.00		5.20		5.353e-02		127.978		1.609e-02		18.502
5		0.00		5.60		5.608e-02		127.776		1.688e-02		18.160
5		0.00		6.00		5.919e-02		128.104		1.710e-02		16.824
5		0.00		6.40		6.252e-02		129.013		1.805e-02		15.963
5		0.00		6.80		6.269e-02		132.224		1.700e-02		15.084
5		0.00		7.20		6.416e-02		134.214		1.656e-02		8.523
5		0.00		7.60		6.602e-02		135.967		1.659e-02		8.891
5		0.00		8.00		6.659e-02		138.274		1.565e-02		7.487
5		0.00		8.40		6.577e-02		136.959		1.641e-02		10.844
5		0.00		8.80		6.707e-02		138.051		1.763e-02		10.620
5		0.00		9.20		6.786e-02		138.068		1.770e-02		11.798
5		0.00		9.60		6.655e-02		133.313		1.942e-02		13.823
5		0.00		10.00		6.217e-02		136.620		1.940e-02		11.996
5		0.00		9.60		6.296e-02		129.925		2.062e-02		19.229
5		0.00		9.20		5.952e-02		133.015		1.970e-02		28.798
5		0.00		8.80		5.904e-02		126.905		2.008e-02		37.030
5		0.00		8.40		5.840e-02		129.869		1.944e-02		27.079
5		0.00		8.00		5.731e-02		127.187		2.017e-02		27.851
5		0.00		7.60		5.585e-02		127.904		1.897e-02		20.130
5		0.00		7.20		5.368e-02		127.254		1.818e-02		17.939
5		0.00		6.80		5.020e-02		127.191		1.632e-02		18.455
5		0.00		6.40		4.759e-02		128.912		1.484e-02		14.730
5		0.00		6.00		4.472e-02		130.320		1.289e-02		11.817
5		0.00		5.60		4.123e-02		131.828		1.058e-02		7.549
5		0.00		5.20		3.744e-02		133.309		8.771e-03		6.481
5		0.00		4.80		3.378e-02		134.394		7.523e-03		6.038
5		0.00		4.40		2.930e-02		134.502		6.306e-03		6.976
5		0.00		4.00		2.445e-02		135.476		5.326e-03		7.593
5		0.00		3.60		1.916e-02		136.954		4.067e-03		7.722
5		0.00		3.20		1.418e-02		136.858		3.070e-03		8.462
5		0.00		2.80		9.051e-03		142.084		2.387e-03		11.339
5		0.00		2.40		3.680e-03		101.171		1.445e-03		76.186
5		0.00		2.00		2.633e-03		-45.381		1.092e-03		56.738
5		0.00		1.60		6.765e-03		-64.547		2.077e-03		16.000
5		0.00		1.20		1.199e-02		-50.992		2.969e-03		11.939
5		0.00		0.80		1.686e-02		-52.960		4.700e-03		11.794
5		0.00		0.40		2.209e-02		-51.266		5.932e-03		10.330
5		0.00		0.00		2.661e-02		-50.701		7.458e-03		11.460
5		0.00		-0.40		3.121e-02		-52.279		8.461e-03		11.371
5		0.00		-0.80		3.536e-02		-52.821		9.921e-03		12.721
5		0.00		-1.20		3.813e-02		-52.625		1.095e-02		11.077
5		0.00		-1.60		4.080e-02		-52.687		1.125e-02		10.789
5		0.00		-2.00		4.446e-02		-51.429		1.120e-02		6.248
5		0.00		-2.40		4.748e-02		-51.298		1.136e-02		5.905
5		0.00		-2.80		5.058e-02		-50.753		1.198e-02		5.905
5		0.00		-3.20		5.284e-02		-51.784		1.215e-02		6.477
5		0.00		-3.60		5.503e-02		-51.139		1.228e-02		5.234
5		0.00		-4.00		5.746e-02		-51.386		1.252e-02		5.731
5		0.00		-4.40		5.892e-02		-49.801		1.227e-02		4.875
5		0.00		-4.80		5.946e-02		-49.438		1.243e-02		6.211
5		0.00		-5.20		6.165e-02		-47.967		1.289e-02		6.185
5		0.00		-5.60		6.210e-02		-46.979		1.311e-02		5.906
5		0.00		-6.00		6.187e-02		-43.689		1.263e-02		4.975
5		0.00		-6.40		6.250e-02		-42.608		1.400e-02		7.136
5		0.00		-6.80		6.050e-02		-40.633		1.438e-02		8.888
5		0.00		-7.20		6.181e-02		-42.301		1.682e-02		12.156
5		0.00		-7.60		6.086e-02		-43.123		1.796e-02		16.710
5		0.00		-8.00		6.139e-02		-43.826		1.871e-02		16.318
5		0.00		-8.40		5.927e-02		-42.358		1.965e-02		20.836
5		0.00		-8.80		5.902e-02		-42.742		2.115e-02		17.919
5		0.00		-9.20		5.832e-02		-39.695		2.090e-02		21.498
5		0.00		-9.60		5.432e-02		-44.054		1.875e-02		18.919
5		0.00		-10.00		4.795e-02		-44.813		1.562e-02		17.595
5		0.00		-9.60		5.397e-02		-43.422		1.729e-02		17.984
5		0.00		-9.20		5.904e-02		-39.391		1.831e-02		21.774
5		0.00		-8.80		6.245e-02		-43.158		1.866e-02		23.207
5		0.00		-8.40		6.338e-02		-43.828		1.796e-02		12.993
5		0.00		-8.00		6.556e-02		-43.003		1.702e-02		8.179
5		0.00		-7.60		6.324e-02		-43.331		1.427e-02		7.115
5		0.00		-7.20		6.236e-02		-43.980		1.293e-02		5.393
5		0.00		-6.80		6.098e-02		-44.194		1.284e-02		5.005
5		0.00		-6.40		5.742e-02		-46.311		1.286e-02		7.563
5		0.00		-6.00		5.468e-02		-47.491		1.291e-02		9.289
5		0.00		-5.60		5.188e-02		-47.548		1.252e-02		7.474
5		0.00		-5.20		4.902e-02		-46.628		1.200e-02		6.005
5		0.00		-4.80		4.553e-02		-49.050		1.235e-02		6.319
5		0.00		-4.40		4.231e-02		-49.718		1.169e-02		7.050
5		0.00		-4.00		3.872e-02		-50.898		1.097e-02		8.267
5		0.00		-3.60		3.534e-02		-52.842		1.001e-02		12.018
5		0.00		-3.20		3.173e-02		-50.801		9.252e-03		13.445
5		0.00		-2.80		2.837e-02		-51.318		7.980e-03		12.373
5		0.00		-2.40		2.507e-02		-49.733		6.618e-03		8.806
5		0.00		-2.00		2.084e-02		-49.171		4.793e-03		8.502
5		0.00		-1.60		1.661e-02		-45.941		3.483e-03		9.837
5		0.00		-1.20		1.242e-02		-47.310		2.547e-03		9.975
5		0.00		-0.80		7.846e-03		-44.019		1.729e-03		13.538
5		0.00		-0.40		3.449e-03		-56.090		1.236e-03		27.471
6		0.00		0.00		2.496e-03		69.208		1.052e-03		84.206
6		0.00		0.40		6.460e-03		128.457		2.004e-03		26.986
6		0.00		0.80		1.120e-02		135.093		2.784e-03		10.488
6		0.00		1.20		1.556e-02		132.469		4.136e-03		10.301
6		0.00		1.60		1.958e-02		130.871		5.483e-03		9.384
6		0.00		2.00		2.417e-02		128.780		6.882e-03		14.189
6		0.00		2.40		2.850e-02		128.656		8.336e-03		17.397
6		0.00		2.80		3.271e-02		128.620		9.855e-03		18.806
6		0.00		3.20		3.609e-02		128.956		1.104e-02		13.873
6		0.00		3.60		4.014e-02		130.451		1.180e-02		9.701
6		0.00		4.00		4.442e-02		131.770		1.160e-02		7.083
6		0.00		4.40		4.863e-02		133.117		1.181e-02		6.174
6		0.00		4.80		5.173e-02		133.499		1.179e-02		5.233
6		0.00		5.20		5.390e-02		133.142		1.222e-02		5.895
6		0.00		5.60		5.680e-02		133.290		1.304e-02		7.019
6		0.00		6.00		5.885e-02		134.424		1.326e-02		7.067
6		0.00		6.40		5.999e-02		133.253		1.545e-02		9.387
6		0.00		6.80		6.133e-02		131.559		1.639e-02		26.410
6		0.00		7.20		6.068e-02		134.525		1.775e-02		14.666
6		0.00		7.60		6.242e-02		131.445		1.941e-02		30.818
6		0.00		8.00		6.448e-02		131.846		1.993e-02		25.703
6		0.00		8.40		6.664e-02		130.758		2.087e-02		25.181
6		0.00		8.80		6.706e-02		132.880		2.034e-02		23.929
6		0.00		9.20		6.635e-02		133.605		2.099e-02		20.473
6		0.00		9.60		6.480e-02		134.924		2.094e-02		27.422
6		0.00		10.00		6.313e-02		135.947		2.120e-02		15.697
6		0.00		9.60		6.416e-02		135.062		1.921e-02		11.694
6		0.00		9.20		6.516e-02		136.374		1.843e-02		11.401
6		0.00		8.80		6.307e-02		136.162		1.652e-02		8.282
6		0.00		8.40		6.098e-02		135.377		1.603e-02		7.464
6		0.00		8.00		5.855e-02		133.411		1.699e-02		8.368
6		0.00		7.60		5.651e-02		132.708		1.697e-02		7.853
6		0.00		7.20		5.225e-02		135.450		1.638e-02		7.607
6		0.00		6.80		5.024e-02		131.960		1.579e-02		13.065
6		0.00		6.40		4.757e-02		129.810		1.420e-02		16.601
6		0.00		6.00		4.454e-02		128.407		1.296e-02		16.919
6		0.00		5.60		4.142e-02		132.052		1.125e-02		10.431
6		0.00		5.20		3.730e-02		134.116		9.254e-03		6.478
6		0.00		4.80		3.385e-02		134.767		7.486e-03		6.362
6		0.00		4.40		2.950e-02		135.028		6.578e-03		5.917
6		0.00		4.00		2.472e-02		135.766		5.275e-03		6.925
6		0.00		3.60		1.981e-02		136.992		4.080e-03		7.462
6		0.00		3.20		1.523e-02		139.038		3.470e-03		9.584
6		0.00		2.80		9.563e-03		136.178		2.819e-03		16.138
6		0.00		2.40		4.194e-03		116.266		1.638e-03		62.364
6		0.00		2.00		2.253e-03		-36.534		9.618e-04		63.829
6		0.00		1.60		6.215e-03		-59.148		2.080e-03		18.637
6		0.00		1.20		1.164e-02		-55.258		3.498e-03		13.167
6		0.00		0.80		1.670e-02		-51.512		4.657e-03		10.931
6		0.00		0.40		2.186e-02		-51.107		5.457e-03		9.171
6		0.00		0.00		2.684e-02		-50.957		5.846e-03		7.021
6		0.00		-0.40		3.113e-02		-49.336		6.352e-03		6.220
6		0.00		-0.80		3.440e-02		-50.065		7.118e-03		5.339
6		0.00		-1.20		3.777e-02		-49.617		8.105e-03		6.704
6		0.00		-1.60		4.080e-02		-50.318		9.152e-03		6.422
6		0.00		-2.00		4.449e-02		-50.339		1.002e-02		6.331
6		0.00		-2.40		4.715e-02		-50.548		1.179e-02		7.232
6		0.00		-2.80		4.895e-02		-49.087		1.245e-02		6.759
6		0.00		-3.20		5.093e-02		-51.734		1.312e-02		8.931
6		0.00		-3.60		5.268e-02		-53.143		1.382e-02		11.331
6		0.00		-4.00		5.507e-02		-53.121		1.485e-02		12.127
6		0.00		-4.40		5.653e-02		-51.688		1.502e-02		8.297
6		0.00		-4.80		5.848e-02		-49.064		1.439e-02		6.657
6		0.00		-5.20		6.051e-02		-47.780		1.367e-02		5.244
6		0.00		-5.60		6.027e-02		-46.608		1.347e-02		5.639
6		0.00		-6.00		5.956e-02		-44.238		1.332e-02		5.870
6		0.00		-6.40		6.146e-02		-46.834		1.593e-02		10.556
6		0.00		-6.80		6.143e-02		-44.924		1.707e-02		8.734
6		0.00		-7.20		5.905e-02		-45.157		1.737e-02		12.774
6		0.00		-7.60		5.944e-02		-45.852		1.895e-02		15.932
6		0.00		-8.00		6.063e-02		-42.714		2.176e-02		22.442
6		0.00		-8.40		6.329e-02		-46.366		2.205e-02		17.618
6		0.00		-8.80		6.135e-02		-46.619		2.030e-02		19.007
6		0.00		-9.20		5.882e-02		-36.894		2.044e-02		17.508
6		0.00		-9.60		5.511e-02		-42.913		1.868e-02		11.711
6		0.00		-10.00		4.865e-02		-42.438		1.478e-02		7.253
6		0.00		-9.60		5.568e-02		-41.661		1.568e-02		5.431
6		0.00		-9.20		5.826e-02		-40.643		1.533e-02		7.098
6		0.00		-8.80		5.971e-02		-38.987		1.483e-02		7.814
6		0.00		-8.40		6.307e-02		-39.706		1.529e-02		6.985
6		0.00		-8.00		6.252e-02		-41.593		1.712e-02		11.323
6		0.00		-7.60		6.178e-02		-43.673		1.747e-02		12.144
6		0.00		-7.20		6.055e-02		-46.806		1.759e-02		17.983
6		0.00		-6.80		5.904e-02		-47.271		1.705e-02		14.376
6		0.00		-6.40		5.709e-02		-49.633		1.722e-02		15.931
6		0.00		-6.00		5.551e-02		-48.717		1.744e-02		14.701
6		0.00		-5.60		5.195e-02		-50.063		1.574e-02		9.469
6		0.00		-5.20		4.941e-02		-49.403		1.405e-02		8.323
6		0.00		-4.80		4.686e-02		-48.399		1.145e-02		5.052
6		0.00		-4.40		4.374e-02		-48.939		9.894e-03		5.276
6		0.00		-4.00		3.951e-02		-50.394		9.032e-03		5.814
6		0.00		-3.60		3.601e-02		-50.503		7.988e-03		6.167
6		0.00		-3.20		3.237e-02		-48.985		7.443e-03		6.658
6		0.00		-2.80		2.825e-02		-49.292		7.038e-03		7.339
6		0.00		-2.40		2.441e-02		-48.884		6.650e-03		8.792
6		0.00		-2.00		2.009e-02		-49.667		5.226e-03		9.757
6		0.00		-1.60		1.623e-02		-49.298		4.310e-03		12.259
6		0.00		-1.20		1.167e-02		-51.443		3.115e-03		13.071
6		0.00		-0.80		7.231e-03		-46.363		2.176e-03		17.291
6		0.00		-0.40		3.099e-03		-54.317		1.258e-03		33.192
7		0.00		0.00		2.704e-03		72.357		1.212e-03		72.639
7		0.00		0.40		6.988e-03		128.831		2.104e-03		14.550
7		0.00		0.80		1.154e-02		132.470		2.809e-03		10.720
7		0.00		1.20		1.615e-02		134.607		3.336e-03		7.562
7		0.00		1.60		2.045e-02		133.248		4.346e-03		7.468
7		0.00		2.00		2.460e-02		133.427		5.421e-03		6.218
7		0.00		2.40		2.925e-02		133.229		6.739e-03		6.007
7		0.00		2.80		3.326e-02		132.857		8.102e-03		5.858
7		0.00		3.20		3.735e-02		132.205		9.797e-03		6.959
7		0.00		3.60		4.037e-02		131.994		1.127e-02		9.409
7		0.00		4.00		4.351e-02		131.397		1.299e-02		12.279
7		0.00		4.40		4.711e-02		129.953		1.412e-02		15.586
7		0.00		4.80		5.074e-02		128.691		1.533e-02		18.713
7		0.00		5.20		5.376e-02		128.154		1.613e-02		18.874
7		0.00		5.60		5.715e-02		128.145		1.731e-02		17.760
7		0.00		6.00		5.992e-02		129.855		1.696e-02		13.676
7		0.00		6.40		6.248e-02		133.237		1.681e-02		7.231
7		0.00		6.80		6.381e-02		134.871		1.636e-02		7.797
7		0.00		7.20		6.504e-02		136.295		1.587e-02		8.417
7		0.00		7.60		6.782e-02		136.954		1.641e-02		7.566
7		0.00		8.00		6.630e-02		140.144		1.640e-02		11.063
7		0.00		8.40		6.563e-02		138.702		1.608e-02		10.906
7		0.00		8.80		6.591e-02		141.608		1.675e-02		11.006
7		0.00		9.20		6.771e-02		137.501		1.762e-02		11.465
7		0.00		9.60		6.554e-02		137.383		1.820e-02		11.469
7		0.00		10.00		6.154e-02		135.045		1.906e-02		15.255
7		0.00		9.60		6.167e-02		129.866		1.974e-02		33.487
7		0.00		9.20		6.073e-02		132.798		2.069e-02		19.751
7		0.00		8.80		6.060e-02		128.706		2.066e-02		36.843
7		0.00		8.40		5.810e-02		129.366		2.034e-02		31.334
7		0.00		8.00		5.677e-02		128.380		1.996e-02		30.080
7		0.00		7.60		5.559e-02		128.149		1.921e-02		23.269
7		0.00		7.20		5.323e-02		128.482		1.830e-02		18.393
7		0.00		6.80		5.153e-02		127.811		1.708e-02		17.198
7		0.00		6.40		4.803e-02		128.646		1.508e-02		16.477
7		0.00		6.00		4.540e-02		129.454		1.320e-02		12.788
7		0.00		5.60		4.156e-02		131.612		1.124e-02		8.290
7		0.00		5.20		3.754e-02		133.009		9.147e-03		8.114
7		0.00		4.80		3.348e-02		133.362		8.139e-03		6.853
7		0.00		4.40		2.907e-02		134.830		6.577e-03		6.489
7		0.00		4.00		2.392e-02		135.577		5.168e-03		7.101
7		0.00		3.60		1.903e-02		135.679		4.156e-03		7.154
7		0.00		3.20		1.414e-02		137.143		3.250e-03		8.521
7		0.00		2.80		8.760e-03		142.399		2.228e-03		9.838
7		0.00		2.40		3.454e-03		100.267		1.570e-03		78.461
7		0.00		2.00		3.103e-03		-60.829		1.320e-03		35.773
7		0.00		1.60		8.225e-03		-55.036		2.231e-03		13.170
7		0.00		1.20		1.363e-02		-54.577		3.167e-03		11.098
7		0.00		0.80		1.875e-02		-50.363		4.466e-03		8.930
7		0.00		0.40		2.383e-02		-49.497		5.774e-03		7.341
7		0.00		0.00		2.811e-02		-49.672		6.642e-03		8.076
7		0.00		-0.40		3.249e-02		-49.635		7.893e-03		7.591
7		0.00		-0.80		3.621e-02		-50.271		9.212e-03		7.410
7		0.00		-1.20		3.926e-02		-50.941		1.041e-02		8.581
7		0.00		-1.60		4.239e-02		-51.011		1.126e-02		8.667
7		0.00		-2.00		4.469e-02		-51.096		1.154e-02		10.898
7		0.00		-2.40		4.743e-02		-52.293		1.237e-02		14.025
7		0.00		-2.80		4.960e-02		-52.443		1.290e-02		12.533
7		0.00		-3.20		5.145e-02		-53.998		1.385e-02		14.638
7		0.00		-3.60		5.356e-02		-53.995		1.449e-02		13.491
7		0.00		-4.00		5.401e-02		-53.764		1.517e-02		13.351
7		0.00		-4.40		5.615e-02		-52.980		1.557e-02		12.379
7		0.00		-4.80		5.701e-02		-51.244		1.522e-02		10.936
7		0.00		-5.20		5.837e-02		-48.579		1.514e-02		6.819
7		0.00		-5.60		6.007e-02		-46.923		1.613e-02		6.438
7		0.00		-6.00		6.138e-02		-45.401		1.620e-02		7.870
7		0.00		-6.40		6.225e-02		-44.852		1.573e-02		7.483
7		0.00		-6.80		6.336e-02		-42.766		1.570e-02		8.023
7		0.00		-7.20		6.517e-02		-41.013		1.549e-02		9.055
7		0.00		-7.60		6.438e-02		-40.858		1.502e-02		9.566
7		0.00		-8.00		6.480e-02		-40.935		1.489e-02		9.869
7		0.00		-8.40		6.265e-02		-38.850		1.474e-02		10.254
7		0.00		-8.80		5.908e-02		-37.882		1.515e-02		10.981
7		0.00		-9.20		5.751e-02		-39.100		1.513e-02		7.915
7		0.00		-9.60		5.538e-02		-40.898		1.488e-02		5.816
7		0.00		-10.00		4.953e-02		-41.030		1.318e-02		4.948
7		0.00		-9.60		5.579e-02		-42.586		1.492e-02		6.564
7		0.00		-9.20		5.891e-02		-38.333		1.525e-02		6.298
7		0.00		-8.80		6.127e-02		-38.163		1.604e-02		7.660
7		0.00		-8.40		6.316e-02		-40.201		1.655e-02		8.942
7		0.00		-8.00		6.242e-02		-39.558		1.632e-02		9.939
7		0.00		-7.60		6.259e-02		-42.997		1.670e-02		11.050
7		0.00		-7.20		6.151e-02		-45.131		1.634e-02		9.727
7		0.00		-6.80		5.874e-02		-45.398		1.676e-02		9.568
7		0.00		-6.40		5.526e-02		-46.087		1.584e-02		10.308
7		0.00		-6.00		5.306e-02		-46.688		1.564e-02		9.053
7		0.00		-5.60		5.096e-02		-46.935		1.529e-02		7.714
7		0.00		-5.20		4.814e-02		-47.585		1.393e-02		8.037
7		0.00		-4.80		4.506e-02		-48.230		1.350e-02		6.739
7		0.00		-4.40		4.249e-02		-49.120		1.240e-02		9.140
7		0.00		-4.00		3.912e-02		-50.413		1.107e-02		9.954
7		0.00		-3.60		3.556e-02		-52.544		1.001e-02		12.586
7		0.00		-3.20		3.212e-02		-50.969		8.803e-03		10.840
7		0.00		-2.80		2.849e-02		-50.034		7.682e-03		12.327
7		0.00		-2.40		2.497e-02		-50.861		6.424e-03		10.768
7		0.00		-2.00		2.072e-02		-50.566		5.384e-03		10.821
7		0.00		-1.60		1.642e-02		-49.700		4.073e-03		10.929
7		0.00		-1.20		1.165e-02		-45.965		3.109e-03		12.609
7		0.00		-0.80		7.174e-03		-44.223		2.228e-03		17.315
7		0.00		-0.40		3.057e-03		-42.852		1.537e-03		33.810
8		0.00		0.00		2.417e-03		76.482		1.003e-03		66.176
8		0.00		0.40		7.030e-03		127.484		2.442e-03		19.250
8		0.00		0.80		1.149e-02		130.387		3.215e-03		18.131
8		0.00		1.20		1.553e-02		131.708		4.324e-03		11.854
8		0.00		1.60		2.016e-02		129.053		6.039e-03		14.037
8		0.00		2.00		2.388e-02		128.407		7.006e-03		14.111
8		0.00		2.40		2.871e-02		129.150		8.473e-03		16.198
8		0.00		2.80		3.292e-02		129.473		9.474e-03		11.430
8		0.00		3.20		3.711e-02		128.881		1.088e-02		13.184
8		0.00		3.60		4.077e-02		130.106		1.198e-02		12.378
8		0.00		4.00		4.393e-02		128.608		1.365e-02		12.932
8		0.00		4.40		4.795e-02		129.407		1.463e-02		11.778
8		0.00		4.80		5.140e-02		129.039		1.514e-02		12.673
8		0.00		5.20		5.532e-02		129.299		1.589e-02		13.444
8		0.00		5.60		5.832e-02		129.517		1.615e-02		11.581
8		0.00		6.00		5.975e-02		129.161		1.712e-02		15.944
8		0.00		6.40		6.236e-02		129.090		1.796e-02		16.945
8		0.00		6.80		6.376e-02		129.911		1.847e-02		18.327
8		0.00		7.20		6.441e-02		131.514		1.895e-02		17.007
8		0.00		7.60		6.496e-02		131.124		1.958e-02		21.015
8		0.00		8.00		6.458e-02		135.126		1.848e-02		16.795
8		0.00		8.40		6.598e-02		132.946		2.004e-02		27.132
8		0.00		8.80		6.791e-02		132.347		2.136e-02		19.158
8		0.00		9.20		6.620e-02		129.209		2.260e-02		29.042
8		0.00		9.60		6.497e-02		128.697		2.313e-02		43.052
8		0.00		10.00		6.430e-02		128.141		2.438e-02		34.066
8		0.00		9.60		6.332e-02		130.698		2.200e-02		27.307
8		0.00		9.20		6.599e-02		127.944		2.301e-02		24.372
8		0.00		8.80		6.259e-02		130.851		2.021e-02		24.018
8		0.00		8.40		6.224e-02		129.331		2.066e-02		23.498
8		0.00		8.00		6.102e-02		127.258		2.030e-02		24.446
8		0.00		7.60		5.951e-02		128.106		1.904e-02		20.715
8		0.00		7.20		5.661e-02		128.766		1.669e-02		17.965
8		0.00		6.80		5.400e-02		130.241		1.565e-02		15.345
8		0.00		6.40		5.027e-02		131.096		1.456e-02		13.087
8		0.00		6.00		4.674e-02		131.626		1.343e-02		13.898
8		0.00		5.60		4.261e-02		132.899		1.195e-02		10.629
8		0.00		5.20		3.831e-02		133.892		1.054e-02		9.138
8		0.00		4.80		3.427e-02		133.914		9.160e-03		9.547
8		0.00		4.40		2.948e-02		135.155		7.650e-03		9.506
8		0.00		4.00		2.459e-02		135.175		6.445e-03		9.113
8		0.00		3.60		2.013e-02		136.050		5.666e-03		10.083
8		0.00		3.20		1.491e-02		136.773		4.359e-03		11.531
8		0.00		2.80		9.979e-03		134.172		3.171e-03		14.644
8		0.00		2.40		4.883e-03		124.908		1.818e-03		43.030
8		0.00		2.00		2.274e-03		-50.676		9.357e-04		64.916
8		0.00		1.60		6.523e-03		-61.841		1.943e-03		15.335
8		0.00		1.20		1.199e-02		-54.803		2.935e-03		10.267
8		0.00		0.80		1.692e-02		-51.898		3.805e-03		9.345
8		0.00		0.40		2.195e-02		-49.830		5.063e-03		7.991
8		0.00		0.00		2.691e-02		-50.123		5.762e-03		7.059
8		0.00		-0.40		3.169e-02		-49.484		6.371e-03		7.330
8		0.00		-0.80		3.639e-02		-49.977		7.009e-03		6.560
8		0.00		-1.20		3.976e-02		-50.660		7.317e-03		6.400
8		0.00		-1.60		4.203e-02		-50.079		7.832e-03		5.822
8		0.00		-2.00		4.512e-02		-49.700		8.312e-03		6.004
8		0.00		-2.40		4.767e-02		-49.913		8.405e-03		5.891
8		0.00		-2.80		5.033e-02		-49.828		9.053e-03		5.383
8		0.00		-3.20		5.205e-02		-50.123		9.300e-03		5.565
8		0.00		-3.60		5.377e-02		-50.618		1.007e-02		5.323
8		0.00		-4.00		5.473e-02		-50.809		1.090e-02		5.690
8		0.00		-4.40		5.739e-02		-49.991		1.208e-02		4.847
8		0.00		-4.80		5.921e-02		-48.173		1.370e-02		5.953
8		0.00		-5.20		6.041e-02		-47.028		1.459e-02		6.301
8		0.00		-5.60		6.109e-02		-47.190		1.565e-02		6.640
8		0.00		-6.00		6.029e-02		-47.028		1.637e-02		7.470
8		0.00		-6.40		6.074e-02		-45.942		1.669e-02		9.208
8		0.00		-6.80		6.166e-02		-45.522		1.849e-02		13.446
8		0.00		-7.20		6.352e-02		-46.389		1.910e-02		11.309
8		0.00		-7.60		6.619e-02		-47.604		1.989e-02		13.783
8		0.00		-8.00		6.595e-02		-43.021		1.959e-02		16.126
8		0.00		-8.40		6.408e-02		-38.687		1.975e-02		18.587
8		0.00		-8.80		6.269e-02		-41.138		1.997e-02		16.398
8		0.00		-9.20		5.954e-02		-39.419		1.936e-02		19.507
8		0.00		-9.60		5.526e-02		-44.411		1.806e-02		15.504
8		0.00		-10.00		4.876e-02		-41.829		1.525e-02		7.381
8		0.00		-9.60		5.525e-02		-43.237		1.709e-02		8.091
8		0.00		-9.20		5.702e-02		-41.853		1.708e-02		12.416
8		0.00		-8.80		6.011e-02		-40.612		1.717e-02		10.422
8		0.00		-8.40		6.072e-02		-39.887		1.765e-02		13.503
8		0.00		-8.00		5.977e-02		-39.506		1.634e-02		11.913
8		0.00		-7.60		6.133e-02		-43.271		1.660e-02		9.116
8		0.00		-7.20		5.939e-02		-44.420		1.554e-02		8.253
8		0.00		-6.80		5.885e-02		-44.265		1.402e-02		6.313
8		0.00		-6.40		5.713e-02		-45.949		1.382e-02		7.493
8		0.00		-6.00		5.409e-02		-46.120		1.250e-02		6.385
8		0.00		-5.60		5.250e-02		-45.973		1.191e-02		5.549
8		0.00		-5.20		4.967e-02		-47.556		1.085e-02		5.328
8		0.00		-4.80		4.704e-02		-48.364		9.877e-03		5.249
8		0.00		-4.40		4.377e-02		-48.245		8.807e-03		5.467
8		0.00		-4.00		3.971e-02		-49.565		7.886e-03		5.622
8		0.00		-3.60		3.653e-02		-48.326		7.432e-03		5.570
8		0.00		-3.20		3.233e-02		-50.450		6.835e-03		6.993
8		0.00		-2.80		2.866e-02		-50.044		6.555e-03		6.866
8		0.00		-2.40		2.428e-02		-48.877		5.767e-03		7.340
8		0.00		-2.00		1.993e-02		-48.804		4.826e-03		9.232
8		0.00		-1.60		1.581e-02		-47.219		3.724e-03		8.843
8		0.00		-1.20		1.114e-02		-45.771		3.112e-03		12.726
8		0.00		-0.80		6.625e-03		-47.195		2.003e-03		15.541
8		0.00		-0.40		2.401e-03		-43.778		1.001e-03		47.080
