# Date of analysis: 2024-03-08 10;58
# Segment other properties: height: -43.11529995811562, diff height: 525.4843593215677, deflection: 33.12904656578161, deflection error: 4.03419714040192, adhesion: 43.938444436308274, phase offset: 0
# 
# Loop index	Read Volt (V)	Write Volt (V)	Amplitude (a.u)	Phase (deg)	Sigma Amp (a.u)	Sigma Pha (deg)	
1		0.00		0.00		4.033e-02		-52.448		7.591e-03		6.001
1		0.00		0.40		3.061e-02		-52.680		5.941e-03		7.585
1		0.00		0.80		2.289e-02		-53.842		4.602e-03		10.245
1		0.00		1.20		1.562e-02		-56.694		3.462e-03		9.067
1		0.00		1.60		8.564e-03		-60.652		2.339e-03		12.444
1		0.00		2.00		2.467e-03		-39.349		1.083e-03		58.257
1		0.00		2.40		4.559e-03		123.835		1.628e-03		35.128
1		0.00		2.80		1.047e-02		132.612		2.945e-03		13.764
1		0.00		3.20		1.621e-02		131.397		4.664e-03		13.192
1		0.00		3.60		2.164e-02		130.046		6.422e-03		12.964
1		0.00		4.00		2.684e-02		129.038		8.278e-03		15.110
1		0.00		4.40		3.284e-02		129.048		9.944e-03		14.581
1		0.00		4.80		3.663e-02		127.380		1.124e-02		16.698
1		0.00		5.20		4.158e-02		128.010		1.261e-02		18.313
1		0.00		5.60		4.593e-02		126.450		1.390e-02		20.255
1		0.00		6.00		4.795e-02		125.553		1.474e-02		18.692
1		0.00		6.40		5.205e-02		125.165		1.602e-02		22.032
1		0.00		6.80		5.353e-02		124.360		1.686e-02		24.260
1		0.00		7.20		5.560e-02		125.562		1.747e-02		21.589
1		0.00		7.60		5.717e-02		125.545		1.787e-02		22.180
1		0.00		8.00		5.817e-02		126.134		1.834e-02		28.092
1		0.00		8.40		5.561e-02		132.575		1.792e-02		12.966
1		0.00		8.80		5.454e-02		128.551		1.980e-02		17.149
1		0.00		9.20		5.396e-02		131.738		1.851e-02		9.617
1		0.00		9.60		5.239e-02		131.178		1.870e-02		10.887
1		0.00		10.00		5.141e-02		131.329		1.859e-02		8.982
1		0.00		9.60		5.264e-02		128.674		1.817e-02		18.696
1		0.00		9.20		5.156e-02		132.346		1.705e-02		10.311
1		0.00		8.80		5.073e-02		131.125		1.608e-02		9.981
1		0.00		8.40		4.966e-02		133.228		1.543e-02		7.469
1		0.00		8.00		4.827e-02		132.665		1.401e-02		7.360
1		0.00		7.60		4.706e-02		132.681		1.271e-02		6.598
1		0.00		7.20		4.624e-02		131.620		1.218e-02		6.212
1		0.00		6.80		4.292e-02		131.856		1.105e-02		7.595
1		0.00		6.40		3.949e-02		131.546		1.016e-02		7.945
1		0.00		6.00		3.642e-02		131.551		9.029e-03		7.943
1		0.00		5.60		3.145e-02		131.926		8.168e-03		8.477
1		0.00		5.20		2.784e-02		133.062		7.193e-03		9.825
1		0.00		4.80		2.380e-02		132.165		6.285e-03		10.577
1		0.00		4.40		1.956e-02		134.584		5.178e-03		9.445
1		0.00		4.00		1.527e-02		133.880		4.249e-03		11.609
1		0.00		3.60		1.008e-02		129.219		3.491e-03		25.773
1		0.00		3.20		5.023e-03		121.298		2.357e-03		48.301
1		0.00		2.80		2.478e-03		20.288		1.086e-03		78.039
1		0.00		2.40		5.465e-03		-66.362		2.413e-03		25.201
1		0.00		2.00		1.011e-02		-55.516		3.502e-03		14.563
1		0.00		1.60		1.567e-02		-55.525		5.127e-03		12.138
1		0.00		1.20		2.148e-02		-50.660		6.051e-03		10.281
1		0.00		0.80		2.644e-02		-51.138		7.845e-03		10.211
1		0.00		0.40		3.195e-02		-50.600		9.108e-03		8.184
1		0.00		0.00		3.771e-02		-50.651		1.056e-02		9.289
1		0.00		-0.40		4.142e-02		-49.975		1.161e-02		9.140
1		0.00		-0.80		4.409e-02		-50.214		1.235e-02		9.194
1		0.00		-1.20		4.577e-02		-49.966		1.321e-02		8.936
1		0.00		-1.60		4.906e-02		-51.554		1.410e-02		12.040
1		0.00		-2.00		5.056e-02		-54.087		1.461e-02		15.537
1		0.00		-2.40		5.207e-02		-53.301		1.523e-02		14.864
1		0.00		-2.80		5.418e-02		-54.356		1.566e-02		15.817
1		0.00		-3.20		5.563e-02		-55.157		1.669e-02		17.683
1		0.00		-3.60		5.618e-02		-52.907		1.674e-02		15.690
1		0.00		-4.00		5.644e-02		-54.004		1.755e-02		18.094
1		0.00		-4.40		5.726e-02		-51.138		1.918e-02		19.299
1		0.00		-4.80		5.735e-02		-45.125		1.993e-02		19.619
1		0.00		-5.20		5.839e-02		-46.622		2.066e-02		20.360
1		0.00		-5.60		5.868e-02		-44.772		2.113e-02		21.102
1		0.00		-6.00		5.893e-02		-45.632		2.123e-02		20.793
1		0.00		-6.40		6.020e-02		-42.138		2.166e-02		24.406
1		0.00		-6.80		5.948e-02		-42.575		2.235e-02		27.007
1		0.00		-7.20		6.135e-02		-41.813		2.281e-02		29.834
1		0.00		-7.60		6.279e-02		-41.387		2.174e-02		26.186
1		0.00		-8.00		6.477e-02		-42.185		2.144e-02		28.867
1		0.00		-8.40		6.377e-02		-42.888		2.193e-02		22.068
1		0.00		-8.80		6.243e-02		-40.077		2.143e-02		26.412
1		0.00		-9.20		5.834e-02		-39.948		2.002e-02		26.631
1		0.00		-9.60		5.584e-02		-46.926		1.918e-02		15.502
1		0.00		-10.00		4.886e-02		-45.403		1.629e-02		15.167
1		0.00		-9.60		5.475e-02		-42.835		1.855e-02		20.095
1		0.00		-9.20		5.818e-02		-38.394		1.986e-02		22.939
1		0.00		-8.80		6.056e-02		-41.519		2.038e-02		17.832
1		0.00		-8.40		6.005e-02		-42.366		2.077e-02		21.680
1		0.00		-8.00		5.909e-02		-45.047		2.042e-02		15.679
1		0.00		-7.60		5.963e-02		-48.137		2.086e-02		17.542
1		0.00		-7.20		5.829e-02		-45.851		2.076e-02		18.377
1		0.00		-6.80		5.504e-02		-51.501		1.831e-02		19.040
1		0.00		-6.40		5.433e-02		-47.863		1.658e-02		11.890
1		0.00		-6.00		5.279e-02		-49.608		1.584e-02		11.362
1		0.00		-5.60		5.035e-02		-49.358		1.482e-02		9.997
1		0.00		-5.20		4.841e-02		-49.919		1.341e-02		8.688
1		0.00		-4.80		4.631e-02		-49.024		1.224e-02		7.047
1		0.00		-4.40		4.348e-02		-51.636		1.081e-02		9.098
1		0.00		-4.00		4.098e-02		-50.746		9.702e-03		7.377
1		0.00		-3.60		3.710e-02		-50.486		8.449e-03		7.799
1		0.00		-3.20		3.320e-02		-50.035		7.398e-03		8.573
1		0.00		-2.80		2.917e-02		-50.006		6.569e-03		9.841
1		0.00		-2.40		2.502e-02		-49.168		5.746e-03		7.944
1		0.00		-2.00		2.099e-02		-49.799		4.533e-03		8.937
1		0.00		-1.60		1.650e-02		-47.322		3.554e-03		10.948
1		0.00		-1.20		1.238e-02		-50.984		2.722e-03		11.496
1		0.00		-0.80		7.483e-03		-46.700		2.093e-03		15.087
1		0.00		-0.40		2.830e-03		-57.763		1.128e-03		44.891
2		0.00		0.00		2.959e-03		90.085		1.423e-03		75.313
2		0.00		0.40		7.544e-03		128.989		2.616e-03		16.221
2		0.00		0.80		1.201e-02		132.553		2.986e-03		11.477
2		0.00		1.20		1.680e-02		129.547		4.102e-03		8.873
2		0.00		1.60		2.137e-02		131.042		5.132e-03		8.591
2		0.00		2.00		2.623e-02		131.557		6.467e-03		8.482
2		0.00		2.40		3.076e-02		131.464		7.655e-03		8.112
2		0.00		2.80		3.528e-02		131.724		8.480e-03		8.942
2		0.00		3.20		3.926e-02		131.894		9.240e-03		7.015
2		0.00		3.60		4.314e-02		131.348		1.037e-02		7.353
2		0.00		4.00		4.613e-02		130.957		1.150e-02		6.792
2		0.00		4.40		4.928e-02		131.357		1.292e-02		8.102
2		0.00		4.80		5.203e-02		130.668		1.461e-02		8.635
2		0.00		5.20		5.370e-02		129.540		1.564e-02		10.675
2		0.00		5.60		5.554e-02		128.465		1.639e-02		16.516
2		0.00		6.00		5.700e-02		128.952		1.677e-02		12.759
2		0.00		6.40		5.951e-02		126.515		1.817e-02		17.963
2		0.00		6.80		5.917e-02		130.973		1.903e-02		13.766
2		0.00		7.20		6.052e-02		126.875		2.099e-02		21.522
2		0.00		7.60		6.007e-02		129.481		2.059e-02		17.273
2		0.00		8.00		6.220e-02		125.063		2.275e-02		26.113
2		0.00		8.40		6.065e-02		128.470		2.255e-02		24.010
2		0.00		8.80		6.115e-02		129.628		2.200e-02		22.776
2		0.00		9.20		6.111e-02		128.153		2.261e-02		25.579
2		0.00		9.60		6.112e-02		122.791		2.428e-02		34.274
2		0.00		10.00		5.843e-02		125.101		2.284e-02		36.160
2		0.00		9.60		5.963e-02		128.524		2.147e-02		27.557
2		0.00		9.20		6.168e-02		128.883		2.065e-02		20.874
2		0.00		8.80		6.195e-02		129.871		2.044e-02		16.690
2		0.00		8.40		5.933e-02		131.019		1.902e-02		12.638
2		0.00		8.00		5.572e-02		130.812		1.751e-02		11.093
2		0.00		7.60		5.429e-02		129.718		1.650e-02		15.438
2		0.00		7.20		5.146e-02		131.568		1.530e-02		9.458
2		0.00		6.80		4.808e-02		131.887		1.355e-02		8.976
2		0.00		6.40		4.581e-02		131.900		1.263e-02		8.748
2		0.00		6.00		4.224e-02		132.233		1.118e-02		8.557
2		0.00		5.60		3.820e-02		133.071		1.021e-02		8.033
2		0.00		5.20		3.389e-02		133.861		9.384e-03		8.014
2		0.00		4.80		2.975e-02		134.684		8.244e-03		8.121
2		0.00		4.40		2.501e-02		132.093		7.104e-03		9.108
2		0.00		4.00		2.040e-02		133.754		5.789e-03		9.966
2		0.00		3.60		1.641e-02		135.779		4.698e-03		10.898
2		0.00		3.20		1.174e-02		135.550		3.599e-03		14.013
2		0.00		2.80		7.265e-03		125.944		2.632e-03		43.645
2		0.00		2.40		2.469e-03		26.274		1.052e-03		87.534
2		0.00		2.00		4.345e-03		-78.035		1.946e-03		27.242
2		0.00		1.60		9.707e-03		-59.299		2.743e-03		14.325
2		0.00		1.20		1.507e-02		-52.758		3.173e-03		10.746
2		0.00		0.80		2.098e-02		-50.600		4.297e-03		9.574
2		0.00		0.40		2.647e-02		-51.285		5.291e-03		7.834
2		0.00		0.00		3.131e-02		-50.279		6.251e-03		7.063
2		0.00		-0.40		3.549e-02		-51.463		7.060e-03		6.297
2		0.00		-0.80		3.796e-02		-49.850		7.725e-03		6.097
2		0.00		-1.20		4.182e-02		-51.515		9.085e-03		6.970
2		0.00		-1.60		4.450e-02		-51.303		9.619e-03		7.405
2		0.00		-2.00		4.570e-02		-51.426		1.023e-02		7.363
2		0.00		-2.40		4.722e-02		-51.695		1.121e-02		7.872
2		0.00		-2.80		4.878e-02		-51.828		1.218e-02		8.145
2		0.00		-3.20		4.955e-02		-52.545		1.336e-02		8.562
2		0.00		-3.60		5.165e-02		-52.857		1.403e-02		8.920
2		0.00		-4.00		5.124e-02		-52.564		1.462e-02		9.399
2		0.00		-4.40		5.248e-02		-51.001		1.580e-02		10.727
2		0.00		-4.80		5.244e-02		-51.200		1.623e-02		11.518
2		0.00		-5.20		5.319e-02		-50.741		1.714e-02		14.846
2		0.00		-5.60		5.537e-02		-49.739		1.764e-02		14.464
2		0.00		-6.00		5.742e-02		-48.442		1.817e-02		16.190
2		0.00		-6.40		5.903e-02		-44.603		1.952e-02		24.765
2		0.00		-6.80		6.151e-02		-46.549		2.053e-02		24.165
2		0.00		-7.20		6.242e-02		-41.283		2.120e-02		25.615
2		0.00		-7.60		6.662e-02		-44.821		2.203e-02		23.183
2		0.00		-8.00		6.518e-02		-44.333		2.213e-02		25.324
2		0.00		-8.40		6.566e-02		-45.627		2.144e-02		15.881
2		0.00		-8.80		6.218e-02		-39.501		2.099e-02		22.498
2		0.00		-9.20		6.098e-02		-41.101		1.997e-02		16.508
2		0.00		-9.60		5.565e-02		-41.214		1.897e-02		16.731
2		0.00		-10.00		4.870e-02		-43.522		1.704e-02		15.713
2		0.00		-9.60		5.308e-02		-42.998		1.961e-02		11.824
2		0.00		-9.20		5.614e-02		-41.215		1.890e-02		11.142
2		0.00		-8.80		5.735e-02		-40.057		1.733e-02		10.095
2		0.00		-8.40		6.041e-02		-40.946		1.792e-02		8.706
2		0.00		-8.00		5.945e-02		-40.969		1.568e-02		7.907
2		0.00		-7.60		5.791e-02		-42.669		1.571e-02		8.425
2		0.00		-7.20		5.874e-02		-43.717		1.550e-02		6.774
2		0.00		-6.80		5.687e-02		-45.973		1.609e-02		8.346
2		0.00		-6.40		5.524e-02		-47.163		1.628e-02		11.038
2		0.00		-6.00		5.249e-02		-47.451		1.546e-02		11.170
2		0.00		-5.60		5.002e-02		-47.804		1.438e-02		8.478
2		0.00		-5.20		4.796e-02		-48.289		1.403e-02		10.003
2		0.00		-4.80		4.508e-02		-50.344		1.334e-02		10.682
2		0.00		-4.40		4.217e-02		-53.441		1.260e-02		14.385
2		0.00		-4.00		3.928e-02		-54.404		1.132e-02		13.588
2		0.00		-3.60		3.584e-02		-53.730		1.033e-02		11.972
2		0.00		-3.20		3.305e-02		-51.629		8.826e-03		8.147
2		0.00		-2.80		2.968e-02		-49.323		7.134e-03		8.026
2		0.00		-2.40		2.578e-02		-50.016		5.892e-03		8.125
2		0.00		-2.00		2.177e-02		-50.920		4.812e-03		8.323
2		0.00		-1.60		1.692e-02		-49.774		3.666e-03		9.033
2		0.00		-1.20		1.251e-02		-49.353		2.936e-03		10.985
2		0.00		-0.80		7.735e-03		-49.304		2.064e-03		14.858
2		0.00		-0.40		3.526e-03		-57.042		1.576e-03		34.852
3		0.00		0.00		2.237e-03		65.734		1.009e-03		72.671
3		0.00		0.40		6.450e-03		124.032		2.404e-03		20.478
3		0.00		0.80		1.072e-02		126.874		3.613e-03		18.000
3		0.00		1.20		1.559e-02		128.253		4.918e-03		19.672
3		0.00		1.60		2.020e-02		127.397		6.000e-03		17.675
3		0.00		2.00		2.529e-02		129.151		7.150e-03		13.326
3		0.00		2.40		3.034e-02		130.312		7.999e-03		11.685
3		0.00		2.80		3.452e-02		130.426		9.055e-03		8.882
3		0.00		3.20		3.920e-02		131.991		9.574e-03		6.808
3		0.00		3.60		4.336e-02		133.152		9.913e-03		5.659
3		0.00		4.00		4.666e-02		133.580		1.031e-02		5.532
3		0.00		4.40		4.876e-02		132.124		1.101e-02		5.400
3		0.00		4.80		5.198e-02		133.057		1.195e-02		5.214
3		0.00		5.20		5.377e-02		132.044		1.325e-02		7.374
3		0.00		5.60		5.627e-02		131.579		1.472e-02		9.315
3		0.00		6.00		5.768e-02		132.315		1.591e-02		8.462
3		0.00		6.40		5.721e-02		130.365		1.769e-02		18.921
3		0.00		6.80		5.795e-02		125.286		1.952e-02		33.843
3		0.00		7.20		5.779e-02		131.404		1.975e-02		16.388
3		0.00		7.60		5.948e-02		129.238		2.126e-02		25.396
3		0.00		8.00		6.067e-02		127.575		2.228e-02		25.382
3		0.00		8.40		5.961e-02		127.201		2.157e-02		26.545
3		0.00		8.80		6.183e-02		126.715		2.364e-02		27.791
3		0.00		9.20		6.373e-02		129.784		2.442e-02		21.518
3		0.00		9.60		6.415e-02		135.105		2.365e-02		13.877
3		0.00		10.00		6.069e-02		135.855		1.897e-02		10.762
3		0.00		9.60		6.225e-02		135.985		1.867e-02		11.250
3		0.00		9.20		6.182e-02		136.385		1.696e-02		11.628
3		0.00		8.80		6.368e-02		135.742		1.715e-02		8.972
3		0.00		8.40		5.988e-02		134.438		1.610e-02		8.703
3		0.00		8.00		5.787e-02		133.514		1.634e-02		9.424
3		0.00		7.60		5.518e-02		130.436		1.686e-02		20.941
3		0.00		7.20		5.300e-02		133.359		1.598e-02		9.535
3		0.00		6.80		5.065e-02		129.385		1.562e-02		20.954
3		0.00		6.40		4.709e-02		128.154		1.428e-02		19.388
3		0.00		6.00		4.414e-02		128.267		1.319e-02		18.161
3		0.00		5.60		3.954e-02		128.942		1.210e-02		16.286
3		0.00		5.20		3.554e-02		131.048		1.054e-02		10.548
3		0.00		4.80		3.185e-02		134.973		8.457e-03		8.473
3		0.00		4.40		2.795e-02		135.180		7.025e-03		7.956
3		0.00		4.00		2.349e-02		135.813		5.607e-03		7.401
3		0.00		3.60		1.919e-02		135.265		4.957e-03		8.608
3		0.00		3.20		1.419e-02		137.301		3.845e-03		9.461
3		0.00		2.80		9.516e-03		135.607		2.868e-03		17.177
3		0.00		2.40		4.380e-03		113.698		1.950e-03		55.636
3		0.00		2.00		2.249e-03		-17.339		1.013e-03		73.735
3		0.00		1.60		5.993e-03		-63.452		2.370e-03		17.637
3		0.00		1.20		1.143e-02		-51.926		3.412e-03		12.389
3		0.00		0.80		1.653e-02		-51.151		4.321e-03		11.145
3		0.00		0.40		2.219e-02		-51.609		5.585e-03		8.807
3		0.00		0.00		2.783e-02		-50.488		5.878e-03		8.005
3		0.00		-0.40		3.238e-02		-50.859		6.418e-03		6.741
3		0.00		-0.80		3.642e-02		-50.019		6.970e-03		6.255
3		0.00		-1.20		4.003e-02		-49.790		7.700e-03		6.144
3		0.00		-1.60		4.205e-02		-50.712		8.914e-03		7.308
3		0.00		-2.00		4.425e-02		-50.739		1.058e-02		6.901
3		0.00		-2.40		4.553e-02		-49.930		1.263e-02		7.123
3		0.00		-2.80		4.668e-02		-51.682		1.453e-02		11.620
3		0.00		-3.20		4.863e-02		-54.220		1.482e-02		17.433
3		0.00		-3.60		4.962e-02		-55.497		1.546e-02		16.359
3		0.00		-4.00		5.271e-02		-53.482		1.518e-02		8.317
3		0.00		-4.40		5.546e-02		-50.376		1.376e-02		5.361
3		0.00		-4.80		5.722e-02		-49.494		1.297e-02		5.774
3		0.00		-5.20		5.722e-02		-48.863		1.324e-02		8.836
3		0.00		-5.60		5.818e-02		-46.694		1.361e-02		6.869
3		0.00		-6.00		5.978e-02		-47.446		1.668e-02		11.879
3		0.00		-6.40		5.889e-02		-47.521		1.761e-02		14.516
3		0.00		-6.80		6.015e-02		-43.905		1.855e-02		14.250
3		0.00		-7.20		6.316e-02		-41.465		1.950e-02		21.860
3		0.00		-7.60		6.491e-02		-41.214		1.883e-02		20.031
3		0.00		-8.00		6.796e-02		-43.465		1.867e-02		8.760
3		0.00		-8.40		6.567e-02		-41.250		1.664e-02		10.154
3		0.00		-8.80		6.199e-02		-38.180		1.488e-02		8.561
3		0.00		-9.20		5.930e-02		-40.445		1.580e-02		8.053
3		0.00		-9.60		5.559e-02		-43.874		1.723e-02		8.200
3		0.00		-10.00		4.850e-02		-41.263		1.546e-02		7.815
3		0.00		-9.60		5.525e-02		-43.371		1.895e-02		15.868
3		0.00		-9.20		5.837e-02		-40.337		2.038e-02		17.089
3		0.00		-8.80		6.111e-02		-41.757		1.901e-02		12.805
3		0.00		-8.40		6.343e-02		-42.111		1.690e-02		9.374
3		0.00		-8.00		6.149e-02		-40.717		1.408e-02		7.768
3		0.00		-7.60		6.172e-02		-43.883		1.619e-02		8.088
3		0.00		-7.20		5.813e-02		-44.352		1.730e-02		13.346
3		0.00		-6.80		5.641e-02		-45.279		1.785e-02		14.697
3		0.00		-6.40		5.540e-02		-50.311		1.735e-02		21.419
3		0.00		-6.00		5.414e-02		-48.368		1.669e-02		18.336
3		0.00		-5.60		5.395e-02		-48.860		1.395e-02		8.151
3		0.00		-5.20		5.192e-02		-48.126		1.048e-02		5.384
3		0.00		-4.80		4.793e-02		-49.351		9.398e-03		6.521
3		0.00		-4.40		4.418e-02		-49.269		9.492e-03		6.806
3		0.00		-4.00		4.007e-02		-50.243		9.989e-03		7.398
3		0.00		-3.60		3.644e-02		-50.975		9.697e-03		10.776
3		0.00		-3.20		3.301e-02		-51.145		9.155e-03		10.941
3		0.00		-2.80		2.973e-02		-48.923		7.516e-03		6.655
3		0.00		-2.40		2.657e-02		-50.993		5.480e-03		7.050
3		0.00		-2.00		2.231e-02		-49.075		4.272e-03		7.904
3		0.00		-1.60		1.783e-02		-48.333		3.673e-03		9.128
3		0.00		-1.20		1.278e-02		-48.487		3.252e-03		10.327
3		0.00		-0.80		8.213e-03		-45.759		2.498e-03		15.675
3		0.00		-0.40		4.043e-03		-48.310		1.877e-03		27.702
4		0.00		0.00		2.069e-03		35.470		8.701e-04		90.830
4		0.00		0.40		5.766e-03		130.735		1.967e-03		17.324
4		0.00		0.80		1.029e-02		133.286		2.721e-03		10.524
4		0.00		1.20		1.489e-02		130.648		3.642e-03		10.201
4		0.00		1.60		1.899e-02		131.177		5.167e-03		8.312
4		0.00		2.00		2.280e-02		131.648		6.974e-03		13.134
4		0.00		2.40		2.771e-02		128.356		8.328e-03		19.800
4		0.00		2.80		3.196e-02		128.814		9.343e-03		12.557
4		0.00		3.20		3.698e-02		131.962		9.216e-03		7.450
4		0.00		3.60		4.178e-02		133.017		8.855e-03		5.374
4		0.00		4.00		4.442e-02		133.182		8.935e-03		5.659
4		0.00		4.40		4.729e-02		132.680		1.094e-02		7.499
4		0.00		4.80		5.025e-02		132.079		1.284e-02		8.448
4		0.00		5.20		5.257e-02		131.539		1.484e-02		9.688
4		0.00		5.60		5.520e-02		129.074		1.651e-02		16.782
4		0.00		6.00		5.760e-02		127.579		1.711e-02		19.213
4		0.00		6.40		6.036e-02		129.192		1.795e-02		16.999
4		0.00		6.80		6.190e-02		134.200		1.592e-02		9.169
4		0.00		7.20		6.230e-02		135.184		1.531e-02		7.784
4		0.00		7.60		6.101e-02		137.014		1.550e-02		8.846
4		0.00		8.00		6.362e-02		136.283		1.762e-02		9.890
4		0.00		8.40		6.239e-02		123.547		2.092e-02		38.922
4		0.00		8.80		6.263e-02		131.892		2.227e-02		24.645
4		0.00		9.20		6.224e-02		125.005		2.340e-02		42.212
4		0.00		9.60		6.415e-02		125.952		2.467e-02		24.418
4		0.00		10.00		6.305e-02		130.757		2.355e-02		19.818
4		0.00		9.60		6.667e-02		130.726		2.331e-02		8.722
4		0.00		9.20		6.474e-02		133.479		1.925e-02		10.723
4		0.00		8.80		6.271e-02		136.650		1.665e-02		8.611
4		0.00		8.40		6.053e-02		129.817		1.784e-02		24.826
4		0.00		8.00		5.851e-02		133.188		1.788e-02		10.187
4		0.00		7.60		5.623e-02		130.392		1.765e-02		20.402
4		0.00		7.20		5.563e-02		128.101		1.661e-02		17.647
4		0.00		6.80		5.214e-02		129.750		1.518e-02		15.126
4		0.00		6.40		4.967e-02		133.186		1.169e-02		5.619
4		0.00		6.00		4.564e-02		133.866		1.007e-02		5.593
4		0.00		5.60		4.183e-02		133.365		9.320e-03		6.904
4		0.00		5.20		3.724e-02		133.148		9.330e-03		7.682
4		0.00		4.80		3.288e-02		133.437		9.513e-03		10.299
4		0.00		4.40		2.829e-02		130.274		8.556e-03		17.477
4		0.00		4.00		2.393e-02		130.162		7.284e-03		16.967
4		0.00		3.60		1.930e-02		135.918		5.681e-03		9.195
4		0.00		3.20		1.446e-02		136.964		3.833e-03		9.285
4		0.00		2.80		9.566e-03		137.433		2.663e-03		11.091
4		0.00		2.40		4.264e-03		111.358		1.774e-03		68.751
4		0.00		2.00		2.170e-03		-53.061		1.066e-03		67.743
4		0.00		1.60		6.070e-03		-56.735		2.243e-03		16.726
4		0.00		1.20		1.149e-02		-54.574		3.876e-03		14.417
4		0.00		0.80		1.700e-02		-54.211		4.851e-03		10.157
4		0.00		0.40		2.274e-02		-51.388		5.095e-03		7.300
4		0.00		0.00		2.802e-02		-50.864		5.688e-03		5.702
4		0.00		-0.40		3.297e-02		-51.182		5.870e-03		6.745
4		0.00		-0.80		3.697e-02		-50.511		7.240e-03		7.506
4		0.00		-1.20		3.937e-02		-51.231		8.319e-03		8.050
4		0.00		-1.60		4.203e-02		-50.994		1.052e-02		8.221
4		0.00		-2.00		4.474e-02		-51.758		1.181e-02		14.443
4		0.00		-2.40		4.768e-02		-53.720		1.268e-02		14.346
4		0.00		-2.80		5.013e-02		-52.539		1.261e-02		7.639
4		0.00		-3.20		5.307e-02		-50.914		1.140e-02		5.151
4		0.00		-3.60		5.507e-02		-51.152		1.082e-02		5.164
4		0.00		-4.00		5.507e-02		-51.514		1.183e-02		7.082
4		0.00		-4.40		5.577e-02		-51.257		1.367e-02		9.536
4		0.00		-4.80		5.542e-02		-50.794		1.552e-02		11.233
4		0.00		-5.20		5.590e-02		-50.477		1.737e-02		15.846
4		0.00		-5.60		5.830e-02		-50.334		1.897e-02		19.735
4		0.00		-6.00		5.955e-02		-46.426		1.892e-02		18.660
4		0.00		-6.40		6.232e-02		-46.691		1.826e-02		8.525
4		0.00		-6.80		6.389e-02		-45.146		1.663e-02		8.022
4		0.00		-7.20		6.379e-02		-44.540		1.340e-02		6.771
4		0.00		-7.60		6.224e-02		-40.420		1.415e-02		9.253
4		0.00		-8.00		6.312e-02		-39.513		1.619e-02		10.553
4		0.00		-8.40		6.205e-02		-40.422		1.739e-02		9.704
4		0.00		-8.80		5.961e-02		-38.340		1.896e-02		14.864
4		0.00		-9.20		5.959e-02		-41.276		1.911e-02		18.764
4		0.00		-9.60		5.651e-02		-39.218		1.849e-02		18.202
4		0.00		-10.00		4.970e-02		-46.165		1.579e-02		15.431
4		0.00		-9.60		5.700e-02		-43.117		1.762e-02		7.401
4		0.00		-9.20		5.983e-02		-39.730		1.603e-02		7.397
4		0.00		-8.80		6.135e-02		-40.813		1.503e-02		7.271
4		0.00		-8.40		6.235e-02		-40.091		1.425e-02		4.691
4		0.00		-8.00		6.229e-02		-41.194		1.619e-02		8.849
4		0.00		-7.60		5.988e-02		-43.684		1.780e-02		11.903
4		0.00		-7.20		5.763e-02		-47.053		1.848e-02		14.014
4		0.00		-6.80		5.584e-02		-47.772		1.814e-02		14.640
4		0.00		-6.40		5.383e-02		-50.668		1.778e-02		18.705
4		0.00		-6.00		5.335e-02		-51.946		1.749e-02		17.400
4		0.00		-5.60		5.046e-02		-50.513		1.601e-02		9.862
4		0.00		-5.20		4.912e-02		-48.299		1.356e-02		5.443
4		0.00		-4.80		4.706e-02		-49.036		1.160e-02		5.098
4		0.00		-4.40		4.351e-02		-49.961		9.579e-03		6.431
4		0.00		-4.00		4.042e-02		-49.806		8.093e-03		6.077
4		0.00		-3.60		3.674e-02		-49.797		7.493e-03		6.746
4		0.00		-3.20		3.333e-02		-49.480		7.064e-03		7.188
4		0.00		-2.80		2.943e-02		-48.782		6.325e-03		7.302
4		0.00		-2.40		2.536e-02		-47.908		5.573e-03		7.491
4		0.00		-2.00		2.104e-02		-48.292		5.030e-03		8.676
4		0.00		-1.60		1.635e-02		-47.347		4.139e-03		11.011
4		0.00		-1.20		1.238e-02		-50.971		3.210e-03		14.091
4		0.00		-0.80		7.685e-03		-47.325		2.135e-03		14.538
4		0.00		-0.40		3.168e-03		-53.493		1.301e-03		28.442
5		0.00		0.00		2.484e-03		63.078		1.209e-03		83.978
5		0.00		0.40		6.398e-03		131.128		2.115e-03		13.761
5		0.00		0.80		1.083e-02		130.544		2.821e-03		12.017
5		0.00		1.20		1.577e-02		137.171		3.658e-03		8.157
5		0.00		1.60		2.014e-02		131.975		4.605e-03		7.264
5		0.00		2.00		2.468e-02		132.202		5.436e-03		6.803
5		0.00		2.40		2.957e-02		132.859		6.601e-03		6.578
5		0.00		2.80		3.334e-02		132.186		7.830e-03		6.326
5		0.00		3.20		3.699e-02		132.496		9.144e-03		5.948
5		0.00		3.60		4.056e-02		132.757		1.077e-02		7.622
5		0.00		4.00		4.361e-02		133.073		1.178e-02		7.953
5		0.00		4.40		4.749e-02		131.903		1.317e-02		11.395
5		0.00		4.80		5.069e-02		131.512		1.428e-02		13.920
5		0.00		5.20		5.488e-02		128.697		1.530e-02		17.617
5		0.00		5.60		5.727e-02		128.196		1.622e-02		17.412
5		0.00		6.00		5.950e-02		128.149		1.692e-02		16.790
5		0.00		6.40		6.238e-02		128.889		1.809e-02		15.998
5		0.00		6.80		6.267e-02		132.004		1.714e-02		15.116
5		0.00		7.20		6.385e-02		134.394		1.651e-02		8.545
5		0.00		7.60		6.592e-02		136.109		1.667e-02		9.062
5		0.00		8.00		6.626e-02		138.402		1.619e-02		7.678
5		0.00		8.40		6.440e-02		137.050		1.741e-02		11.301
5		0.00		8.80		6.533e-02		138.104		1.859e-02		10.617
5		0.00		9.20		6.504e-02		137.864		1.840e-02		12.380
5		0.00		9.60		6.445e-02		132.717		2.004e-02		14.341
5		0.00		10.00		6.062e-02		136.336		1.920e-02		12.296
5		0.00		9.60		6.212e-02		129.674		2.056e-02		19.403
5		0.00		9.20		5.961e-02		132.377		1.981e-02		28.549
5		0.00		8.80		5.932e-02		127.083		2.030e-02		37.062
5		0.00		8.40		5.934e-02		130.956		1.928e-02		24.388
5		0.00		8.00		5.849e-02		128.358		1.891e-02		26.919
5		0.00		7.60		5.776e-02		129.167		1.752e-02		18.496
5		0.00		7.20		5.559e-02		128.648		1.679e-02		15.694
5		0.00		6.80		5.185e-02		128.385		1.505e-02		17.004
5		0.00		6.40		4.858e-02		129.967		1.396e-02		12.857
5		0.00		6.00		4.519e-02		130.608		1.275e-02		11.705
5		0.00		5.60		4.122e-02		132.042		1.058e-02		7.520
5		0.00		5.20		3.730e-02		132.951		8.743e-03		6.240
5		0.00		4.80		3.375e-02		134.510		7.555e-03		6.224
5		0.00		4.40		2.921e-02		134.184		6.303e-03		6.779
5		0.00		4.00		2.423e-02		135.868		5.517e-03		7.443
5		0.00		3.60		1.885e-02		136.999		4.344e-03		7.712
5		0.00		3.20		1.392e-02		136.717		3.307e-03		8.461
5		0.00		2.80		8.918e-03		141.504		2.471e-03		11.348
5		0.00		2.40		3.721e-03		100.914		1.475e-03		76.583
5		0.00		2.00		2.612e-03		-52.090		1.087e-03		56.878
5		0.00		1.60		6.739e-03		-64.846		2.075e-03		15.887
5		0.00		1.20		1.193e-02		-51.479		2.918e-03		11.962
5		0.00		0.80		1.672e-02		-52.937		4.648e-03		12.057
5		0.00		0.40		2.209e-02		-50.747		5.762e-03		10.448
5		0.00		0.00		2.698e-02		-50.162		7.046e-03		11.158
5		0.00		-0.40		3.174e-02		-51.734		7.904e-03		11.103
5		0.00		-0.80		3.609e-02		-52.213		9.337e-03		12.101
5		0.00		-1.20		3.906e-02		-52.078		1.033e-02		10.667
5		0.00		-1.60		4.145e-02		-52.541		1.093e-02		10.467
5		0.00		-2.00		4.483e-02		-51.290		1.128e-02		6.183
5		0.00		-2.40		4.756e-02		-51.541		1.145e-02		5.758
5		0.00		-2.80		5.069e-02		-51.000		1.213e-02		5.873
5		0.00		-3.20		5.294e-02		-51.952		1.231e-02		6.428
5		0.00		-3.60		5.485e-02		-51.082		1.237e-02		5.207
5		0.00		-4.00		5.673e-02		-51.141		1.315e-02		5.844
5		0.00		-4.40		5.784e-02		-49.894		1.329e-02		4.982
5		0.00		-4.80		5.808e-02		-49.681		1.351e-02		6.356
5		0.00		-5.20		5.987e-02		-48.367		1.384e-02		6.649
5		0.00		-5.60		6.048e-02		-47.395		1.337e-02		6.322
5		0.00		-6.00		6.098e-02		-43.881		1.274e-02		5.200
5		0.00		-6.40		6.191e-02		-42.509		1.386e-02		7.182
5		0.00		-6.80		5.976e-02		-40.882		1.381e-02		8.887
5		0.00		-7.20		6.154e-02		-42.689		1.669e-02		11.973
5		0.00		-7.60		6.108e-02		-42.415		1.724e-02		16.011
5		0.00		-8.00		6.235e-02		-44.457		1.766e-02		15.213
5		0.00		-8.40		6.083e-02		-42.232		1.814e-02		19.230
5		0.00		-8.80		6.101e-02		-43.026		1.981e-02		16.175
5		0.00		-9.20		6.030e-02		-38.804		1.997e-02		19.159
5		0.00		-9.60		5.539e-02		-43.944		1.830e-02		18.703
5		0.00		-10.00		4.825e-02		-44.866		1.569e-02		17.673
5		0.00		-9.60		5.408e-02		-43.894		1.741e-02		17.983
5		0.00		-9.20		5.886e-02		-39.420		1.835e-02		21.892
5		0.00		-8.80		6.224e-02		-43.071		1.869e-02		23.393
5		0.00		-8.40		6.266e-02		-43.717		1.786e-02		13.280
5		0.00		-8.00		6.469e-02		-43.102		1.759e-02		8.213
5		0.00		-7.60		6.231e-02		-43.311		1.517e-02		7.278
5		0.00		-7.20		6.110e-02		-43.819		1.374e-02		5.482
5		0.00		-6.80		5.974e-02		-44.263		1.341e-02		5.126
5		0.00		-6.40		5.685e-02		-46.679		1.312e-02		7.857
5		0.00		-6.00		5.414e-02		-47.743		1.292e-02		9.224
5		0.00		-5.60		5.138e-02		-47.487		1.234e-02		7.502
5		0.00		-5.20		4.868e-02		-46.559		1.183e-02		6.007
5		0.00		-4.80		4.546e-02		-48.851		1.221e-02		6.337
5		0.00		-4.40		4.266e-02		-49.369		1.121e-02		6.760
5		0.00		-4.00		3.932e-02		-50.262		1.036e-02		7.298
5		0.00		-3.60		3.610e-02		-52.222		9.399e-03		11.364
5		0.00		-3.20		3.244e-02		-50.715		8.760e-03		13.270
5		0.00		-2.80		2.905e-02		-51.032		7.445e-03		11.773
5		0.00		-2.40		2.536e-02		-49.387		6.522e-03		8.716
5		0.00		-2.00		2.102e-02		-49.353		4.862e-03		8.357
5		0.00		-1.60		1.679e-02		-45.863		3.576e-03		9.809
5		0.00		-1.20		1.251e-02		-47.251		2.609e-03		10.001
5		0.00		-0.80		7.895e-03		-43.092		1.721e-03		12.280
5		0.00		-0.40		3.470e-03		-57.667		1.208e-03		26.227
6		0.00		0.00		2.454e-03		67.388		1.077e-03		84.980
6		0.00		0.40		6.379e-03		129.000		2.086e-03		27.061
6		0.00		0.80		1.081e-02		134.662		3.043e-03		10.960
6		0.00		1.20		1.510e-02		131.380		4.511e-03		11.456
6		0.00		1.60		1.920e-02		130.168		5.700e-03		10.382
6		0.00		2.00		2.391e-02		128.713		6.947e-03		14.289
6		0.00		2.40		2.833e-02		128.848		8.337e-03		17.597
6		0.00		2.80		3.262e-02		128.475		9.883e-03		18.926
6		0.00		3.20		3.623e-02		129.071		1.103e-02		13.994
6		0.00		3.60		4.066e-02		131.289		1.109e-02		8.892
6		0.00		4.00		4.531e-02		132.500		1.055e-02		6.261
6		0.00		4.40		4.975e-02		133.333		1.069e-02		5.489
6		0.00		4.80		5.283e-02		133.591		1.084e-02		4.727
6		0.00		5.20		5.487e-02		133.667		1.144e-02		5.458
6		0.00		5.60		5.731e-02		133.326		1.267e-02		7.022
6		0.00		6.00		5.928e-02		134.270		1.323e-02		7.021
6		0.00		6.40		5.985e-02		133.344		1.544e-02		9.498
6		0.00		6.80		6.144e-02		131.454		1.648e-02		26.542
6		0.00		7.20		6.040e-02		134.439		1.769e-02		14.643
6		0.00		7.60		6.175e-02		131.410		1.945e-02		30.966
6		0.00		8.00		6.305e-02		130.668		2.077e-02		27.845
6		0.00		8.40		6.479e-02		128.683		2.250e-02		28.874
6		0.00		8.80		6.442e-02		131.111		2.178e-02		29.794
6		0.00		9.20		6.480e-02		132.433		2.239e-02		21.067
6		0.00		9.60		6.374e-02		135.244		2.124e-02		27.416
6		0.00		10.00		6.210e-02		135.984		2.085e-02		15.751
6		0.00		9.60		6.407e-02		134.570		1.928e-02		11.512
6		0.00		9.20		6.552e-02		135.691		1.874e-02		11.254
6		0.00		8.80		6.308e-02		136.063		1.621e-02		8.016
6		0.00		8.40		6.143e-02		135.677		1.562e-02		7.620
6		0.00		8.00		5.956e-02		133.268		1.614e-02		7.761
6		0.00		7.60		5.778e-02		133.088		1.605e-02		7.839
6		0.00		7.20		5.379e-02		135.935		1.540e-02		7.156
6		0.00		6.80		5.142e-02		132.448		1.502e-02		12.719
6		0.00		6.40		4.818e-02		129.981		1.397e-02		16.173
6		0.00		6.00		4.456e-02		128.272		1.292e-02		16.920
6		0.00		5.60		4.134e-02		132.066		1.128e-02		10.434
6		0.00		5.20		3.712e-02		134.075		9.214e-03		6.552
6		0.00		4.80		3.373e-02		134.900		7.468e-03		6.377
6		0.00		4.40		2.932e-02		135.093		6.547e-03		5.988
6		0.00		4.00		2.441e-02		136.233		5.478e-03		7.044
6		0.00		3.60		1.934e-02		136.690		4.428e-03		7.451
6		0.00		3.20		1.483e-02		137.729		3.852e-03		10.293
6		0.00		2.80		9.228e-03		135.164		3.051e-03		16.410
6		0.00		2.40		4.143e-03		114.929		1.713e-03		63.014
6		0.00		2.00		2.271e-03		-35.428		9.436e-04		67.450
6		0.00		1.60		6.079e-03		-59.300		2.065e-03		18.899
6		0.00		1.20		1.147e-02		-56.008		3.466e-03		13.367
6		0.00		0.80		1.653e-02		-51.777		4.604e-03		10.946
6		0.00		0.40		2.195e-02		-50.772		5.195e-03		9.213
6		0.00		0.00		2.720e-02		-50.810		5.479e-03		6.987
6		0.00		-0.40		3.156e-02		-49.084		5.807e-03		6.039
6		0.00		-0.80		3.508e-02		-50.232		6.558e-03		5.270
6		0.00		-1.20		3.859e-02		-49.397		7.369e-03		6.577
6		0.00		-1.60		4.141e-02		-50.010		8.543e-03		6.152
6		0.00		-2.00		4.488e-02		-50.194		9.918e-03		6.260
6		0.00		-2.40		4.748e-02		-50.403		1.188e-02		6.982
6		0.00		-2.80		4.895e-02		-49.350		1.252e-02		6.848
6		0.00		-3.20		5.079e-02		-51.769		1.314e-02		8.983
6		0.00		-3.60		5.267e-02		-53.154		1.393e-02		11.367
6		0.00		-4.00		5.458e-02		-53.148		1.533e-02		12.208
6		0.00		-4.40		5.555e-02		-51.978		1.593e-02		8.477
6		0.00		-4.80		5.738e-02		-49.033		1.529e-02		6.722
6		0.00		-5.20		5.905e-02		-47.795		1.462e-02		5.454
6		0.00		-5.60		5.944e-02		-46.707		1.382e-02		5.541
6		0.00		-6.00		5.911e-02		-44.361		1.345e-02		5.849
6		0.00		-6.40		6.034e-02		-46.873		1.547e-02		10.671
6		0.00		-6.80		6.094e-02		-45.001		1.683e-02		8.775
6		0.00		-7.20		5.881e-02		-45.249		1.726e-02		12.756
6		0.00		-7.60		5.994e-02		-45.758		1.846e-02		15.860
6		0.00		-8.00		6.116e-02		-41.145		2.035e-02		19.906
6		0.00		-8.40		6.473e-02		-44.965		2.085e-02		16.325
6		0.00		-8.80		6.326e-02		-45.927		1.958e-02		18.557
6		0.00		-9.20		6.050e-02		-36.120		1.962e-02		16.573
6		0.00		-9.60		5.588e-02		-42.612		1.825e-02		11.642
6		0.00		-10.00		4.908e-02		-42.108		1.489e-02		7.239
6		0.00		-9.60		5.562e-02		-41.674		1.573e-02		5.443
6		0.00		-9.20		5.819e-02		-40.406		1.541e-02		7.129
6		0.00		-8.80		5.959e-02		-38.778		1.490e-02		7.935
6		0.00		-8.40		6.259e-02		-39.452		1.512e-02		6.982
6		0.00		-8.00		6.180e-02		-41.388		1.747e-02		11.584
6		0.00		-7.60		6.062e-02		-43.471		1.869e-02		12.564
6		0.00		-7.20		5.878e-02		-46.953		1.906e-02		18.058
6		0.00		-6.80		5.691e-02		-48.199		1.878e-02		15.628
6		0.00		-6.40		5.520e-02		-50.772		1.820e-02		18.599
6		0.00		-6.00		5.423e-02		-48.903		1.769e-02		14.971
6		0.00		-5.60		5.137e-02		-50.250		1.591e-02		9.450
6		0.00		-5.20		4.886e-02		-49.282		1.391e-02		8.384
6		0.00		-4.80		4.632e-02		-48.400		1.124e-02		5.053
6		0.00		-4.40		4.374e-02		-49.105		9.630e-03		5.139
6		0.00		-4.00		3.967e-02		-50.506		8.432e-03		5.690
6		0.00		-3.60		3.663e-02		-50.563		7.443e-03		6.072
6		0.00		-3.20		3.311e-02		-48.967		6.752e-03		6.376
6		0.00		-2.80		2.903e-02		-48.665		6.365e-03		6.805
6		0.00		-2.40		2.506e-02		-48.637		6.142e-03		8.606
6		0.00		-2.00		2.045e-02		-48.919		5.182e-03		9.293
6		0.00		-1.60		1.646e-02		-49.137		4.369e-03		12.022
6		0.00		-1.20		1.178e-02		-50.566		3.151e-03		13.470
6		0.00		-0.80		7.347e-03		-47.081		2.191e-03		17.076
6		0.00		-0.40		3.208e-03		-51.759		1.286e-03		32.552
7		0.00		0.00		2.649e-03		65.550		1.183e-03		81.076
7		0.00		0.40		6.828e-03		128.496		2.170e-03		14.967
7		0.00		0.80		1.131e-02		131.795		2.953e-03		11.070
7		0.00		1.20		1.581e-02		134.327		3.576e-03		7.907
7		0.00		1.60		2.009e-02		132.152		4.512e-03		8.091
7		0.00		2.00		2.447e-02		133.287		5.552e-03		6.413
7		0.00		2.40		2.917e-02		132.838		6.830e-03		6.085
7		0.00		2.80		3.327e-02		132.718		8.168e-03		5.725
7		0.00		3.20		3.730e-02		132.073		9.842e-03		6.987
7		0.00		3.60		4.057e-02		132.082		1.131e-02		9.521
7		0.00		4.00		4.413e-02		131.959		1.249e-02		11.929
7		0.00		4.40		4.810e-02		131.013		1.345e-02		13.626
7		0.00		4.80		5.193e-02		129.769		1.452e-02		16.878
7		0.00		5.20		5.513e-02		128.824		1.529e-02		18.207
7		0.00		5.60		5.837e-02		128.602		1.650e-02		17.484
7		0.00		6.00		6.033e-02		129.992		1.673e-02		13.570
7		0.00		6.40		6.261e-02		133.065		1.691e-02		7.255
7		0.00		6.80		6.359e-02		134.756		1.633e-02		7.883
7		0.00		7.20		6.501e-02		136.331		1.594e-02		8.371
7		0.00		7.60		6.748e-02		136.982		1.650e-02		7.799
7		0.00		8.00		6.596e-02		140.541		1.696e-02		11.584
7		0.00		8.40		6.426e-02		138.421		1.692e-02		10.800
7		0.00		8.80		6.374e-02		141.777		1.769e-02		11.128
7		0.00		9.20		6.535e-02		137.337		1.886e-02		11.602
7		0.00		9.60		6.413e-02		135.892		1.945e-02		12.221
7		0.00		10.00		6.044e-02		134.110		1.931e-02		15.678
7		0.00		9.60		6.116e-02		129.821		1.991e-02		33.559
7		0.00		9.20		6.060e-02		132.026		2.074e-02		19.372
7		0.00		8.80		6.007e-02		128.658		2.035e-02		37.007
7		0.00		8.40		5.902e-02		130.461		1.999e-02		28.979
7		0.00		8.00		5.819e-02		131.830		1.888e-02		18.956
7		0.00		7.60		5.730e-02		130.242		1.761e-02		20.149
7		0.00		7.20		5.510e-02		129.272		1.690e-02		17.437
7		0.00		6.80		5.324e-02		129.107		1.577e-02		15.500
7		0.00		6.40		4.911e-02		129.468		1.428e-02		15.403
7		0.00		6.00		4.588e-02		129.585		1.305e-02		12.824
7		0.00		5.60		4.163e-02		131.573		1.126e-02		8.298
7		0.00		5.20		3.749e-02		133.079		9.174e-03		8.209
7		0.00		4.80		3.334e-02		133.325		8.130e-03		6.805
7		0.00		4.40		2.890e-02		134.612		6.548e-03		6.569
7		0.00		4.00		2.369e-02		135.637		5.372e-03		7.279
7		0.00		3.60		1.878e-02		135.503		4.401e-03		6.988
7		0.00		3.20		1.390e-02		136.501		3.440e-03		8.664
7		0.00		2.80		8.621e-03		142.533		2.325e-03		10.544
7		0.00		2.40		3.450e-03		100.219		1.548e-03		77.212
7		0.00		2.00		3.043e-03		-60.266		1.308e-03		35.601
7		0.00		1.60		8.141e-03		-55.716		2.231e-03		13.402
7		0.00		1.20		1.353e-02		-54.042		3.157e-03		11.570
7		0.00		0.80		1.872e-02		-49.967		4.481e-03		8.862
7		0.00		0.40		2.384e-02		-49.185		5.672e-03		7.480
7		0.00		0.00		2.842e-02		-48.875		6.289e-03		7.500
7		0.00		-0.40		3.297e-02		-49.258		7.531e-03		7.719
7		0.00		-0.80		3.685e-02		-49.791		8.781e-03		7.242
7		0.00		-1.20		4.007e-02		-50.720		9.826e-03		8.453
7		0.00		-1.60		4.304e-02		-50.783		1.091e-02		8.569
7		0.00		-2.00		4.499e-02		-51.373		1.158e-02		10.848
7		0.00		-2.40		4.745e-02		-52.507		1.241e-02		14.005
7		0.00		-2.80		4.970e-02		-52.621		1.302e-02		12.513
7		0.00		-3.20		5.153e-02		-54.340		1.400e-02		14.652
7		0.00		-3.60		5.347e-02		-54.192		1.474e-02		13.528
7		0.00		-4.00		5.289e-02		-54.505		1.603e-02		15.816
7		0.00		-4.40		5.443e-02		-53.909		1.697e-02		13.687
7		0.00		-4.80		5.482e-02		-51.546		1.668e-02		11.422
7		0.00		-5.20		5.663e-02		-49.568		1.666e-02		8.348
7		0.00		-5.60		5.892e-02		-47.483		1.674e-02		7.342
7		0.00		-6.00		6.049e-02		-45.781		1.627e-02		8.111
7		0.00		-6.40		6.201e-02		-44.957		1.578e-02		7.493
7		0.00		-6.80		6.289e-02		-42.833		1.547e-02		7.955
7		0.00		-7.20		6.549e-02		-41.494		1.543e-02		9.039
7		0.00		-7.60		6.488e-02		-41.060		1.398e-02		9.628
7		0.00		-8.00		6.574e-02		-41.057		1.410e-02		9.615
7		0.00		-8.40		6.356e-02		-39.258		1.402e-02		9.808
7		0.00		-8.80		6.020e-02		-37.481		1.396e-02		9.768
7		0.00		-9.20		5.851e-02		-38.971		1.453e-02		7.860
7		0.00		-9.60		5.581e-02		-40.529		1.473e-02		5.762
7		0.00		-10.00		4.970e-02		-40.969		1.321e-02		4.995
7		0.00		-9.60		5.609e-02		-42.483		1.514e-02		6.672
7		0.00		-9.20		5.910e-02		-38.278		1.548e-02		6.368
7		0.00		-8.80		6.154e-02		-38.275		1.627e-02		7.706
7		0.00		-8.40		6.293e-02		-40.540		1.744e-02		9.061
7		0.00		-8.00		6.151e-02		-39.513		1.793e-02		11.104
7		0.00		-7.60		6.080e-02		-44.172		1.824e-02		13.167
7		0.00		-7.20		5.975e-02		-46.112		1.770e-02		11.064
7		0.00		-6.80		5.726e-02		-46.274		1.746e-02		10.728
7		0.00		-6.40		5.433e-02		-46.095		1.584e-02		10.456
7		0.00		-6.00		5.262e-02		-46.941		1.563e-02		9.173
7		0.00		-5.60		5.054e-02		-46.801		1.520e-02		7.776
7		0.00		-5.20		4.808e-02		-47.488		1.400e-02		8.181
7		0.00		-4.80		4.525e-02		-48.304		1.329e-02		6.794
7		0.00		-4.40		4.308e-02		-48.547		1.181e-02		8.162
7		0.00		-4.00		3.985e-02		-49.747		1.051e-02		9.398
7		0.00		-3.60		3.635e-02		-51.624		9.384e-03		12.109
7		0.00		-3.20		3.276e-02		-50.501		8.352e-03		9.981
7		0.00		-2.80		2.895e-02		-49.828		7.424e-03		11.720
7		0.00		-2.40		2.519e-02		-50.773		6.456e-03		10.772
7		0.00		-2.00		2.087e-02		-50.581		5.443e-03		10.893
7		0.00		-1.60		1.659e-02		-49.974		4.158e-03		10.647
7		0.00		-1.20		1.176e-02		-45.169		3.187e-03		12.232
7		0.00		-0.80		7.250e-03		-43.019		2.246e-03		16.803
7		0.00		-0.40		3.055e-03		-43.591		1.557e-03		33.802
8		0.00		0.00		2.370e-03		74.922		1.018e-03		66.763
8		0.00		0.40		6.973e-03		126.656		2.512e-03		21.199
8		0.00		0.80		1.111e-02		128.979		3.507e-03		21.149
8		0.00		1.20		1.523e-02		131.005		4.455e-03		12.309
8		0.00		1.60		1.989e-02		129.006		6.041e-03		14.228
8		0.00		2.00		2.379e-02		128.328		7.012e-03		14.131
8		0.00		2.40		2.873e-02		129.130		8.543e-03		16.254
8		0.00		2.80		3.309e-02		129.896		9.357e-03		11.634
8		0.00		3.20		3.770e-02		129.837		1.021e-02		11.946
8		0.00		3.60		4.171e-02		130.915		1.095e-02		10.711
8		0.00		4.00		4.520e-02		129.365		1.248e-02		12.537
8		0.00		4.40		4.940e-02		130.636		1.334e-02		10.052
8		0.00		4.80		5.245e-02		129.802		1.423e-02		11.455
8		0.00		5.20		5.573e-02		129.505		1.568e-02		13.478
8		0.00		5.60		5.825e-02		129.554		1.616e-02		11.690
8		0.00		6.00		5.968e-02		128.977		1.720e-02		15.985
8		0.00		6.40		6.201e-02		128.970		1.787e-02		17.007
8		0.00		6.80		6.325e-02		129.814		1.835e-02		18.455
8		0.00		7.20		6.358e-02		131.053		1.965e-02		17.219
8		0.00		7.60		6.363e-02		130.503		2.096e-02		21.364
8		0.00		8.00		6.306e-02		134.407		1.991e-02		17.183
8		0.00		8.40		6.408e-02		131.520		2.144e-02		27.944
8		0.00		8.80		6.677e-02		132.313		2.175e-02		19.065
8		0.00		9.20		6.563e-02		129.344		2.259e-02		29.221
8		0.00		9.60		6.523e-02		127.922		2.339e-02		43.074
8		0.00		10.00		6.458e-02		127.372		2.457e-02		33.882
8		0.00		9.60		6.329e-02		130.636		2.195e-02		27.363
8		0.00		9.20		6.698e-02		129.175		2.212e-02		23.798
8		0.00		8.80		6.393e-02		132.118		1.930e-02		24.195
8		0.00		8.40		6.367e-02		130.444		1.971e-02		23.053
8		0.00		8.00		6.282e-02		127.618		1.940e-02		24.012
8		0.00		7.60		6.066e-02		128.682		1.828e-02		19.819
8		0.00		7.20		5.697e-02		129.020		1.657e-02		17.972
8		0.00		6.80		5.405e-02		130.046		1.575e-02		15.376
8		0.00		6.40		5.019e-02		130.891		1.460e-02		13.076
8		0.00		6.00		4.653e-02		131.546		1.342e-02		13.989
8		0.00		5.60		4.233e-02		132.538		1.198e-02		10.561
8		0.00		5.20		3.763e-02		134.014		1.106e-02		9.240
8		0.00		4.80		3.336e-02		133.207		1.005e-02		10.069
8		0.00		4.40		2.849e-02		133.965		8.498e-03		10.899
8		0.00		4.00		2.371e-02		134.422		7.049e-03		9.762
8		0.00		3.60		1.984e-02		135.373		5.980e-03		11.079
8		0.00		3.20		1.486e-02		136.611		4.416e-03		11.984
8		0.00		2.80		1.005e-02		133.462		3.269e-03		14.758
8		0.00		2.40		4.998e-03		124.402		1.899e-03		43.029
8		0.00		2.00		2.219e-03		-49.993		8.537e-04		65.466
8		0.00		1.60		6.563e-03		-60.975		1.846e-03		15.595
8		0.00		1.20		1.228e-02		-54.522		2.654e-03		10.124
8		0.00		0.80		1.725e-02		-51.311		3.494e-03		8.889
8		0.00		0.40		2.251e-02		-49.260		4.555e-03		7.661
8		0.00		0.00		2.736e-02		-49.570		5.394e-03		6.813
8		0.00		-0.40		3.200e-02		-49.235		6.213e-03		7.338
8		0.00		-0.80		3.645e-02		-49.904		7.014e-03		6.661
8		0.00		-1.20		3.984e-02		-50.649		7.381e-03		6.526
8		0.00		-1.60		4.201e-02		-49.993		7.878e-03		5.900
8		0.00		-2.00		4.508e-02		-50.019		8.372e-03		6.081
8		0.00		-2.40		4.717e-02		-49.712		8.683e-03		5.896
8		0.00		-2.80		4.966e-02		-49.683		9.608e-03		5.273
8		0.00		-3.20		5.101e-02		-50.310		9.950e-03		5.611
8		0.00		-3.60		5.282e-02		-51.086		1.067e-02		5.604
8		0.00		-4.00		5.405e-02		-51.102		1.106e-02		5.914
8		0.00		-4.40		5.688e-02		-50.193		1.213e-02		4.827
8		0.00		-4.80		5.866e-02		-48.184		1.353e-02		6.000
8		0.00		-5.20		5.981e-02		-47.176		1.427e-02		6.351
8		0.00		-5.60		6.109e-02		-47.175		1.549e-02		6.653
8		0.00		-6.00		6.091e-02		-46.892		1.564e-02		7.339
8		0.00		-6.40		6.184e-02		-46.246		1.615e-02		8.940
8		0.00		-6.80		6.328e-02		-45.344		1.762e-02		13.045
8		0.00		-7.20		6.508e-02		-45.962		1.852e-02		11.205
8		0.00		-7.60		6.715e-02		-47.596		1.947e-02		13.789
8		0.00		-8.00		6.633e-02		-42.990		1.971e-02		16.179
8		0.00		-8.40		6.426e-02		-38.800		2.005e-02		18.702
8		0.00		-8.80		6.291e-02		-41.387		2.019e-02		16.420
8		0.00		-9.20		5.925e-02		-39.489		1.937e-02		19.637
8		0.00		-9.60		5.471e-02		-44.877		1.862e-02		15.437
8		0.00		-10.00		4.767e-02		-41.692		1.599e-02		7.545
8		0.00		-9.60		5.352e-02		-43.835		1.848e-02		8.639
8		0.00		-9.20		5.488e-02		-42.858		1.840e-02		13.270
8		0.00		-8.80		5.818e-02		-41.541		1.802e-02		11.403
8		0.00		-8.40		5.962e-02		-40.722		1.791e-02		13.411
8		0.00		-8.00		5.930e-02		-39.731		1.653e-02		12.126
8		0.00		-7.60		6.099e-02		-43.302		1.644e-02		9.049
8		0.00		-7.20		5.904e-02		-44.282		1.549e-02		8.296
8		0.00		-6.80		5.874e-02		-44.501		1.367e-02		6.150
8		0.00		-6.40		5.777e-02		-45.788		1.299e-02		7.142
8		0.00		-6.00		5.507e-02		-46.254		1.167e-02		6.307
8		0.00		-5.60		5.362e-02		-45.619		1.091e-02		4.882
8		0.00		-5.20		5.064e-02		-47.061		9.943e-03		4.812
8		0.00		-4.80		4.757e-02		-48.281		9.532e-03		5.257
8		0.00		-4.40		4.418e-02		-48.074		8.807e-03		5.259
8		0.00		-4.00		3.990e-02		-49.259		7.992e-03		5.782
8		0.00		-3.60		3.674e-02		-48.236		7.577e-03		5.669
8		0.00		-3.20		3.250e-02		-50.424		6.996e-03		7.037
8		0.00		-2.80		2.869e-02		-50.027		6.689e-03		6.882
8		0.00		-2.40		2.402e-02		-49.167		6.166e-03		7.515
8		0.00		-2.00		1.957e-02		-49.035		5.107e-03		9.585
8		0.00		-1.60		1.545e-02		-47.820		3.996e-03		8.708
8		0.00		-1.20		1.102e-02		-45.924		3.239e-03		12.801
8		0.00		-0.80		6.544e-03		-46.902		1.967e-03		15.420
8		0.00		-0.40		2.291e-03		-41.758		9.719e-04		51.754
