# Date of analysis: 2023-11-20 16;16
# 
# Loop index	Read Volt (V)	Write Volt (V)	Amplitude (a.u)	Phase (deg)	Sigma Amp (a.u)	Sigma Pha (deg)	
1		0.00		0.00		1.654e-02		-45.632		7.928e-03		39.444
1		0.00		0.40		1.554e-02		-48.653		4.629e-03		17.523
1		0.00		0.80		1.152e-02		-47.723		3.285e-03		14.005
1		0.00		1.20		6.621e-03		-44.987		1.995e-03		15.107
1		0.00		1.60		2.874e-03		-35.663		1.176e-03		43.440
1		0.00		2.00		3.056e-03		95.255		1.130e-03		41.742
1		0.00		2.40		6.941e-03		124.619		2.356e-03		19.778
1		0.00		2.80		1.091e-02		124.793		3.433e-03		20.656
1		0.00		3.20		1.484e-02		126.662		4.821e-03		14.675
1		0.00		3.60		1.900e-02		129.295		5.700e-03		10.124
1		0.00		4.00		2.240e-02		127.864		6.490e-03		12.019
1		0.00		4.40		2.506e-02		125.876		7.931e-03		13.116
1		0.00		4.80		2.816e-02		125.946		9.145e-03		18.006
1		0.00		5.20		3.076e-02		122.717		1.040e-02		28.119
1		0.00		5.60		3.436e-02		128.323		1.122e-02		9.816
1		0.00		6.00		3.764e-02		128.641		1.087e-02		10.896
1		0.00		6.40		3.906e-02		128.393		1.055e-02		12.443
1		0.00		6.80		4.248e-02		128.474		1.150e-02		11.628
1		0.00		7.20		4.430e-02		126.269		1.506e-02		18.931
1		0.00		7.60		4.661e-02		127.028		1.550e-02		22.355
1		0.00		8.00		4.964e-02		127.859		1.593e-02		17.035
1		0.00		8.40		5.154e-02		129.541		1.439e-02		10.601
1		0.00		8.80		5.104e-02		124.671		1.473e-02		19.646
1		0.00		9.20		5.297e-02		123.864		1.793e-02		18.376
1		0.00		9.60		5.371e-02		126.576		1.843e-02		18.358
1		0.00		10.00		5.070e-02		124.165		1.904e-02		21.705
1		0.00		9.60		5.254e-02		124.970		1.955e-02		15.366
1		0.00		9.20		5.067e-02		127.462		1.697e-02		12.353
1		0.00		8.80		4.588e-02		128.300		1.405e-02		15.187
1		0.00		8.40		4.260e-02		125.147		1.471e-02		17.953
1		0.00		8.00		3.997e-02		124.262		1.467e-02		22.931
1		0.00		7.60		3.926e-02		122.814		1.411e-02		28.611
1		0.00		7.20		3.726e-02		127.049		1.245e-02		10.584
1		0.00		6.80		3.430e-02		126.716		1.005e-02		12.867
1		0.00		6.40		3.070e-02		127.532		8.824e-03		11.878
1		0.00		6.00		2.742e-02		123.598		8.805e-03		15.171
1		0.00		5.60		2.491e-02		125.378		8.115e-03		24.263
1		0.00		5.20		2.194e-02		125.463		6.557e-03		13.649
1		0.00		4.80		1.901e-02		126.179		4.976e-03		11.114
1		0.00		4.40		1.537e-02		126.001		3.919e-03		13.086
1		0.00		4.00		1.128e-02		127.033		3.099e-03		12.118
1		0.00		3.60		6.965e-03		121.112		2.062e-03		22.671
1		0.00		3.20		2.973e-03		87.724		1.222e-03		43.143
1		0.00		2.80		2.668e-03		-35.071		1.206e-03		41.188
1		0.00		2.40		6.426e-03		-56.446		2.242e-03		15.837
1		0.00		2.00		1.143e-02		-49.362		3.129e-03		13.497
1		0.00		1.60		1.548e-02		-50.676		4.279e-03		17.216
1		0.00		1.20		2.004e-02		-48.752		6.203e-03		13.236
1		0.00		0.80		2.423e-02		-51.027		7.751e-03		10.147
1		0.00		0.40		2.913e-02		-53.159		7.626e-03		7.811
1		0.00		0.00		3.345e-02		-51.655		8.628e-03		10.141
1		0.00		-0.40		3.677e-02		-52.081		9.937e-03		12.053
1		0.00		-0.80		4.023e-02		-52.779		1.205e-02		16.963
1		0.00		-1.20		4.520e-02		-52.417		1.384e-02		9.448
1		0.00		-1.60		4.958e-02		-53.239		1.381e-02		8.112
1		0.00		-2.00		5.074e-02		-54.544		1.321e-02		11.168
1		0.00		-2.40		5.292e-02		-54.603		1.540e-02		13.318
1		0.00		-2.80		5.174e-02		-50.021		1.557e-02		14.634
1		0.00		-3.20		5.871e-02		-52.533		1.870e-02		12.439
1		0.00		-3.60		5.914e-02		-53.515		1.697e-02		15.702
1		0.00		-4.00		5.788e-02		-54.110		1.671e-02		19.464
1		0.00		-4.40		6.149e-02		-53.098		1.935e-02		18.086
1		0.00		-4.80		6.335e-02		-53.188		1.973e-02		20.402
1		0.00		-5.20		6.509e-02		-50.097		1.957e-02		17.421
1		0.00		-5.60		6.471e-02		-49.454		1.674e-02		13.909
1		0.00		-6.00		6.038e-02		-51.874		1.736e-02		21.872
1		0.00		-6.40		6.460e-02		-47.285		1.942e-02		17.117
1		0.00		-6.80		6.434e-02		-44.731		2.137e-02		20.983
1		0.00		-7.20		6.240e-02		-48.945		1.908e-02		15.047
1		0.00		-7.60		6.239e-02		-49.186		1.722e-02		16.614
1		0.00		-8.00		5.744e-02		-48.003		1.671e-02		18.728
1		0.00		-8.40		5.792e-02		-49.943		2.037e-02		22.848
1		0.00		-8.80		5.575e-02		-44.727		1.990e-02		25.140
1		0.00		-9.20		5.495e-02		-45.627		1.894e-02		12.255
1		0.00		-9.60		4.888e-02		-46.955		1.638e-02		11.833
1		0.00		-10.00		4.194e-02		-47.943		1.346e-02		13.987
1		0.00		-9.60		4.595e-02		-48.822		1.681e-02		20.565
1		0.00		-9.20		5.172e-02		-40.896		1.842e-02		31.641
1		0.00		-8.80		5.549e-02		-47.453		1.735e-02		8.727
1		0.00		-8.40		5.529e-02		-50.238		1.595e-02		14.406
1		0.00		-8.00		5.306e-02		-51.703		1.626e-02		16.716
1		0.00		-7.60		5.410e-02		-50.260		1.653e-02		17.625
1		0.00		-7.20		5.276e-02		-48.149		1.551e-02		14.557
1		0.00		-6.80		5.315e-02		-49.625		1.402e-02		7.393
1		0.00		-6.40		4.878e-02		-50.394		1.197e-02		10.496
1		0.00		-6.00		4.598e-02		-50.316		1.151e-02		12.313
1		0.00		-5.60		4.314e-02		-52.279		1.225e-02		18.827
1		0.00		-5.20		4.073e-02		-49.423		1.142e-02		10.891
1		0.00		-4.80		3.814e-02		-52.151		9.040e-03		8.023
1		0.00		-4.40		3.452e-02		-52.741		7.514e-03		9.077
1		0.00		-4.00		3.106e-02		-52.102		7.025e-03		10.061
1		0.00		-3.60		2.691e-02		-53.098		7.131e-03		15.699
1		0.00		-3.20		2.337e-02		-51.164		6.721e-03		11.918
1		0.00		-2.80		1.983e-02		-48.546		5.000e-03		8.817
1		0.00		-2.40		1.672e-02		-52.520		3.655e-03		11.249
1		0.00		-2.00		1.274e-02		-49.843		3.028e-03		14.623
1		0.00		-1.60		8.861e-03		-45.009		2.437e-03		16.356
1		0.00		-1.20		5.084e-03		-36.987		1.399e-03		26.683
1		0.00		-0.80		1.825e-03		-10.091		7.503e-04		62.777
1		0.00		-0.40		3.571e-03		102.504		1.480e-03		42.856
2		0.00		0.00		7.240e-03		122.461		2.131e-03		16.409
2		0.00		0.40		1.082e-02		124.420		3.273e-03		14.235
2		0.00		0.80		1.440e-02		125.305		4.501e-03		17.182
2		0.00		1.20		1.819e-02		129.586		5.046e-03		9.140
2		0.00		1.60		2.256e-02		127.286		5.685e-03		8.794
2		0.00		2.00		2.579e-02		129.226		6.182e-03		9.668
2		0.00		2.40		2.849e-02		128.431		7.681e-03		12.355
2		0.00		2.80		3.077e-02		127.924		8.643e-03		21.118
2		0.00		3.20		3.412e-02		129.506		9.476e-03		10.192
2		0.00		3.60		3.711e-02		129.410		8.980e-03		8.243
2		0.00		4.00		3.832e-02		129.972		9.375e-03		9.619
2		0.00		4.40		4.103e-02		131.178		1.066e-02		9.425
2		0.00		4.80		4.255e-02		127.533		1.285e-02		19.387
2		0.00		5.20		4.660e-02		128.655		1.517e-02		15.379
2		0.00		5.60		4.865e-02		128.965		1.441e-02		8.882
2		0.00		6.00		4.958e-02		129.841		1.332e-02		8.391
2		0.00		6.40		4.825e-02		128.830		1.435e-02		14.841
2		0.00		6.80		4.924e-02		127.694		1.733e-02		22.298
2		0.00		7.20		5.375e-02		127.240		1.844e-02		23.587
2		0.00		7.60		5.539e-02		128.188		1.756e-02		15.680
2		0.00		8.00		5.626e-02		128.115		1.710e-02		12.998
2		0.00		8.40		5.495e-02		125.632		1.651e-02		26.055
2		0.00		8.80		5.715e-02		128.951		1.924e-02		16.177
2		0.00		9.20		5.759e-02		117.833		2.007e-02		31.637
2		0.00		9.60		5.731e-02		122.142		1.888e-02		34.384
2		0.00		10.00		5.803e-02		128.942		1.756e-02		11.378
2		0.00		9.60		5.794e-02		127.427		1.700e-02		15.601
2		0.00		9.20		5.480e-02		125.971		1.606e-02		16.941
2		0.00		8.80		5.304e-02		127.332		1.651e-02		16.040
2		0.00		8.40		5.055e-02		126.856		1.542e-02		22.902
2		0.00		8.00		4.930e-02		124.730		1.500e-02		20.393
2		0.00		7.60		4.689e-02		130.158		1.176e-02		8.431
2		0.00		7.20		4.320e-02		128.768		1.063e-02		10.521
2		0.00		6.80		3.972e-02		128.592		1.034e-02		12.015
2		0.00		6.40		3.727e-02		127.228		1.055e-02		17.101
2		0.00		6.00		3.398e-02		126.344		1.037e-02		25.462
2		0.00		5.60		3.024e-02		128.436		9.349e-03		11.973
2		0.00		5.20		2.703e-02		129.034		7.209e-03		10.412
2		0.00		4.80		2.387e-02		128.818		5.636e-03		10.467
2		0.00		4.40		1.952e-02		130.591		4.505e-03		11.517
2		0.00		4.00		1.538e-02		130.071		3.916e-03		14.429
2		0.00		3.60		1.099e-02		122.973		3.020e-03		20.919
2		0.00		3.20		6.948e-03		130.474		2.141e-03		22.171
2		0.00		2.80		3.093e-03		99.979		1.199e-03		56.135
2		0.00		2.40		2.779e-03		-35.486		1.274e-03		43.657
2		0.00		2.00		6.444e-03		-47.704		2.047e-03		18.953
2		0.00		1.60		1.103e-02		-49.203		3.219e-03		13.981
2		0.00		1.20		1.561e-02		-49.765		4.582e-03		15.034
2		0.00		0.80		2.018e-02		-50.624		5.609e-03		12.331
2		0.00		0.40		2.455e-02		-51.137		6.520e-03		8.853
2		0.00		0.00		2.972e-02		-52.023		6.697e-03		8.229
2		0.00		-0.40		3.371e-02		-51.199		7.677e-03		10.818
2		0.00		-0.80		3.809e-02		-51.604		8.813e-03		10.054
2		0.00		-1.20		4.164e-02		-51.398		1.077e-02		10.595
2		0.00		-1.60		4.523e-02		-51.900		1.238e-02		12.409
2		0.00		-2.00		4.996e-02		-53.180		1.428e-02		9.021
2		0.00		-2.40		5.312e-02		-53.719		1.379e-02		6.460
2		0.00		-2.80		5.439e-02		-52.492		1.324e-02		8.882
2		0.00		-3.20		5.428e-02		-54.751		1.660e-02		14.887
2		0.00		-3.60		5.680e-02		-55.245		1.882e-02		17.159
2		0.00		-4.00		5.643e-02		-51.103		1.805e-02		13.932
2		0.00		-4.40		5.951e-02		-45.369		1.902e-02		17.299
2		0.00		-4.80		6.160e-02		-51.193		1.859e-02		9.813
2		0.00		-5.20		6.305e-02		-50.653		1.970e-02		14.773
2		0.00		-5.60		6.205e-02		-51.280		1.803e-02		17.509
2		0.00		-6.00		6.453e-02		-45.706		1.975e-02		11.802
2		0.00		-6.40		6.276e-02		-47.234		2.097e-02		20.187
2		0.00		-6.80		6.191e-02		-45.238		2.015e-02		26.071
2		0.00		-7.20		6.517e-02		-47.836		1.839e-02		16.800
2		0.00		-7.60		6.546e-02		-47.677		1.733e-02		13.135
2		0.00		-8.00		6.428e-02		-49.548		1.707e-02		15.190
2		0.00		-8.40		5.829e-02		-50.254		1.621e-02		16.560
2		0.00		-8.80		5.733e-02		-44.090		1.713e-02		12.571
2		0.00		-9.20		5.421e-02		-42.777		1.713e-02		20.462
2		0.00		-9.60		5.045e-02		-42.446		1.611e-02		21.423
2		0.00		-10.00		4.410e-02		-46.360		1.301e-02		7.653
2		0.00		-9.60		4.955e-02		-46.984		1.451e-02		9.224
2		0.00		-9.20		5.039e-02		-46.563		1.517e-02		12.623
2		0.00		-8.80		5.397e-02		-47.198		1.752e-02		15.095
2		0.00		-8.40		5.489e-02		-49.787		1.872e-02		23.072
2		0.00		-8.00		5.552e-02		-46.387		1.844e-02		15.380
2		0.00		-7.60		5.609e-02		-49.494		1.679e-02		7.729
2		0.00		-7.20		5.285e-02		-48.617		1.359e-02		11.218
2		0.00		-6.80		4.892e-02		-51.002		1.321e-02		12.621
2		0.00		-6.40		4.700e-02		-50.721		1.381e-02		12.952
2		0.00		-6.00		4.422e-02		-50.306		1.407e-02		19.117
2		0.00		-5.60		4.212e-02		-50.840		1.307e-02		9.862
2		0.00		-5.20		3.969e-02		-50.872		1.034e-02		7.867
2		0.00		-4.80		3.585e-02		-51.348		8.201e-03		8.948
2		0.00		-4.40		3.256e-02		-51.704		7.818e-03		10.247
2		0.00		-4.00		2.873e-02		-51.076		7.446e-03		13.266
2		0.00		-3.60		2.557e-02		-50.446		6.783e-03		16.542
2		0.00		-3.20		2.250e-02		-51.252		5.705e-03		8.958
2		0.00		-2.80		1.961e-02		-48.767		4.201e-03		8.199
2		0.00		-2.40		1.550e-02		-50.474		3.153e-03		10.753
2		0.00		-2.00		1.162e-02		-44.947		2.921e-03		12.762
2		0.00		-1.60		7.759e-03		-37.736		1.988e-03		16.129
2		0.00		-1.20		4.000e-03		-42.297		1.342e-03		29.800
2		0.00		-0.80		1.648e-03		9.166		6.293e-04		73.082
2		0.00		-0.40		4.524e-03		115.829		1.752e-03		28.326
3		0.00		0.00		7.967e-03		122.702		2.188e-03		14.410
3		0.00		0.40		1.150e-02		124.437		3.305e-03		16.077
3		0.00		0.80		1.479e-02		125.044		4.797e-03		21.496
3		0.00		1.20		1.859e-02		128.862		5.626e-03		11.074
3		0.00		1.60		2.235e-02		129.349		5.900e-03		8.920
3		0.00		2.00		2.483e-02		127.174		6.580e-03		10.069
3		0.00		2.40		2.791e-02		128.014		7.572e-03		11.816
3		0.00		2.80		3.019e-02		127.181		9.097e-03		19.985
3		0.00		3.20		3.362e-02		129.366		1.004e-02		14.245
3		0.00		3.60		3.637e-02		129.821		9.691e-03		7.651
3		0.00		4.00		3.868e-02		130.283		8.885e-03		8.567
3		0.00		4.40		4.148e-02		130.234		9.751e-03		9.048
3		0.00		4.80		4.405e-02		129.280		1.215e-02		14.441
3		0.00		5.20		4.594e-02		129.099		1.319e-02		14.698
3		0.00		5.60		4.990e-02		129.535		1.308e-02		6.901
3		0.00		6.00		5.072e-02		132.090		1.212e-02		7.674
3		0.00		6.40		5.137e-02		130.922		1.219e-02		9.455
3		0.00		6.80		5.330e-02		129.876		1.569e-02		14.661
3		0.00		7.20		5.646e-02		127.571		1.707e-02		23.148
3		0.00		7.60		5.792e-02		131.039		1.635e-02		9.112
3		0.00		8.00		5.772e-02		130.666		1.519e-02		11.693
3		0.00		8.40		5.579e-02		124.352		1.740e-02		25.821
3		0.00		8.80		5.894e-02		127.337		1.992e-02		19.179
3		0.00		9.20		6.059e-02		124.276		2.105e-02		25.043
3		0.00		9.60		6.016e-02		121.013		2.100e-02		40.497
3		0.00		10.00		5.806e-02		125.698		1.950e-02		15.614
3		0.00		9.60		5.650e-02		126.114		1.808e-02		14.497
3		0.00		9.20		5.454e-02		125.218		1.792e-02		17.648
3		0.00		8.80		5.326e-02		125.369		1.879e-02		26.511
3		0.00		8.40		5.225e-02		128.005		1.681e-02		15.281
3		0.00		8.00		4.933e-02		129.571		1.367e-02		8.701
3		0.00		7.60		4.622e-02		128.201		1.183e-02		10.775
3		0.00		7.20		4.401e-02		127.394		1.267e-02		14.117
3		0.00		6.80		4.083e-02		126.772		1.198e-02		20.663
3		0.00		6.40		3.900e-02		128.162		1.100e-02		20.190
3		0.00		6.00		3.558e-02		128.420		8.449e-03		9.456
3		0.00		5.60		3.173e-02		128.881		7.786e-03		11.122
3		0.00		5.20		2.842e-02		130.338		6.953e-03		9.815
3		0.00		4.80		2.411e-02		127.758		6.430e-03		18.423
3		0.00		4.40		2.074e-02		128.086		5.566e-03		18.215
3		0.00		4.00		1.678e-02		130.203		3.975e-03		9.115
3		0.00		3.60		1.314e-02		129.911		3.084e-03		12.526
3		0.00		3.20		8.416e-03		127.593		2.070e-03		13.823
3		0.00		2.80		3.953e-03		117.302		1.462e-03		31.288
3		0.00		2.40		2.079e-03		-9.910		7.923e-04		66.779
3		0.00		2.00		5.272e-03		-49.854		2.191e-03		27.381
3		0.00		1.60		9.472e-03		-51.827		2.743e-03		13.471
3		0.00		1.20		1.329e-02		-49.568		3.818e-03		14.767
3		0.00		0.80		1.759e-02		-51.009		5.350e-03		16.584
3		0.00		0.40		2.165e-02		-50.515		7.124e-03		16.275
3		0.00		0.00		2.635e-02		-50.175		7.655e-03		8.314
3		0.00		-0.40		3.121e-02		-53.380		7.724e-03		8.403
3		0.00		-0.80		3.332e-02		-51.973		8.716e-03		10.956
3		0.00		-1.20		3.771e-02		-52.583		1.084e-02		15.010
3		0.00		-1.60		4.186e-02		-51.389		1.213e-02		12.169
3		0.00		-2.00		4.603e-02		-52.872		1.144e-02		8.701
3		0.00		-2.40		4.981e-02		-52.730		1.084e-02		8.594
3		0.00		-2.80		5.045e-02		-52.355		1.235e-02		12.158
3		0.00		-3.20		5.493e-02		-51.595		1.605e-02		11.811
3		0.00		-3.60		5.719e-02		-51.556		1.641e-02		8.140
3		0.00		-4.00		6.025e-02		-53.851		1.550e-02		8.686
3		0.00		-4.40		6.004e-02		-54.633		1.524e-02		12.171
3		0.00		-4.80		6.058e-02		-49.238		1.645e-02		12.167
3		0.00		-5.20		6.458e-02		-49.082		1.988e-02		21.965
3		0.00		-5.60		6.427e-02		-50.228		1.935e-02		13.778
3		0.00		-6.00		6.540e-02		-46.873		1.625e-02		12.553
3		0.00		-6.40		6.265e-02		-49.088		1.808e-02		18.946
3		0.00		-6.80		6.441e-02		-43.710		2.018e-02		13.323
3		0.00		-7.20		6.259e-02		-44.351		2.026e-02		18.601
3		0.00		-7.60		6.530e-02		-48.620		1.972e-02		10.798
3		0.00		-8.00		6.315e-02		-44.258		1.620e-02		12.825
3		0.00		-8.40		5.830e-02		-51.064		1.763e-02		16.807
3		0.00		-8.80		5.658e-02		-46.724		1.898e-02		21.638
3		0.00		-9.20		5.492e-02		-42.441		1.820e-02		21.832
3		0.00		-9.60		5.034e-02		-44.688		1.564e-02		8.054
3		0.00		-10.00		4.392e-02		-46.017		1.193e-02		10.087
3		0.00		-9.60		4.951e-02		-47.299		1.496e-02		10.564
3		0.00		-9.20		5.382e-02		-46.723		1.747e-02		19.496
3		0.00		-8.80		5.723e-02		-43.925		1.766e-02		16.060
3		0.00		-8.40		5.934e-02		-47.036		1.531e-02		7.718
3		0.00		-8.00		5.755e-02		-47.656		1.323e-02		10.445
3		0.00		-7.60		5.582e-02		-49.791		1.530e-02		12.800
3		0.00		-7.20		5.468e-02		-49.591		1.566e-02		18.125
3		0.00		-6.80		5.184e-02		-46.611		1.485e-02		12.852
3		0.00		-6.40		5.062e-02		-49.594		1.214e-02		6.813
3		0.00		-6.00		4.748e-02		-49.668		1.047e-02		9.186
3		0.00		-5.60		4.300e-02		-48.729		1.002e-02		9.109
3		0.00		-5.20		3.928e-02		-50.808		1.098e-02		14.389
3		0.00		-4.80		3.596e-02		-49.345		1.101e-02		14.717
3		0.00		-4.40		3.237e-02		-51.868		9.019e-03		7.524
3		0.00		-4.00		2.945e-02		-51.148		7.057e-03		8.939
3		0.00		-3.60		2.545e-02		-52.052		5.676e-03		11.101
3		0.00		-3.20		2.215e-02		-50.223		5.885e-03		11.453
3		0.00		-2.80		1.857e-02		-50.909		5.154e-03		12.989
3		0.00		-2.40		1.499e-02		-47.368		4.197e-03		14.118
3		0.00		-2.00		1.152e-02		-45.558		2.754e-03		12.768
3		0.00		-1.60		7.659e-03		-41.935		1.811e-03		15.422
3		0.00		-1.20		3.828e-03		-50.464		1.241e-03		26.458
3		0.00		-0.80		1.941e-03		32.860		7.651e-04		65.083
3		0.00		-0.40		4.190e-03		109.995		1.455e-03		43.543
4		0.00		0.00		7.870e-03		121.665		2.097e-03		15.729
4		0.00		0.40		1.193e-02		127.980		2.784e-03		10.784
4		0.00		0.80		1.579e-02		126.211		3.412e-03		10.191
4		0.00		1.20		1.920e-02		127.571		4.318e-03		9.588
4		0.00		1.60		2.248e-02		126.802		5.920e-03		17.758
4		0.00		2.00		2.540e-02		129.666		6.865e-03		9.860
4		0.00		2.40		2.901e-02		130.404		6.682e-03		6.947
4		0.00		2.80		3.223e-02		129.544		7.250e-03		8.097
4		0.00		3.20		3.472e-02		131.447		8.209e-03		9.116
4		0.00		3.60		3.561e-02		127.268		1.025e-02		19.227
4		0.00		4.00		3.766e-02		128.039		1.168e-02		16.958
4		0.00		4.40		4.116e-02		131.031		1.066e-02		7.250
4		0.00		4.80		4.287e-02		130.899		9.986e-03		7.938
4		0.00		5.20		4.427e-02		129.816		1.160e-02		9.842
4		0.00		5.60		4.557e-02		127.926		1.377e-02		15.105
4		0.00		6.00		4.903e-02		126.845		1.610e-02		21.697
4		0.00		6.40		5.114e-02		130.018		1.583e-02		7.418
4		0.00		6.80		5.268e-02		130.614		1.417e-02		9.199
4		0.00		7.20		5.205e-02		126.114		1.572e-02		14.040
4		0.00		7.60		5.537e-02		129.640		1.742e-02		15.444
4		0.00		8.00		5.753e-02		128.276		1.757e-02		23.472
4		0.00		8.40		6.001e-02		129.226		1.807e-02		15.485
4		0.00		8.80		6.300e-02		131.096		1.755e-02		10.996
4		0.00		9.20		6.053e-02		124.881		1.682e-02		21.745
4		0.00		9.60		5.926e-02		124.052		1.854e-02		16.633
4		0.00		10.00		5.880e-02		129.085		1.943e-02		21.755
4		0.00		9.60		6.051e-02		126.051		1.954e-02		24.526
4		0.00		9.20		6.031e-02		127.251		1.744e-02		11.973
4		0.00		8.80		5.557e-02		127.985		1.479e-02		14.394
4		0.00		8.40		5.256e-02		129.826		1.494e-02		12.059
4		0.00		8.00		5.009e-02		128.253		1.627e-02		18.202
4		0.00		7.60		4.803e-02		126.844		1.580e-02		17.298
4		0.00		7.20		4.557e-02		129.200		1.271e-02		7.793
4		0.00		6.80		4.230e-02		129.408		1.093e-02		8.640
4		0.00		6.40		3.861e-02		129.414		1.010e-02		10.219
4		0.00		6.00		3.549e-02		128.621		1.049e-02		14.118
4		0.00		5.60		3.215e-02		126.392		9.750e-03		25.078
4		0.00		5.20		2.875e-02		130.325		8.337e-03		10.332
4		0.00		4.80		2.550e-02		129.705		6.100e-03		9.436
4		0.00		4.40		2.153e-02		129.233		4.648e-03		11.050
4		0.00		4.00		1.743e-02		128.795		4.233e-03		11.741
4		0.00		3.60		1.391e-02		128.411		3.563e-03		16.567
4		0.00		3.20		9.939e-03		124.829		2.645e-03		20.356
4		0.00		2.80		5.416e-03		123.802		1.750e-03		23.677
4		0.00		2.40		2.294e-03		66.751		1.064e-03		65.167
4		0.00		2.00		3.454e-03		-32.482		1.425e-03		32.848
4		0.00		1.60		7.366e-03		-50.599		2.415e-03		16.226
4		0.00		1.20		1.190e-02		-47.557		3.317e-03		16.548
4		0.00		0.80		1.658e-02		-52.591		4.707e-03		14.019
4		0.00		0.40		2.112e-02		-50.264		5.284e-03		9.659
4		0.00		0.00		2.579e-02		-50.574		5.536e-03		8.368
4		0.00		-0.40		3.018e-02		-50.029		6.189e-03		8.503
4		0.00		-0.80		3.331e-02		-50.803		8.200e-03		11.202
4		0.00		-1.20		3.671e-02		-50.523		1.066e-02		9.541
4		0.00		-1.60		4.119e-02		-51.498		1.202e-02		8.269
4		0.00		-2.00		4.577e-02		-53.538		1.139e-02		7.204
4		0.00		-2.40		5.002e-02		-52.366		1.077e-02		6.505
4		0.00		-2.80		5.041e-02		-53.553		1.245e-02		9.906
4		0.00		-3.20		5.265e-02		-53.950		1.528e-02		13.476
4		0.00		-3.60		5.487e-02		-49.999		1.708e-02		20.030
4		0.00		-4.00		5.953e-02		-52.541		1.819e-02		8.765
4		0.00		-4.40		5.951e-02		-53.561		1.472e-02		11.002
4		0.00		-4.80		6.018e-02		-53.325		1.516e-02		13.686
4		0.00		-5.20		6.209e-02		-49.943		1.614e-02		13.860
4		0.00		-5.60		6.390e-02		-47.390		1.907e-02		13.914
4		0.00		-6.00		6.309e-02		-42.877		1.904e-02		23.683
4		0.00		-6.40		6.610e-02		-46.705		1.926e-02		11.000
4		0.00		-6.80		6.395e-02		-47.084		1.678e-02		14.393
4		0.00		-7.20		6.394e-02		-47.912		1.665e-02		16.584
4		0.00		-7.60		6.820e-02		-50.787		1.940e-02		13.066
4		0.00		-8.00		6.278e-02		-49.338		1.899e-02		20.402
4		0.00		-8.40		5.936e-02		-45.873		1.769e-02		19.982
4		0.00		-8.80		6.175e-02		-46.458		1.824e-02		8.428
4		0.00		-9.20		5.698e-02		-44.273		1.715e-02		8.805
4		0.00		-9.60		4.813e-02		-46.501		1.527e-02		11.158
4		0.00		-10.00		4.232e-02		-47.073		1.437e-02		12.852
4		0.00		-9.60		4.672e-02		-47.913		1.794e-02		22.265
4		0.00		-9.20		5.191e-02		-38.302		1.893e-02		33.264
4		0.00		-8.80		5.359e-02		-46.686		1.717e-02		9.380
4		0.00		-8.40		5.491e-02		-47.041		1.523e-02		10.603
4		0.00		-8.00		5.305e-02		-50.646		1.485e-02		15.035
4		0.00		-7.60		5.178e-02		-51.281		1.599e-02		14.821
4		0.00		-7.20		4.997e-02		-49.283		1.656e-02		19.545
4		0.00		-6.80		4.875e-02		-46.338		1.609e-02		13.364
4		0.00		-6.40		4.716e-02		-48.780		1.308e-02		6.213
4		0.00		-6.00		4.468e-02		-48.795		9.951e-03		7.502
4		0.00		-5.60		4.130e-02		-48.500		9.403e-03		9.760
4		0.00		-5.20		3.828e-02		-49.103		9.490e-03		9.138
4		0.00		-4.80		3.486e-02		-50.698		9.301e-03		14.554
4		0.00		-4.40		3.160e-02		-50.224		8.399e-03		11.769
4		0.00		-4.00		2.856e-02		-50.333		6.480e-03		8.321
4		0.00		-3.60		2.560e-02		-49.374		4.964e-03		8.070
4		0.00		-3.20		2.160e-02		-49.924		4.285e-03		10.642
4		0.00		-2.80		1.806e-02		-49.515		3.971e-03		10.913
4		0.00		-2.40		1.450e-02		-47.203		3.571e-03		14.914
4		0.00		-2.00		1.066e-02		-47.376		2.900e-03		15.788
4		0.00		-1.60		7.134e-03		-42.910		1.908e-03		14.745
4		0.00		-1.20		3.360e-03		-37.570		1.177e-03		27.693
4		0.00		-0.80		2.148e-03		66.893		8.681e-04		58.760
4		0.00		-0.40		5.005e-03		117.803		1.612e-03		25.311
5		0.00		0.00		8.259e-03		120.945		2.554e-03		18.862
5		0.00		0.40		1.206e-02		120.471		3.680e-03		24.101
5		0.00		0.80		1.539e-02		126.932		4.611e-03		12.505
5		0.00		1.20		1.945e-02		128.668		4.935e-03		8.569
5		0.00		1.60		2.199e-02		127.775		4.937e-03		8.175
5		0.00		2.00		2.586e-02		128.325		6.067e-03		9.281
5		0.00		2.40		2.817e-02		127.788		7.316e-03		13.469
5		0.00		2.80		3.044e-02		128.488		8.322e-03		21.917
5		0.00		3.20		3.400e-02		131.341		9.277e-03		10.898
5		0.00		3.60		3.638e-02		129.396		8.619e-03		7.410
5		0.00		4.00		3.899e-02		130.398		8.564e-03		8.517
5		0.00		4.40		4.172e-02		130.261		9.606e-03		7.560
5		0.00		4.80		4.306e-02		129.478		1.199e-02		12.829
5		0.00		5.20		4.585e-02		127.690		1.358e-02		20.006
5		0.00		5.60		4.830e-02		129.331		1.393e-02		10.445
5		0.00		6.00		5.094e-02		131.336		1.283e-02		6.234
5		0.00		6.40		5.133e-02		130.496		1.313e-02		9.833
5		0.00		6.80		5.254e-02		127.625		1.638e-02		14.415
5		0.00		7.20		5.370e-02		127.296		1.845e-02		18.247
5		0.00		7.60		5.510e-02		127.501		1.862e-02		23.201
5		0.00		8.00		5.808e-02		130.254		1.901e-02		9.981
5		0.00		8.40		5.711e-02		130.401		1.593e-02		11.872
5		0.00		8.80		5.914e-02		125.114		1.747e-02		16.151
5		0.00		9.20		5.723e-02		121.490		1.944e-02		30.212
5		0.00		9.60		5.784e-02		121.295		2.128e-02		32.401
5		0.00		10.00		5.496e-02		123.759		2.011e-02		24.937
5		0.00		9.60		5.885e-02		129.373		1.907e-02		9.636
5		0.00		9.20		5.720e-02		128.221		1.572e-02		11.705
5		0.00		8.80		5.458e-02		126.230		1.549e-02		15.211
5		0.00		8.40		5.335e-02		126.138		1.666e-02		19.024
5		0.00		8.00		5.160e-02		128.352		1.551e-02		19.822
5		0.00		7.60		4.982e-02		127.922		1.443e-02		13.615
5		0.00		7.20		4.690e-02		130.225		1.216e-02		6.358
5		0.00		6.80		4.400e-02		131.365		1.031e-02		8.333
5		0.00		6.40		4.088e-02		130.536		9.180e-03		8.155
5		0.00		6.00		3.639e-02		129.443		9.397e-03		12.027
5		0.00		5.60		3.339e-02		126.836		9.173e-03		22.534
5		0.00		5.20		3.026e-02		128.641		8.389e-03		16.957
5		0.00		4.80		2.691e-02		129.663		6.438e-03		8.857
5		0.00		4.40		2.330e-02		130.899		4.992e-03		9.336
5		0.00		4.00		1.886e-02		130.371		4.038e-03		11.055
5		0.00		3.60		1.510e-02		130.856		3.653e-03		12.721
5		0.00		3.20		1.107e-02		125.826		3.125e-03		22.215
5		0.00		2.80		7.096e-03		123.236		2.031e-03		24.082
5		0.00		2.40		2.941e-03		97.811		1.227e-03		55.975
5		0.00		2.00		2.592e-03		-24.311		1.116e-03		42.534
5		0.00		1.60		6.522e-03		-45.389		2.019e-03		18.477
5		0.00		1.20		1.065e-02		-47.994		3.084e-03		15.479
5		0.00		0.80		1.497e-02		-48.692		4.356e-03		14.739
5		0.00		0.40		1.909e-02		-49.349		5.190e-03		13.943
5		0.00		0.00		2.353e-02		-49.918		5.340e-03		9.456
5		0.00		-0.40		2.809e-02		-50.308		5.500e-03		8.121
5		0.00		-0.80		3.212e-02		-50.063		6.902e-03		9.076
5		0.00		-1.20		3.519e-02		-51.815		8.746e-03		10.999
5		0.00		-1.60		3.905e-02		-51.402		1.074e-02		13.907
5		0.00		-2.00		4.309e-02		-52.778		1.188e-02		9.392
5		0.00		-2.40		4.795e-02		-52.800		1.166e-02		6.812
5		0.00		-2.80		5.160e-02		-52.968		1.116e-02		8.277
5		0.00		-3.20		5.344e-02		-52.556		1.172e-02		8.711
5		0.00		-3.60		5.531e-02		-53.383		1.506e-02		12.899
5		0.00		-4.00		5.716e-02		-51.101		1.763e-02		18.749
5		0.00		-4.40		5.976e-02		-51.029		1.833e-02		7.895
5		0.00		-4.80		6.085e-02		-50.648		1.631e-02		10.426
5		0.00		-5.20		6.374e-02		-50.783		1.696e-02		10.795
5		0.00		-5.60		6.225e-02		-50.097		1.784e-02		12.860
5		0.00		-6.00		6.243e-02		-47.711		2.121e-02		19.080
5		0.00		-6.40		6.190e-02		-47.746		2.039e-02		21.598
5		0.00		-6.80		6.345e-02		-46.768		1.984e-02		12.268
5		0.00		-7.20		6.807e-02		-47.904		1.928e-02		11.943
5		0.00		-7.60		6.579e-02		-48.443		1.737e-02		13.089
5		0.00		-8.00		6.296e-02		-50.466		1.764e-02		13.291
5		0.00		-8.40		6.011e-02		-48.421		1.778e-02		15.735
5		0.00		-8.80		5.913e-02		-45.442		1.825e-02		21.290
5		0.00		-9.20		5.603e-02		-43.407		1.736e-02		11.955
5		0.00		-9.60		5.181e-02		-46.052		1.471e-02		6.902
5		0.00		-10.00		4.334e-02		-44.058		1.115e-02		9.828
5		0.00		-9.60		4.847e-02		-46.010		1.336e-02		8.864
5		0.00		-9.20		5.344e-02		-45.676		1.631e-02		15.114
5		0.00		-8.80		5.609e-02		-47.152		1.682e-02		21.265
5		0.00		-8.40		5.829e-02		-45.505		1.731e-02		15.195
5		0.00		-8.00		5.808e-02		-47.044		1.489e-02		7.464
5		0.00		-7.60		5.579e-02		-47.328		1.216e-02		8.228
5		0.00		-7.20		5.228e-02		-49.318		1.300e-02		11.483
5		0.00		-6.80		5.007e-02		-49.735		1.383e-02		10.691
5		0.00		-6.40		4.681e-02		-49.179		1.420e-02		14.815
5		0.00		-6.00		4.444e-02		-48.824		1.385e-02		12.371
5		0.00		-5.60		4.179e-02		-48.674		1.163e-02		6.843
5		0.00		-5.20		3.897e-02		-49.618		8.767e-03		7.159
5		0.00		-4.80		3.558e-02		-50.297		7.637e-03		8.848
5		0.00		-4.40		3.196e-02		-49.919		7.233e-03		8.491
5		0.00		-4.00		2.786e-02		-51.930		7.007e-03		11.101
5		0.00		-3.60		2.465e-02		-51.196		6.717e-03		14.251
5		0.00		-3.20		2.156e-02		-49.954		5.303e-03		8.299
5		0.00		-2.80		1.836e-02		-48.528		3.882e-03		8.649
5		0.00		-2.40		1.487e-02		-47.834		2.531e-03		11.705
5		0.00		-2.00		1.065e-02		-47.388		2.118e-03		12.607
5		0.00		-1.60		6.750e-03		-38.767		1.716e-03		18.106
5		0.00		-1.20		3.418e-03		-38.380		1.264e-03		27.473
5		0.00		-0.80		1.955e-03		43.328		8.910e-04		68.554
5		0.00		-0.40		5.325e-03		118.560		1.661e-03		24.624
6		0.00		0.00		9.031e-03		125.534		2.322e-03		10.860
6		0.00		0.40		1.272e-02		126.113		2.640e-03		10.378
6		0.00		0.80		1.594e-02		128.428		3.683e-03		9.290
6		0.00		1.20		1.922e-02		127.165		5.108e-03		13.318
6		0.00		1.60		2.220e-02		126.371		6.403e-03		17.495
6		0.00		2.00		2.523e-02		128.331		7.578e-03		13.198
6		0.00		2.40		2.846e-02		130.262		7.511e-03		7.745
6		0.00		2.80		3.126e-02		129.891		7.786e-03		7.447
6		0.00		3.20		3.348e-02		128.962		8.429e-03		8.941
6		0.00		3.60		3.569e-02		129.893		9.746e-03		8.853
6		0.00		4.00		3.736e-02		126.998		1.127e-02		20.885
6		0.00		4.40		4.017e-02		127.877		1.221e-02		23.056
6		0.00		4.80		4.301e-02		130.643		1.225e-02		7.984
6		0.00		5.20		4.613e-02		130.540		1.098e-02		7.794
6		0.00		5.60		4.839e-02		130.521		1.042e-02		7.448
6		0.00		6.00		4.981e-02		129.981		1.176e-02		10.107
6		0.00		6.40		5.288e-02		129.297		1.513e-02		13.754
6		0.00		6.80		5.449e-02		128.259		1.619e-02		19.824
6		0.00		7.20		5.718e-02		128.898		1.727e-02		11.338
6		0.00		7.60		5.877e-02		130.796		1.590e-02		7.790
6		0.00		8.00		5.981e-02		130.056		1.483e-02		9.892
6		0.00		8.40		5.878e-02		127.462		1.751e-02		15.049
6		0.00		8.80		6.062e-02		128.500		1.916e-02		16.657
6		0.00		9.20		6.026e-02		126.216		1.974e-02		21.216
6		0.00		9.60		5.727e-02		121.986		2.046e-02		33.652
6		0.00		10.00		5.853e-02		127.861		1.936e-02		11.927
6		0.00		9.60		5.661e-02		125.791		1.706e-02		16.574
6		0.00		9.20		5.834e-02		126.086		1.910e-02		14.335
6		0.00		8.80		5.481e-02		127.929		1.953e-02		18.027
6		0.00		8.40		5.307e-02		125.219		1.798e-02		28.808
6		0.00		8.00		5.189e-02		129.571		1.625e-02		8.422
6		0.00		7.60		4.976e-02		130.616		1.252e-02		8.462
6		0.00		7.20		4.616e-02		129.669		1.096e-02		8.774
6		0.00		6.80		4.337e-02		128.654		1.159e-02		9.786
6		0.00		6.40		3.962e-02		128.136		1.168e-02		18.444
6		0.00		6.00		3.692e-02		128.939		1.075e-02		16.905
6		0.00		5.60		3.442e-02		131.199		8.440e-03		7.125
6		0.00		5.20		3.104e-02		131.792		6.667e-03		8.171
6		0.00		4.80		2.759e-02		129.645		6.379e-03		9.447
6		0.00		4.40		2.361e-02		129.562		6.242e-03		13.497
6		0.00		4.00		1.959e-02		127.414		5.227e-03		25.017
6		0.00		3.60		1.621e-02		132.517		4.072e-03		12.348
6		0.00		3.20		1.206e-02		129.952		2.513e-03		12.204
6		0.00		2.80		7.934e-03		127.856		1.853e-03		13.796
6		0.00		2.40		3.942e-03		118.324		1.372e-03		34.064
6		0.00		2.00		2.145e-03		2.222		8.816e-04		51.171
6		0.00		1.60		5.370e-03		-48.666		1.790e-03		19.901
6		0.00		1.20		9.836e-03		-48.788		3.296e-03		12.515
6		0.00		0.80		1.405e-02		-49.643		3.964e-03		11.455
6		0.00		0.40		1.840e-02		-50.118		4.530e-03		9.885
6		0.00		0.00		2.198e-02		-49.981		5.582e-03		9.850
6		0.00		-0.40		2.581e-02		-51.193		7.674e-03		16.698
6		0.00		-0.80		2.912e-02		-47.737		9.118e-03		14.746
6		0.00		-1.20		3.385e-02		-51.087		9.323e-03		7.816
6		0.00		-1.60		3.778e-02		-52.003		9.001e-03		6.998
6		0.00		-2.00		4.112e-02		-51.563		9.328e-03		9.148
6		0.00		-2.40		4.435e-02		-52.456		1.117e-02		10.425
6		0.00		-2.80		4.708e-02		-53.552		1.297e-02		16.956
6		0.00		-3.20		5.182e-02		-51.072		1.534e-02		9.602
6		0.00		-3.60		5.492e-02		-53.476		1.400e-02		7.381
6		0.00		-4.00		5.610e-02		-53.958		1.315e-02		9.767
6		0.00		-4.40		5.679e-02		-54.029		1.426e-02		12.652
6		0.00		-4.80		6.089e-02		-51.273		1.755e-02		12.343
6		0.00		-5.20		6.104e-02		-48.609		1.756e-02		15.090
6		0.00		-5.60		6.406e-02		-48.886		1.850e-02		8.122
6		0.00		-6.00		6.583e-02		-48.672		1.679e-02		9.315
6		0.00		-6.40		6.404e-02		-48.418		1.648e-02		12.409
6		0.00		-6.80		6.391e-02		-49.643		1.759e-02		13.264
6		0.00		-7.20		6.315e-02		-47.592		2.090e-02		22.461
6		0.00		-7.60		6.047e-02		-43.197		2.031e-02		27.133
6		0.00		-8.00		6.305e-02		-48.152		2.053e-02		10.895
6		0.00		-8.40		6.067e-02		-45.268		1.618e-02		12.309
6		0.00		-8.80		5.673e-02		-48.608		1.635e-02		12.658
6		0.00		-9.20		5.357e-02		-46.688		1.788e-02		11.707
6		0.00		-9.60		4.866e-02		-49.279		1.734e-02		19.167
6		0.00		-10.00		4.327e-02		-39.576		1.506e-02		19.008
6		0.00		-9.60		4.878e-02		-45.982		1.604e-02		8.787
6		0.00		-9.20		5.298e-02		-44.972		1.483e-02		8.539
6		0.00		-8.80		5.387e-02		-45.683		1.375e-02		10.316
6		0.00		-8.40		5.553e-02		-47.241		1.561e-02		11.238
6		0.00		-8.00		5.635e-02		-47.541		1.668e-02		18.756
6		0.00		-7.60		5.506e-02		-47.453		1.699e-02		18.899
6		0.00		-7.20		5.427e-02		-48.131		1.406e-02		8.076
6		0.00		-6.80		5.125e-02		-47.861		1.180e-02		8.207
6		0.00		-6.40		4.827e-02		-47.478		1.036e-02		8.227
6		0.00		-6.00		4.491e-02		-47.817		1.067e-02		9.777
6		0.00		-5.60		4.169e-02		-49.496		1.077e-02		11.936
6		0.00		-5.20		3.856e-02		-50.831		1.079e-02		16.232
6		0.00		-4.80		3.556e-02		-49.043		9.646e-03		6.983
6		0.00		-4.40		3.194e-02		-48.937		7.481e-03		7.849
6		0.00		-4.00		2.818e-02		-51.161		5.999e-03		9.393
6		0.00		-3.60		2.397e-02		-49.598		5.851e-03		10.724
6		0.00		-3.20		2.028e-02		-49.998		5.586e-03		14.789
6		0.00		-2.80		1.714e-02		-48.958		4.953e-03		17.144
6		0.00		-2.40		1.395e-02		-45.457		3.802e-03		11.655
6		0.00		-2.00		1.023e-02		-44.914		2.565e-03		13.702
6		0.00		-1.60		6.540e-03		-40.739		1.622e-03		16.392
6		0.00		-1.20		3.403e-03		-39.391		1.268e-03		28.879
6		0.00		-0.80		2.059e-03		44.601		9.211e-04		72.897
6		0.00		-0.40		4.950e-03		110.066		1.792e-03		29.305
7		0.00		0.00		8.092e-03		122.434		2.521e-03		29.419
7		0.00		0.40		1.197e-02		123.898		3.252e-03		15.444
7		0.00		0.80		1.582e-02		128.258		3.469e-03		7.915
7		0.00		1.20		1.932e-02		128.028		3.991e-03		8.184
7		0.00		1.60		2.216e-02		129.411		4.755e-03		9.630
7		0.00		2.00		2.501e-02		129.135		6.412e-03		14.419
7		0.00		2.40		2.822e-02		129.443		7.753e-03		16.027
7		0.00		2.80		3.190e-02		130.763		8.428e-03		7.059
7		0.00		3.20		3.471e-02		130.398		7.971e-03		7.921
7		0.00		3.60		3.732e-02		130.429		8.346e-03		7.393
7		0.00		4.00		3.890e-02		131.588		9.083e-03		8.926
7		0.00		4.40		4.117e-02		130.812		1.132e-02		11.326
7		0.00		4.80		4.310e-02		127.789		1.279e-02		20.609
7		0.00		5.20		4.531e-02		129.936		1.377e-02		17.008
7		0.00		5.60		4.857e-02		130.776		1.364e-02		6.705
7		0.00		6.00		5.166e-02		131.126		1.259e-02		6.800
7		0.00		6.40		5.187e-02		131.758		1.208e-02		8.065
7		0.00		6.80		5.322e-02		129.546		1.443e-02		12.403
7		0.00		7.20		5.457e-02		128.477		1.709e-02		13.512
7		0.00		7.60		5.668e-02		127.605		1.879e-02		21.656
7		0.00		8.00		5.942e-02		128.012		1.897e-02		19.318
7		0.00		8.40		6.079e-02		131.710		1.788e-02		11.224
7		0.00		8.80		6.289e-02		131.002		1.681e-02		11.496
7		0.00		9.20		6.331e-02		127.977		1.727e-02		13.839
7		0.00		9.60		6.088e-02		127.581		1.660e-02		15.285
7		0.00		10.00		5.930e-02		126.101		1.968e-02		17.988
7		0.00		9.60		5.943e-02		125.859		1.922e-02		24.749
7		0.00		9.20		5.953e-02		126.753		1.819e-02		17.445
7		0.00		8.80		5.875e-02		129.583		1.663e-02		7.846
7		0.00		8.40		5.665e-02		130.416		1.497e-02		9.078
7		0.00		8.00		5.267e-02		130.303		1.320e-02		10.477
7		0.00		7.60		4.887e-02		129.259		1.372e-02		12.967
7		0.00		7.20		4.619e-02		128.198		1.453e-02		15.903
7		0.00		6.80		4.285e-02		127.496		1.372e-02		22.856
7		0.00		6.40		4.062e-02		126.722		1.317e-02		23.467
7		0.00		6.00		3.790e-02		130.981		1.140e-02		9.570
7		0.00		5.60		3.458e-02		130.631		8.518e-03		9.466
7		0.00		5.20		3.125e-02		130.025		6.992e-03		9.678
7		0.00		4.80		2.770e-02		131.464		6.204e-03		9.329
7		0.00		4.40		2.378e-02		130.844		6.086e-03		10.792
7		0.00		4.00		2.006e-02		127.737		5.494e-03		19.273
7		0.00		3.60		1.645e-02		126.999		4.438e-03		20.897
7		0.00		3.20		1.299e-02		125.887		3.324e-03		13.817
7		0.00		2.80		9.059e-03		130.500		2.203e-03		11.986
7		0.00		2.40		4.209e-03		124.670		1.349e-03		18.578
7		0.00		2.00		1.903e-03		-8.253		7.217e-04		70.785
7		0.00		1.60		4.715e-03		-46.742		1.709e-03		25.698
7		0.00		1.20		8.516e-03		-49.660		2.398e-03		16.164
7		0.00		0.80		1.268e-02		-50.234		3.460e-03		15.140
7		0.00		0.40		1.689e-02		-49.523		5.049e-03		14.359
7		0.00		0.00		2.111e-02		-51.003		5.705e-03		10.492
7		0.00		-0.40		2.548e-02		-49.958		6.389e-03		8.041
7		0.00		-0.80		2.955e-02		-49.704		6.483e-03		7.718
7		0.00		-1.20		3.349e-02		-52.710		7.417e-03		9.109
7		0.00		-1.60		3.714e-02		-51.447		8.405e-03		8.927
7		0.00		-2.00		4.013e-02		-52.071		1.094e-02		11.970
7		0.00		-2.40		4.306e-02		-52.697		1.251e-02		17.390
7		0.00		-2.80		4.607e-02		-52.540		1.425e-02		15.889
7		0.00		-3.20		4.998e-02		-52.500		1.539e-02		10.015
7		0.00		-3.60		5.345e-02		-52.598		1.415e-02		7.402
7		0.00		-4.00		5.661e-02		-52.773		1.303e-02		7.722
7		0.00		-4.40		5.701e-02		-55.151		1.467e-02		13.458
7		0.00		-4.80		5.722e-02		-52.815		1.588e-02		13.783
7		0.00		-5.20		6.112e-02		-50.497		1.809e-02		11.713
7		0.00		-5.60		6.155e-02		-50.482		1.874e-02		16.998
7		0.00		-6.00		6.316e-02		-44.283		2.025e-02		22.001
7		0.00		-6.40		6.350e-02		-46.704		1.833e-02		10.485
7		0.00		-6.80		6.800e-02		-46.623		1.811e-02		10.638
7		0.00		-7.20		6.943e-02		-49.369		1.874e-02		11.948
7		0.00		-7.60		6.503e-02		-48.978		1.802e-02		16.340
7		0.00		-8.00		6.370e-02		-50.076		1.833e-02		15.746
7		0.00		-8.40		6.203e-02		-48.961		1.985e-02		14.249
7		0.00		-8.80		5.693e-02		-46.916		1.836e-02		17.961
7		0.00		-9.20		5.526e-02		-45.786		1.991e-02		18.637
7		0.00		-9.60		4.921e-02		-47.725		1.744e-02		10.866
7		0.00		-10.00		4.232e-02		-44.803		1.342e-02		8.251
7		0.00		-9.60		4.650e-02		-45.986		1.435e-02		9.765
7		0.00		-9.20		4.976e-02		-46.130		1.579e-02		11.394
7		0.00		-8.80		5.195e-02		-47.062		1.754e-02		14.048
7		0.00		-8.40		5.324e-02		-48.549		1.858e-02		21.657
7		0.00		-8.00		5.311e-02		-49.732		1.854e-02		20.463
7		0.00		-7.60		5.286e-02		-50.176		1.761e-02		11.760
7		0.00		-7.20		5.093e-02		-47.131		1.365e-02		7.740
7		0.00		-6.80		4.846e-02		-47.742		1.095e-02		9.322
7		0.00		-6.40		4.635e-02		-47.843		1.022e-02		9.617
7		0.00		-6.00		4.393e-02		-48.215		1.046e-02		9.223
7		0.00		-5.60		4.074e-02		-48.565		1.073e-02		10.667
7		0.00		-5.20		3.731e-02		-47.410		1.052e-02		13.650
7		0.00		-4.80		3.420e-02		-48.433		9.457e-03		11.934
7		0.00		-4.40		3.115e-02		-49.557		7.411e-03		7.898
7		0.00		-4.00		2.793e-02		-49.550		5.527e-03		7.725
7		0.00		-3.60		2.401e-02		-49.606		4.791e-03		10.763
7		0.00		-3.20		2.090e-02		-48.218		4.393e-03		9.940
7		0.00		-2.80		1.715e-02		-47.509		4.243e-03		14.328
7		0.00		-2.40		1.362e-02		-46.999		3.501e-03		15.000
7		0.00		-2.00		1.014e-02		-45.963		2.968e-03		16.288
7		0.00		-1.60		6.371e-03		-39.834		1.668e-03		16.506
7		0.00		-1.20		2.620e-03		-43.706		1.188e-03		48.608
7		0.00		-0.80		2.027e-03		52.244		6.951e-04		67.313
7		0.00		-0.40		5.058e-03		114.135		1.682e-03		18.718
8		0.00		0.00		8.498e-03		124.272		2.349e-03		14.897
8		0.00		0.40		1.216e-02		123.842		3.483e-03		22.006
8		0.00		0.80		1.559e-02		127.776		4.438e-03		20.254
8		0.00		1.20		1.951e-02		127.441		5.112e-03		8.106
8		0.00		1.60		2.294e-02		129.036		4.995e-03		8.487
8		0.00		2.00		2.594e-02		129.854		5.493e-03		7.935
8		0.00		2.40		2.906e-02		129.821		6.438e-03		8.943
8		0.00		2.80		3.146e-02		128.743		7.983e-03		12.445
8		0.00		3.20		3.440e-02		128.066		9.388e-03		18.642
8		0.00		3.60		3.717e-02		129.309		1.042e-02		10.422
8		0.00		4.00		4.035e-02		131.341		9.810e-03		6.388
8		0.00		4.40		4.261e-02		130.346		9.471e-03		7.343
8		0.00		4.80		4.437e-02		130.986		9.805e-03		8.230
8		0.00		5.20		4.743e-02		130.486		1.205e-02		8.197
8		0.00		5.60		4.788e-02		129.396		1.425e-02		15.729
8		0.00		6.00		5.042e-02		126.934		1.624e-02		24.172
8		0.00		6.40		5.161e-02		129.292		1.646e-02		13.913
8		0.00		6.80		5.453e-02		131.159		1.583e-02		8.075
8		0.00		7.20		5.587e-02		131.581		1.446e-02		8.132
8		0.00		7.60		5.526e-02		128.060		1.518e-02		15.256
8		0.00		8.00		5.625e-02		127.603		1.786e-02		14.666
8		0.00		8.40		5.912e-02		127.976		2.049e-02		19.194
8		0.00		8.80		5.823e-02		126.241		2.080e-02		27.395
8		0.00		9.20		5.883e-02		123.529		2.051e-02		29.636
8		0.00		9.60		6.166e-02		127.860		2.148e-02		10.413
8		0.00		10.00		5.855e-02		128.607		1.807e-02		13.166
8		0.00		9.60		5.847e-02		126.467		1.572e-02		13.072
8		0.00		9.20		5.898e-02		127.081		1.728e-02		14.289
8		0.00		8.80		5.739e-02		128.371		1.753e-02		11.510
8		0.00		8.40		5.534e-02		128.229		1.668e-02		19.906
8		0.00		8.00		5.314e-02		127.971		1.608e-02		15.809
8		0.00		7.60		5.052e-02		130.920		1.376e-02		7.267
8		0.00		7.20		4.778e-02		131.091		1.154e-02		8.436
8		0.00		6.80		4.500e-02		131.127		1.033e-02		8.869
8		0.00		6.40		4.122e-02		130.834		9.991e-03		8.812
8		0.00		6.00		3.789e-02		130.046		1.065e-02		12.522
8		0.00		5.60		3.391e-02		125.986		1.030e-02		26.238
8		0.00		5.20		3.127e-02		129.600		9.446e-03		18.424
8		0.00		4.80		2.786e-02		130.815		7.139e-03		7.761
8		0.00		4.40		2.392e-02		130.902		5.239e-03		9.240
8		0.00		4.00		2.093e-02		130.655		4.443e-03		10.203
8		0.00		3.60		1.673e-02		132.737		3.709e-03		10.658
8		0.00		3.20		1.270e-02		129.467		3.271e-03		15.763
8		0.00		2.80		8.919e-03		126.323		2.459e-03		24.658
8		0.00		2.40		4.965e-03		123.924		1.574e-03		28.781
8		0.00		2.00		1.890e-03		28.489		8.712e-04		68.939
8		0.00		1.60		3.880e-03		-48.452		1.534e-03		22.315
8		0.00		1.20		8.221e-03		-55.083		2.131e-03		11.950
8		0.00		0.80		1.210e-02		-50.824		2.966e-03		14.856
8		0.00		0.40		1.627e-02		-48.565		4.357e-03		12.387
8		0.00		0.00		2.037e-02		-51.641		5.329e-03		15.535
8		0.00		-0.40		2.452e-02		-49.247		6.658e-03		8.632
8		0.00		-0.80		2.876e-02		-50.960		6.984e-03		7.113
8		0.00		-1.20		3.302e-02		-49.335		6.986e-03		7.865
8		0.00		-1.60		3.674e-02		-50.623		7.801e-03		8.661
8		0.00		-2.00		3.999e-02		-50.579		9.454e-03		9.004
8		0.00		-2.40		4.274e-02		-50.948		1.134e-02		13.140
8		0.00		-2.80		4.614e-02		-52.508		1.388e-02		17.364
8		0.00		-3.20		4.892e-02		-52.138		1.544e-02		8.965
8		0.00		-3.60		5.256e-02		-53.830		1.439e-02		7.730
8		0.00		-4.00		5.518e-02		-53.211		1.364e-02		8.847
8		0.00		-4.40		5.505e-02		-53.688		1.465e-02		11.854
8		0.00		-4.80		5.628e-02		-55.498		1.805e-02		16.277
8		0.00		-5.20		5.860e-02		-54.460		1.984e-02		19.678
8		0.00		-5.60		5.912e-02		-48.832		1.995e-02		17.619
8		0.00		-6.00		6.237e-02		-50.240		2.035e-02		9.204
8		0.00		-6.40		6.365e-02		-46.869		1.801e-02		8.976
8		0.00		-6.80		6.373e-02		-52.093		1.638e-02		13.277
8		0.00		-7.20		6.437e-02		-51.658		1.842e-02		14.459
8		0.00		-7.60		6.403e-02		-48.772		1.841e-02		13.437
8		0.00		-8.00		6.432e-02		-48.645		2.007e-02		16.584
8		0.00		-8.40		6.113e-02		-48.167		1.912e-02		19.209
8		0.00		-8.80		6.026e-02		-46.883		1.836e-02		10.327
8		0.00		-9.20		5.664e-02		-45.740		1.594e-02		10.249
8		0.00		-9.60		4.998e-02		-46.055		1.354e-02		10.543
8		0.00		-10.00		4.345e-02		-46.202		1.225e-02		9.496
8		0.00		-9.60		4.876e-02		-46.715		1.549e-02		10.628
8		0.00		-9.20		5.225e-02		-45.559		1.702e-02		22.008
8		0.00		-8.80		5.414e-02		-45.004		1.764e-02		21.413
8		0.00		-8.40		5.671e-02		-47.423		1.800e-02		8.293
8		0.00		-8.00		5.652e-02		-47.583		1.454e-02		8.597
8		0.00		-7.60		5.461e-02		-48.089		1.302e-02		9.135
8		0.00		-7.20		5.204e-02		-47.393		1.323e-02		9.778
8		0.00		-6.80		4.893e-02		-49.683		1.435e-02		12.015
8		0.00		-6.40		4.692e-02		-49.587		1.416e-02		16.009
8		0.00		-6.00		4.421e-02		-49.453		1.350e-02		15.397
8		0.00		-5.60		4.162e-02		-48.283		1.209e-02		6.754
8		0.00		-5.20		3.885e-02		-49.116		9.120e-03		6.286
8		0.00		-4.80		3.521e-02		-50.551		7.632e-03		7.344
8		0.00		-4.40		3.178e-02		-51.000		7.048e-03		8.762
8		0.00		-4.00		2.825e-02		-50.642		6.572e-03		9.592
8		0.00		-3.60		2.478e-02		-49.526		6.458e-03		16.808
8		0.00		-3.20		2.141e-02		-50.133		5.489e-03		13.505
8		0.00		-2.80		1.812e-02		-49.452		4.163e-03		9.825
8		0.00		-2.40		1.456e-02		-45.646		3.188e-03		8.845
8		0.00		-2.00		1.129e-02		-42.433		2.211e-03		12.903
8		0.00		-1.60		7.107e-03		-40.617		1.834e-03		14.755
8		0.00		-1.20		3.485e-03		-33.034		1.194e-03		25.661
8		0.00		-0.80		1.883e-03		36.898		8.019e-04		62.115
8		0.00		-0.40		4.429e-03		116.541		1.731e-03		27.837
