# Date of analysis: 2024-03-08 10;58
# Segment other properties: height: -57.642240044677166, diff height: 537.4740309323895, deflection: 33.23398256666178, deflection error: 2.8124922518054447, adhesion: 32.74965561010478, phase offset: 0
# 
# Loop index	Read Volt (V)	Write Volt (V)	Amplitude (a.u)	Phase (deg)	Sigma Amp (a.u)	Sigma Pha (deg)	
1		0.00		0.00		3.053e-02		-51.974		6.462e-03		10.966
1		0.00		0.40		2.663e-02		-50.831		4.988e-03		8.216
1		0.00		0.80		1.964e-02		-48.646		3.570e-03		10.999
1		0.00		1.20		1.327e-02		-52.305		2.740e-03		12.919
1		0.00		1.60		6.903e-03		-49.616		1.966e-03		19.344
1		0.00		2.00		1.748e-03		0.981		8.058e-04		63.159
1		0.00		2.40		6.100e-03		120.147		1.741e-03		18.208
1		0.00		2.80		1.211e-02		125.303		2.870e-03		10.737
1		0.00		3.20		1.756e-02		127.251		3.755e-03		11.176
1		0.00		3.60		2.308e-02		128.645		4.823e-03		7.810
1		0.00		4.00		2.793e-02		129.357		6.283e-03		8.212
1		0.00		4.40		3.303e-02		128.719		7.204e-03		8.010
1		0.00		4.80		3.804e-02		129.986		8.071e-03		6.292
1		0.00		5.20		4.224e-02		129.790		9.766e-03		6.856
1		0.00		5.60		4.456e-02		130.898		1.001e-02		7.464
1		0.00		6.00		4.873e-02		130.394		1.159e-02		7.973
1		0.00		6.40		5.195e-02		131.916		1.314e-02		9.741
1		0.00		6.80		5.300e-02		132.717		1.328e-02		10.028
1		0.00		7.20		5.771e-02		133.997		1.434e-02		9.139
1		0.00		7.60		5.868e-02		132.462		1.475e-02		15.687
1		0.00		8.00		5.759e-02		131.031		1.561e-02		27.643
1		0.00		8.40		5.582e-02		126.863		1.552e-02		32.826
1		0.00		8.80		5.890e-02		126.370		1.746e-02		33.337
1		0.00		9.20		5.789e-02		116.827		1.823e-02		42.494
1		0.00		9.60		6.077e-02		131.257		1.825e-02		17.480
1		0.00		10.00		5.738e-02		132.308		1.695e-02		20.907
1		0.00		9.60		5.636e-02		125.739		1.630e-02		37.127
1		0.00		9.20		5.726e-02		132.584		1.506e-02		21.892
1		0.00		8.80		5.621e-02		135.093		1.447e-02		11.061
1		0.00		8.40		5.278e-02		134.274		1.241e-02		10.470
1		0.00		8.00		5.137e-02		134.332		1.165e-02		9.805
1		0.00		7.60		4.892e-02		131.442		1.119e-02		8.653
1		0.00		7.20		4.777e-02		131.141		1.114e-02		8.604
1		0.00		6.80		4.506e-02		131.652		1.007e-02		7.758
1		0.00		6.40		4.026e-02		129.992		8.820e-03		7.455
1		0.00		6.00		3.570e-02		129.929		7.846e-03		8.553
1		0.00		5.60		3.191e-02		130.855		6.997e-03		8.501
1		0.00		5.20		2.743e-02		130.257		5.794e-03		9.721
1		0.00		4.80		2.200e-02		130.247		4.631e-03		9.771
1		0.00		4.40		1.695e-02		130.499		3.674e-03		11.702
1		0.00		4.00		1.112e-02		127.574		2.670e-03		14.759
1		0.00		3.60		5.673e-03		131.174		1.497e-03		24.113
1		0.00		3.20		1.923e-03		-11.479		7.513e-04		57.071
1		0.00		2.80		7.130e-03		-57.032		1.786e-03		17.957
1		0.00		2.40		1.281e-02		-53.659		3.027e-03		15.684
1		0.00		2.00		1.920e-02		-52.820		3.805e-03		12.006
1		0.00		1.60		2.499e-02		-53.115		5.667e-03		10.358
1		0.00		1.20		3.216e-02		-51.877		6.635e-03		8.744
1		0.00		0.80		3.752e-02		-51.376		8.073e-03		8.402
1		0.00		0.40		4.353e-02		-50.704		8.744e-03		8.576
1		0.00		0.00		4.836e-02		-50.653		1.011e-02		6.507
1		0.00		-0.40		5.118e-02		-49.724		1.093e-02		6.474
1		0.00		-0.80		5.621e-02		-48.537		1.332e-02		9.510
1		0.00		-1.20		5.535e-02		-49.689		1.352e-02		14.419
1		0.00		-1.60		5.882e-02		-48.610		1.592e-02		14.390
1		0.00		-2.00		6.096e-02		-50.203		1.775e-02		14.738
1		0.00		-2.40		5.744e-02		-50.669		1.737e-02		22.922
1		0.00		-2.80		6.314e-02		-48.194		2.165e-02		18.333
1		0.00		-3.20		6.010e-02		-49.992		1.868e-02		24.002
1		0.00		-3.60		5.792e-02		-47.812		1.986e-02		30.334
1		0.00		-4.00		5.952e-02		-46.838		1.934e-02		25.947
1		0.00		-4.40		5.845e-02		-43.751		1.926e-02		24.830
1		0.00		-4.80		5.862e-02		-47.134		2.134e-02		37.077
1		0.00		-5.20		5.613e-02		-46.126		1.721e-02		31.167
1		0.00		-5.60		6.101e-02		-36.456		1.912e-02		34.856
1		0.00		-6.00		6.047e-02		-51.774		2.324e-02		28.497
1		0.00		-6.40		5.980e-02		-39.169		2.069e-02		34.837
1		0.00		-6.80		6.427e-02		-49.770		2.412e-02		32.439
1		0.00		-7.20		6.195e-02		-42.688		1.985e-02		31.651
1		0.00		-7.60		6.269e-02		-36.978		1.961e-02		29.042
1		0.00		-8.00		5.978e-02		-39.801		2.191e-02		36.478
1		0.00		-8.40		6.605e-02		-43.138		2.039e-02		27.273
1		0.00		-8.80		6.196e-02		-32.763		1.877e-02		24.572
1		0.00		-9.20		5.788e-02		-40.184		1.868e-02		29.031
1		0.00		-9.60		5.891e-02		-47.110		1.951e-02		26.989
1		0.00		-10.00		5.605e-02		-36.509		1.493e-02		14.286
1		0.00		-9.60		5.563e-02		-39.559		1.761e-02		24.012
1		0.00		-9.20		6.100e-02		-34.322		1.860e-02		22.407
1		0.00		-8.80		6.066e-02		-41.972		1.772e-02		27.895
1		0.00		-8.40		5.897e-02		-39.473		1.798e-02		27.597
1		0.00		-8.00		6.075e-02		-45.168		1.985e-02		25.838
1		0.00		-7.60		6.328e-02		-45.948		1.912e-02		23.596
1		0.00		-7.20		6.263e-02		-38.793		1.641e-02		16.304
1		0.00		-6.80		5.866e-02		-44.958		1.595e-02		18.701
1		0.00		-6.40		6.099e-02		-41.647		1.472e-02		11.611
1		0.00		-6.00		5.715e-02		-45.051		1.329e-02		11.274
1		0.00		-5.60		5.613e-02		-46.648		1.157e-02		8.867
1		0.00		-5.20		5.573e-02		-49.010		1.223e-02		7.617
1		0.00		-4.80		5.242e-02		-51.067		1.080e-02		6.705
1		0.00		-4.40		4.978e-02		-52.042		1.001e-02		7.760
1		0.00		-4.00		4.540e-02		-53.534		9.260e-03		6.076
1		0.00		-3.60		4.035e-02		-52.390		7.984e-03		8.758
1		0.00		-3.20		3.573e-02		-50.751		7.145e-03		8.508
1		0.00		-2.80		3.138e-02		-51.292		6.346e-03		8.868
1		0.00		-2.40		2.567e-02		-48.106		5.150e-03		9.120
1		0.00		-2.00		2.067e-02		-47.950		4.387e-03		9.717
1		0.00		-1.60		1.524e-02		-47.210		3.259e-03		12.648
1		0.00		-1.20		9.507e-03		-44.828		2.462e-03		17.097
1		0.00		-0.80		4.025e-03		-31.355		1.297e-03		29.186
1		0.00		-0.40		2.557e-03		77.399		1.060e-03		55.639
2		0.00		0.00		6.889e-03		117.409		2.014e-03		23.052
2		0.00		0.40		1.247e-02		124.964		3.533e-03		17.464
2		0.00		0.80		1.704e-02		124.398		4.907e-03		15.701
2		0.00		1.20		2.215e-02		127.121		6.131e-03		15.561
2		0.00		1.60		2.689e-02		126.447		7.562e-03		14.248
2		0.00		2.00		3.152e-02		128.164		8.687e-03		12.256
2		0.00		2.40		3.679e-02		127.635		9.792e-03		11.507
2		0.00		2.80		4.168e-02		128.040		1.044e-02		9.480
2		0.00		3.20		4.632e-02		127.503		1.169e-02		10.868
2		0.00		3.60		4.841e-02		130.089		1.128e-02		7.889
2		0.00		4.00		5.051e-02		131.628		1.170e-02		9.642
2		0.00		4.40		5.452e-02		131.673		1.246e-02		8.707
2		0.00		4.80		5.551e-02		133.243		1.246e-02		9.923
2		0.00		5.20		5.960e-02		130.720		1.526e-02		12.074
2		0.00		5.60		6.014e-02		130.855		1.399e-02		36.124
2		0.00		6.00		6.181e-02		135.076		1.512e-02		13.516
2		0.00		6.40		6.107e-02		122.237		1.623e-02		64.214
2		0.00		6.80		6.043e-02		126.771		1.504e-02		39.082
2		0.00		7.20		6.285e-02		127.413		1.608e-02		42.235
2		0.00		7.60		6.124e-02		100.777		1.811e-02		70.262
2		0.00		8.00		6.308e-02		120.317		1.720e-02		53.779
2		0.00		8.40		6.497e-02		122.099		1.711e-02		37.292
2		0.00		8.80		5.760e-02		80.046		2.028e-02		91.033
2		0.00		9.20		6.010e-02		111.458		1.816e-02		51.569
2		0.00		9.60		5.793e-02		107.535		1.995e-02		58.780
2		0.00		10.00		5.640e-02		120.628		1.740e-02		35.369
2		0.00		9.60		6.020e-02		121.805		1.906e-02		49.473
2		0.00		9.20		5.863e-02		126.067		1.726e-02		39.088
2		0.00		8.80		5.972e-02		131.574		1.573e-02		21.130
2		0.00		8.40		5.661e-02		127.982		1.666e-02		28.121
2		0.00		8.00		5.462e-02		131.996		1.626e-02		16.549
2		0.00		7.60		5.272e-02		130.726		1.442e-02		23.614
2		0.00		7.20		4.961e-02		131.752		1.304e-02		10.911
2		0.00		6.80		4.711e-02		131.683		1.287e-02		10.693
2		0.00		6.40		4.292e-02		131.021		1.106e-02		10.108
2		0.00		6.00		3.983e-02		130.851		1.032e-02		10.806
2		0.00		5.60		3.467e-02		131.257		9.598e-03		10.707
2		0.00		5.20		2.944e-02		129.653		8.677e-03		12.557
2		0.00		4.80		2.460e-02		129.674		7.444e-03		13.933
2		0.00		4.40		1.935e-02		128.934		5.677e-03		15.217
2		0.00		4.00		1.418e-02		130.944		4.271e-03		16.930
2		0.00		3.60		9.082e-03		126.306		2.607e-03		22.125
2		0.00		3.20		3.306e-03		106.968		1.269e-03		48.176
2		0.00		2.80		3.274e-03		-67.962		1.212e-03		29.166
2		0.00		2.40		8.570e-03		-57.264		2.316e-03		17.154
2		0.00		2.00		1.458e-02		-55.774		4.050e-03		14.500
2		0.00		1.60		2.091e-02		-54.793		5.315e-03		11.591
2		0.00		1.20		2.638e-02		-53.903		6.323e-03		10.898
2		0.00		0.80		3.284e-02		-52.871		7.426e-03		8.754
2		0.00		0.40		3.864e-02		-52.202		8.327e-03		7.742
2		0.00		0.00		4.446e-02		-52.459		9.190e-03		6.415
2		0.00		-0.40		4.911e-02		-51.334		9.813e-03		5.862
2		0.00		-0.80		5.302e-02		-52.666		1.052e-02		7.307
2		0.00		-1.20		5.778e-02		-53.342		1.134e-02		6.604
2		0.00		-1.60		5.860e-02		-51.256		1.287e-02		8.642
2		0.00		-2.00		6.122e-02		-49.644		1.362e-02		10.257
2		0.00		-2.40		6.199e-02		-50.316		1.392e-02		11.190
2		0.00		-2.80		6.208e-02		-48.397		1.405e-02		15.679
2		0.00		-3.20		6.000e-02		-43.795		1.486e-02		19.469
2		0.00		-3.60		5.744e-02		-51.754		1.483e-02		27.433
2		0.00		-4.00		6.501e-02		-46.028		1.779e-02		21.515
2		0.00		-4.40		6.329e-02		-42.155		1.866e-02		22.610
2		0.00		-4.80		6.484e-02		-49.704		1.666e-02		24.220
2		0.00		-5.20		6.305e-02		-34.862		1.947e-02		24.771
2		0.00		-5.60		6.174e-02		-33.541		1.746e-02		21.578
2		0.00		-6.00		6.681e-02		-43.654		1.748e-02		26.685
2		0.00		-6.40		6.929e-02		-53.979		2.290e-02		26.149
2		0.00		-6.80		6.389e-02		-37.066		1.904e-02		26.408
2		0.00		-7.20		6.193e-02		-34.633		1.933e-02		31.810
2		0.00		-7.60		6.205e-02		-37.304		2.221e-02		33.379
2		0.00		-8.00		6.623e-02		-47.690		2.167e-02		29.791
2		0.00		-8.40		6.316e-02		-38.333		2.130e-02		32.800
2		0.00		-8.80		6.183e-02		-33.424		1.997e-02		22.908
2		0.00		-9.20		5.862e-02		-29.844		2.064e-02		23.744
2		0.00		-9.60		5.791e-02		-38.121		1.957e-02		27.433
2		0.00		-10.00		5.421e-02		-39.137		1.849e-02		23.145
2		0.00		-9.60		5.587e-02		-40.549		2.205e-02		31.992
2		0.00		-9.20		6.100e-02		-42.760		2.165e-02		33.466
2		0.00		-8.80		5.757e-02		-40.941		1.930e-02		35.653
2		0.00		-8.40		5.887e-02		-36.571		2.029e-02		30.821
2		0.00		-8.00		6.183e-02		-43.245		1.905e-02		23.082
2		0.00		-7.60		6.290e-02		-38.039		2.019e-02		24.449
2		0.00		-7.20		6.133e-02		-41.944		1.890e-02		18.954
2		0.00		-6.80		6.185e-02		-47.120		1.858e-02		15.726
2		0.00		-6.40		6.134e-02		-46.904		1.700e-02		13.652
2		0.00		-6.00		5.990e-02		-46.758		1.553e-02		9.101
2		0.00		-5.60		5.936e-02		-48.871		1.441e-02		8.774
2		0.00		-5.20		5.636e-02		-50.221		1.399e-02		8.483
2		0.00		-4.80		5.456e-02		-52.495		1.282e-02		7.780
2		0.00		-4.40		5.157e-02		-53.367		1.142e-02		7.056
2		0.00		-4.00		4.638e-02		-52.502		9.975e-03		7.105
2		0.00		-3.60		4.201e-02		-53.704		8.917e-03		7.203
2		0.00		-3.20		3.768e-02		-53.015		7.707e-03		7.446
2		0.00		-2.80		3.259e-02		-52.148		6.415e-03		7.213
2		0.00		-2.40		2.739e-02		-52.061		4.939e-03		7.096
2		0.00		-2.00		2.221e-02		-49.733		4.000e-03		8.890
2		0.00		-1.60		1.714e-02		-48.191		3.103e-03		10.140
2		0.00		-1.20		1.158e-02		-45.743		2.313e-03		15.305
2		0.00		-0.80		6.085e-03		-40.042		1.523e-03		18.059
2		0.00		-0.40		1.906e-03		7.299		8.237e-04		60.046
3		0.00		0.00		5.110e-03		112.516		1.399e-03		17.812
3		0.00		0.40		1.028e-02		126.337		2.026e-03		12.259
3		0.00		0.80		1.591e-02		125.706		2.916e-03		9.229
3		0.00		1.20		2.101e-02		127.919		3.927e-03		8.980
3		0.00		1.60		2.636e-02		127.449		4.721e-03		7.119
3		0.00		2.00		3.119e-02		128.690		5.375e-03		6.851
3		0.00		2.40		3.552e-02		129.285		6.619e-03		6.808
3		0.00		2.80		3.954e-02		130.051		7.532e-03		6.354
3		0.00		3.20		4.322e-02		130.652		8.591e-03		6.901
3		0.00		3.60		4.736e-02		130.684		9.801e-03		7.230
3		0.00		4.00		4.971e-02		132.022		1.066e-02		8.323
3		0.00		4.40		5.148e-02		132.907		1.201e-02		7.854
3		0.00		4.80		5.538e-02		131.166		1.336e-02		12.721
3		0.00		5.20		5.689e-02		134.149		1.427e-02		10.858
3		0.00		5.60		5.712e-02		129.878		1.705e-02		27.627
3		0.00		6.00		5.858e-02		131.562		1.802e-02		25.836
3		0.00		6.40		5.799e-02		128.811		1.852e-02		30.336
3		0.00		6.80		6.094e-02		133.473		1.989e-02		18.405
3		0.00		7.20		6.058e-02		127.172		2.062e-02		31.411
3		0.00		7.60		6.222e-02		121.146		2.127e-02		41.242
3		0.00		8.00		6.044e-02		128.992		2.020e-02		33.518
3		0.00		8.40		6.025e-02		105.755		2.148e-02		68.564
3		0.00		8.80		5.964e-02		109.024		2.067e-02		59.933
3		0.00		9.20		6.436e-02		110.991		2.225e-02		53.446
3		0.00		9.60		6.791e-02		122.991		2.269e-02		27.443
3		0.00		10.00		6.203e-02		127.260		1.919e-02		37.325
3		0.00		9.60		6.160e-02		121.518		1.985e-02		35.747
3		0.00		9.20		6.200e-02		126.990		1.897e-02		21.014
3		0.00		8.80		6.207e-02		130.590		1.848e-02		19.903
3		0.00		8.40		6.023e-02		129.154		1.720e-02		20.696
3		0.00		8.00		5.746e-02		131.776		1.573e-02		13.504
3		0.00		7.60		5.589e-02		132.024		1.439e-02		9.770
3		0.00		7.20		5.361e-02		130.014		1.417e-02		8.963
3		0.00		6.80		4.941e-02		129.733		1.293e-02		8.838
3		0.00		6.40		4.629e-02		128.098		1.213e-02		8.386
3		0.00		6.00		4.211e-02		130.373		1.068e-02		6.403
3		0.00		5.60		3.706e-02		130.301		9.735e-03		8.810
3		0.00		5.20		3.269e-02		130.708		7.848e-03		7.653
3		0.00		4.80		2.813e-02		131.699		6.544e-03		7.578
3		0.00		4.40		2.357e-02		129.858		5.416e-03		8.891
3		0.00		4.00		1.761e-02		131.798		3.907e-03		8.964
3		0.00		3.60		1.232e-02		136.267		2.757e-03		11.345
3		0.00		3.20		7.098e-03		135.109		1.743e-03		12.859
3		0.00		2.80		1.910e-03		22.681		8.671e-04		90.839
3		0.00		2.40		5.026e-03		-73.717		1.464e-03		21.674
3		0.00		2.00		1.087e-02		-57.407		1.913e-03		11.032
3		0.00		1.60		1.706e-02		-52.176		3.174e-03		10.999
3		0.00		1.20		2.329e-02		-54.357		3.652e-03		8.017
3		0.00		0.80		2.907e-02		-53.384		4.745e-03		8.325
3		0.00		0.40		3.493e-02		-51.775		5.505e-03		6.688
3		0.00		0.00		4.050e-02		-53.152		6.560e-03		6.710
3		0.00		-0.40		4.575e-02		-51.509		7.070e-03		5.601
3		0.00		-0.80		4.991e-02		-51.721		8.066e-03		5.787
3		0.00		-1.20		5.438e-02		-51.139		9.673e-03		5.485
3		0.00		-1.60		5.723e-02		-53.547		1.144e-02		8.233
3		0.00		-2.00		5.875e-02		-51.375		1.219e-02		8.804
3		0.00		-2.40		5.972e-02		-50.267		1.433e-02		13.503
3		0.00		-2.80		5.962e-02		-49.752		1.473e-02		15.773
3		0.00		-3.20		6.090e-02		-45.892		1.414e-02		16.403
3		0.00		-3.60		6.278e-02		-46.063		1.632e-02		16.577
3		0.00		-4.00		6.436e-02		-51.295		1.807e-02		19.059
3		0.00		-4.40		6.472e-02		-45.131		1.714e-02		20.578
3		0.00		-4.80		6.341e-02		-44.946		1.850e-02		23.177
3		0.00		-5.20		6.456e-02		-45.679		1.869e-02		23.567
3		0.00		-5.60		6.458e-02		-47.869		1.827e-02		27.973
3		0.00		-6.00		6.149e-02		-41.067		1.790e-02		26.754
3		0.00		-6.40		6.291e-02		-39.897		1.946e-02		27.152
3		0.00		-6.80		6.806e-02		-44.650		2.239e-02		25.877
3		0.00		-7.20		6.808e-02		-42.382		2.034e-02		24.119
3		0.00		-7.60		6.005e-02		-29.895		1.867e-02		25.604
3		0.00		-8.00		6.425e-02		-36.782		1.922e-02		25.765
3		0.00		-8.40		6.582e-02		-36.500		2.173e-02		30.546
3		0.00		-8.80		6.119e-02		-32.787		2.112e-02		26.267
3		0.00		-9.20		6.330e-02		-47.746		2.106e-02		30.023
3		0.00		-9.60		5.840e-02		-38.171		1.928e-02		24.570
3		0.00		-10.00		5.579e-02		-39.740		1.800e-02		19.589
3		0.00		-9.60		5.854e-02		-43.995		1.836e-02		21.142
3		0.00		-9.20		6.111e-02		-40.452		2.063e-02		25.342
3		0.00		-8.80		6.354e-02		-41.773		1.788e-02		18.910
3		0.00		-8.40		6.309e-02		-43.278		1.853e-02		18.504
3		0.00		-8.00		6.354e-02		-40.082		1.736e-02		15.470
3		0.00		-7.60		6.133e-02		-39.330		1.429e-02		14.543
3		0.00		-7.20		6.310e-02		-44.070		1.451e-02		13.681
3		0.00		-6.80		6.291e-02		-43.515		1.394e-02		10.665
3		0.00		-6.40		6.182e-02		-46.040		1.179e-02		7.586
3		0.00		-6.00		6.253e-02		-47.464		1.329e-02		7.958
3		0.00		-5.60		5.780e-02		-46.607		1.058e-02		7.897
3		0.00		-5.20		5.757e-02		-50.176		1.039e-02		6.642
3		0.00		-4.80		5.381e-02		-49.584		9.348e-03		5.855
3		0.00		-4.40		5.026e-02		-51.736		8.758e-03		5.483
3		0.00		-4.00		4.576e-02		-51.303		8.230e-03		6.242
3		0.00		-3.60		4.146e-02		-52.007		7.408e-03		6.468
3		0.00		-3.20		3.621e-02		-52.632		6.732e-03		6.988
3		0.00		-2.80		3.146e-02		-50.753		5.974e-03		7.322
3		0.00		-2.40		2.619e-02		-49.304		4.988e-03		9.775
3		0.00		-2.00		2.135e-02		-49.957		4.514e-03		11.010
3		0.00		-1.60		1.608e-02		-47.756		3.406e-03		10.720
3		0.00		-1.20		1.126e-02		-44.582		2.532e-03		13.432
3		0.00		-0.80		5.955e-03		-42.510		1.589e-03		21.850
3		0.00		-0.40		1.997e-03		-28.281		7.981e-04		55.479
4		0.00		0.00		4.649e-03		114.352		1.693e-03		26.504
4		0.00		0.40		9.377e-03		122.701		2.598e-03		16.720
4		0.00		0.80		1.463e-02		128.175		3.591e-03		12.777
4		0.00		1.20		1.911e-02		125.325		4.608e-03		13.794
4		0.00		1.60		2.463e-02		129.135		5.811e-03		12.818
4		0.00		2.00		2.928e-02		127.117		6.939e-03		11.734
4		0.00		2.40		3.312e-02		129.006		8.080e-03		10.580
4		0.00		2.80		3.759e-02		129.305		8.894e-03		9.014
4		0.00		3.20		4.214e-02		128.142		9.845e-03		8.834
4		0.00		3.60		4.626e-02		129.370		1.028e-02		7.267
4		0.00		4.00		4.954e-02		130.649		1.060e-02		7.091
4		0.00		4.40		5.245e-02		130.817		1.051e-02		5.795
4		0.00		4.80		5.506e-02		131.470		1.173e-02		7.647
4		0.00		5.20		5.608e-02		132.654		1.196e-02		15.683
4		0.00		5.60		5.935e-02		132.500		1.334e-02		9.483
4		0.00		6.00		5.885e-02		131.643		1.372e-02		24.333
4		0.00		6.40		6.026e-02		131.935		1.480e-02		23.711
4		0.00		6.80		6.029e-02		130.636		1.704e-02		28.535
4		0.00		7.20		5.974e-02		119.158		1.896e-02		51.578
4		0.00		7.60		6.454e-02		125.938		2.053e-02		34.815
4		0.00		8.00		6.380e-02		130.212		1.948e-02		31.777
4		0.00		8.40		6.302e-02		125.399		2.086e-02		38.596
4		0.00		8.80		6.272e-02		123.115		1.898e-02		37.506
4		0.00		9.20		6.514e-02		117.728		2.120e-02		56.043
4		0.00		9.60		6.419e-02		108.508		2.199e-02		65.902
4		0.00		10.00		6.270e-02		126.756		2.067e-02		29.552
4		0.00		9.60		5.848e-02		117.934		1.798e-02		49.102
4		0.00		9.20		6.317e-02		126.461		1.862e-02		23.863
4		0.00		8.80		6.487e-02		133.990		1.636e-02		10.818
4		0.00		8.40		6.143e-02		134.938		1.524e-02		14.695
4		0.00		8.00		5.876e-02		134.496		1.417e-02		9.954
4		0.00		7.60		5.535e-02		132.852		1.331e-02		10.011
4		0.00		7.20		5.360e-02		132.980		1.292e-02		6.597
4		0.00		6.80		5.025e-02		132.839		1.169e-02		5.269
4		0.00		6.40		4.660e-02		132.624		1.090e-02		5.736
4		0.00		6.00		4.187e-02		131.902		9.903e-03		6.463
4		0.00		5.60		3.833e-02		131.955		9.039e-03		6.298
4		0.00		5.20		3.349e-02		132.784		7.584e-03		6.425
4		0.00		4.80		2.860e-02		132.255		6.937e-03		7.904
4		0.00		4.40		2.344e-02		132.564		5.750e-03		10.441
4		0.00		4.00		1.838e-02		132.937		4.525e-03		14.738
4		0.00		3.60		1.318e-02		135.672		3.355e-03		14.390
4		0.00		3.20		7.993e-03		135.642		1.991e-03		18.408
4		0.00		2.80		2.644e-03		70.721		1.015e-03		88.903
4		0.00		2.40		4.286e-03		-61.269		1.486e-03		30.537
4		0.00		2.00		1.006e-02		-58.524		2.644e-03		14.161
4		0.00		1.60		1.590e-02		-53.442		3.513e-03		10.972
4		0.00		1.20		2.152e-02		-53.477		4.635e-03		7.885
4		0.00		0.80		2.730e-02		-53.724		5.824e-03		8.812
4		0.00		0.40		3.329e-02		-54.181		6.002e-03		7.419
4		0.00		0.00		3.890e-02		-52.813		6.796e-03		5.854
4		0.00		-0.40		4.420e-02		-51.659		7.377e-03		6.003
4		0.00		-0.80		4.856e-02		-52.207		8.058e-03		6.103
4		0.00		-1.20		5.346e-02		-51.941		9.058e-03		5.006
4		0.00		-1.60		5.630e-02		-53.170		9.825e-03		6.373
4		0.00		-2.00		5.824e-02		-50.637		1.050e-02		6.766
4		0.00		-2.40		5.891e-02		-48.832		1.365e-02		11.040
4		0.00		-2.80		6.224e-02		-48.834		1.526e-02		7.936
4		0.00		-3.20		6.121e-02		-48.423		1.807e-02		11.810
4		0.00		-3.60		5.960e-02		-47.453		1.647e-02		20.534
4		0.00		-4.00		6.293e-02		-45.925		1.736e-02		16.358
4		0.00		-4.40		6.403e-02		-50.400		1.580e-02		16.293
4		0.00		-4.80		6.407e-02		-42.365		1.880e-02		17.962
4		0.00		-5.20		6.090e-02		-51.420		1.634e-02		25.977
4		0.00		-5.60		6.547e-02		-39.781		1.646e-02		19.182
4		0.00		-6.00		6.204e-02		-41.183		1.640e-02		25.467
4		0.00		-6.40		6.374e-02		-37.913		1.609e-02		23.784
4		0.00		-6.80		6.185e-02		-38.607		1.898e-02		29.548
4		0.00		-7.20		6.312e-02		-36.044		1.748e-02		26.450
4		0.00		-7.60		6.522e-02		-38.302		1.911e-02		26.558
4		0.00		-8.00		6.160e-02		-37.411		2.082e-02		30.033
4		0.00		-8.40		6.428e-02		-35.211		2.116e-02		24.334
4		0.00		-8.80		6.482e-02		-40.573		2.134e-02		23.659
4		0.00		-9.20		6.188e-02		-41.189		1.999e-02		23.905
4		0.00		-9.60		5.982e-02		-43.786		1.931e-02		16.616
4		0.00		-10.00		5.630e-02		-42.314		1.653e-02		10.686
4		0.00		-9.60		6.060e-02		-44.301		1.914e-02		15.829
4		0.00		-9.20		6.034e-02		-32.842		1.682e-02		17.371
4		0.00		-8.80		6.498e-02		-41.326		1.803e-02		18.845
4		0.00		-8.40		6.204e-02		-45.249		1.714e-02		23.673
4		0.00		-8.00		6.504e-02		-42.975		1.941e-02		22.095
4		0.00		-7.60		6.323e-02		-42.396		1.564e-02		16.450
4		0.00		-7.20		6.154e-02		-42.103		1.791e-02		15.177
4		0.00		-6.80		6.261e-02		-43.872		1.600e-02		11.878
4		0.00		-6.40		6.072e-02		-43.522		1.680e-02		13.540
4		0.00		-6.00		6.068e-02		-48.745		1.527e-02		12.882
4		0.00		-5.60		6.005e-02		-49.534		1.496e-02		8.420
4		0.00		-5.20		5.805e-02		-50.587		1.265e-02		6.829
4		0.00		-4.80		5.455e-02		-50.326		1.019e-02		6.027
4		0.00		-4.40		5.147e-02		-50.917		9.194e-03		5.028
4		0.00		-4.00		4.626e-02		-50.623		8.128e-03		5.388
4		0.00		-3.60		4.133e-02		-51.116		7.048e-03		6.821
4		0.00		-3.20		3.700e-02		-51.336		6.348e-03		8.570
4		0.00		-2.80		3.179e-02		-49.917		5.908e-03		7.488
4		0.00		-2.40		2.625e-02		-48.822		5.698e-03		8.113
4		0.00		-2.00		2.119e-02		-51.125		4.937e-03		11.362
4		0.00		-1.60		1.644e-02		-48.871		4.007e-03		12.414
4		0.00		-1.20		1.122e-02		-45.379		2.925e-03		12.969
4		0.00		-0.80		6.399e-03		-46.596		1.859e-03		19.715
4		0.00		-0.40		2.079e-03		-7.706		8.551e-04		55.043
5		0.00		0.00		4.108e-03		110.694		1.328e-03		36.296
5		0.00		0.40		8.999e-03		124.765		2.028e-03		12.061
5		0.00		0.80		1.466e-02		126.251		2.428e-03		10.441
5		0.00		1.20		1.976e-02		128.073		3.223e-03		9.263
5		0.00		1.60		2.471e-02		130.154		4.587e-03		8.172
5		0.00		2.00		2.898e-02		130.410		5.587e-03		7.621
5		0.00		2.40		3.348e-02		128.695		6.791e-03		11.637
5		0.00		2.80		3.777e-02		129.525		8.738e-03		10.498
5		0.00		3.20		4.163e-02		128.259		1.023e-02		12.816
5		0.00		3.60		4.571e-02		129.310		1.125e-02		10.929
5		0.00		4.00		4.934e-02		128.979		1.165e-02		7.481
5		0.00		4.40		5.221e-02		130.968		1.072e-02		6.030
5		0.00		4.80		5.482e-02		131.788		1.166e-02		6.044
5		0.00		5.20		5.739e-02		132.152		1.253e-02		11.072
5		0.00		5.60		5.779e-02		132.085		1.347e-02		9.891
5		0.00		6.00		5.839e-02		133.588		1.403e-02		25.067
5		0.00		6.40		6.015e-02		131.002		1.656e-02		31.846
5		0.00		6.80		5.892e-02		135.770		1.548e-02		15.356
5		0.00		7.20		5.801e-02		129.556		1.837e-02		32.387
5		0.00		7.60		5.995e-02		121.931		1.970e-02		51.640
5		0.00		8.00		6.192e-02		126.267		2.168e-02		25.551
5		0.00		8.40		6.316e-02		125.288		1.809e-02		40.222
5		0.00		8.80		6.467e-02		124.145		1.739e-02		34.721
5		0.00		9.20		6.584e-02		129.440		1.732e-02		30.631
5		0.00		9.60		6.533e-02		130.160		1.574e-02		36.850
5		0.00		10.00		6.205e-02		117.094		1.800e-02		64.607
5		0.00		9.60		6.292e-02		126.720		1.786e-02		33.892
5		0.00		9.20		6.166e-02		129.672		1.808e-02		27.966
5		0.00		8.80		5.963e-02		128.816		1.844e-02		36.147
5		0.00		8.40		5.707e-02		131.200		1.606e-02		30.093
5		0.00		8.00		5.766e-02		131.754		1.635e-02		17.396
5		0.00		7.60		5.369e-02		129.332		1.514e-02		23.161
5		0.00		7.20		5.412e-02		130.474		1.469e-02		9.116
5		0.00		6.80		4.953e-02		130.241		1.254e-02		7.930
5		0.00		6.40		4.681e-02		131.809		1.063e-02		6.234
5		0.00		6.00		4.317e-02		132.468		9.117e-03		5.688
5		0.00		5.60		3.860e-02		132.621		8.313e-03		6.952
5		0.00		5.20		3.378e-02		131.488		7.078e-03		7.069
5		0.00		4.80		2.862e-02		134.241		6.626e-03		6.511
5		0.00		4.40		2.390e-02		133.881		5.740e-03		10.929
5		0.00		4.00		1.877e-02		134.942		4.710e-03		14.031
5		0.00		3.60		1.294e-02		134.716		3.658e-03		16.842
5		0.00		3.20		8.032e-03		137.333		2.119e-03		15.908
5		0.00		2.80		2.774e-03		81.717		1.072e-03		78.756
5		0.00		2.40		3.602e-03		-78.694		1.337e-03		28.341
5		0.00		2.00		9.458e-03		-53.252		2.103e-03		14.373
5		0.00		1.60		1.520e-02		-56.594		2.650e-03		11.025
5		0.00		1.20		2.085e-02		-53.242		3.444e-03		10.569
5		0.00		0.80		2.656e-02		-51.586		4.583e-03		7.830
5		0.00		0.40		3.225e-02		-51.037		5.315e-03		6.993
5		0.00		0.00		3.729e-02		-51.917		7.267e-03		7.886
5		0.00		-0.40		4.310e-02		-51.338		9.043e-03		6.681
5		0.00		-0.80		4.733e-02		-51.531		1.076e-02		8.226
5		0.00		-1.20		5.079e-02		-53.432		1.318e-02		9.330
5		0.00		-1.60		5.408e-02		-52.824		1.426e-02		9.303
5		0.00		-2.00		5.704e-02		-52.824		1.500e-02		6.936
5		0.00		-2.40		5.734e-02		-51.399		1.343e-02		8.780
5		0.00		-2.80		6.211e-02		-50.609		1.530e-02		9.927
5		0.00		-3.20		6.180e-02		-49.251		1.239e-02		8.728
5		0.00		-3.60		6.216e-02		-44.405		1.367e-02		11.583
5		0.00		-4.00		6.427e-02		-45.164		1.853e-02		18.705
5		0.00		-4.40		6.355e-02		-44.093		1.519e-02		16.166
5		0.00		-4.80		6.481e-02		-47.081		1.780e-02		21.667
5		0.00		-5.20		6.402e-02		-43.053		1.761e-02		19.943
5		0.00		-5.60		6.541e-02		-40.724		1.993e-02		23.790
5		0.00		-6.00		6.375e-02		-43.144		1.810e-02		20.533
5		0.00		-6.40		6.351e-02		-37.275		1.735e-02		21.639
5		0.00		-6.80		6.528e-02		-36.442		1.754e-02		22.144
5		0.00		-7.20		6.625e-02		-41.758		1.818e-02		23.660
5		0.00		-7.60		6.742e-02		-38.575		1.863e-02		23.171
5		0.00		-8.00		6.789e-02		-44.318		1.743e-02		24.222
5		0.00		-8.40		6.652e-02		-37.447		1.615e-02		24.112
5		0.00		-8.80		6.418e-02		-36.687		1.740e-02		21.846
5		0.00		-9.20		6.018e-02		-30.685		1.695e-02		18.461
5		0.00		-9.60		6.112e-02		-39.969		1.883e-02		17.072
5		0.00		-10.00		5.415e-02		-37.390		1.555e-02		10.832
5		0.00		-9.60		5.984e-02		-40.118		1.896e-02		14.446
5		0.00		-9.20		5.977e-02		-38.227		1.809e-02		20.520
5		0.00		-8.80		6.091e-02		-35.097		2.093e-02		24.176
5		0.00		-8.40		5.974e-02		-35.388		1.819e-02		20.895
5		0.00		-8.00		6.188e-02		-41.169		1.967e-02		21.482
5		0.00		-7.60		6.194e-02		-38.844		1.871e-02		21.225
5		0.00		-7.20		6.744e-02		-45.620		1.752e-02		12.230
5		0.00		-6.80		6.419e-02		-46.074		1.672e-02		9.261
5		0.00		-6.40		6.264e-02		-47.130		1.347e-02		7.806
5		0.00		-6.00		6.128e-02		-47.260		1.260e-02		7.547
5		0.00		-5.60		6.104e-02		-49.178		1.212e-02		6.729
5		0.00		-5.20		5.763e-02		-48.831		1.041e-02		6.630
5		0.00		-4.80		5.424e-02		-50.306		9.857e-03		6.342
5		0.00		-4.40		4.995e-02		-51.384		9.404e-03		6.556
5		0.00		-4.00		4.511e-02		-51.887		8.524e-03		6.290
5		0.00		-3.60		4.038e-02		-51.315		8.111e-03		5.946
5		0.00		-3.20		3.588e-02		-51.254		7.830e-03		9.926
5		0.00		-2.80		3.075e-02		-50.483		7.527e-03		9.156
5		0.00		-2.40		2.567e-02		-51.326		6.837e-03		11.826
5		0.00		-2.00		2.117e-02		-50.363		5.737e-03		11.918
5		0.00		-1.60		1.641e-02		-50.028		4.484e-03		11.417
5		0.00		-1.20		1.154e-02		-48.736		2.885e-03		17.991
5		0.00		-0.80		6.854e-03		-47.765		1.803e-03		20.769
5		0.00		-0.40		2.191e-03		-42.619		8.240e-04		49.897
6		0.00		0.00		3.553e-03		107.734		1.177e-03		44.226
6		0.00		0.40		8.647e-03		124.187		1.944e-03		12.730
6		0.00		0.80		1.375e-02		127.192		2.779e-03		10.912
6		0.00		1.20		1.844e-02		129.350		3.084e-03		8.315
6		0.00		1.60		2.304e-02		130.389		4.258e-03		7.806
6		0.00		2.00		2.735e-02		129.391		5.328e-03		8.005
6		0.00		2.40		3.163e-02		129.504		7.150e-03		10.123
6		0.00		2.80		3.617e-02		130.217		8.668e-03		11.417
6		0.00		3.20		4.027e-02		129.394		9.755e-03		11.579
6		0.00		3.60		4.338e-02		129.564		1.047e-02		10.384
6		0.00		4.00		4.674e-02		128.944		1.073e-02		8.117
6		0.00		4.40		5.073e-02		130.679		1.045e-02		6.618
6		0.00		4.80		5.396e-02		132.371		9.918e-03		6.048
6		0.00		5.20		5.594e-02		133.100		1.074e-02		7.747
6		0.00		5.60		5.828e-02		132.403		1.203e-02		7.869
6		0.00		6.00		5.953e-02		131.868		1.372e-02		24.522
6		0.00		6.40		5.896e-02		125.495		1.640e-02		45.979
6		0.00		6.80		6.171e-02		127.344		1.897e-02		36.028
6		0.00		7.20		6.086e-02		130.005		1.913e-02		34.996
6		0.00		7.60		6.428e-02		131.914		1.904e-02		19.487
6		0.00		8.00		6.042e-02		125.635		1.934e-02		42.950
6		0.00		8.40		6.424e-02		126.326		1.885e-02		40.831
6		0.00		8.80		6.521e-02		126.808		1.773e-02		30.254
6		0.00		9.20		6.571e-02		122.781		1.740e-02		30.352
6		0.00		9.60		6.561e-02		124.808		1.671e-02		36.817
6		0.00		10.00		6.669e-02		129.060		1.667e-02		25.802
6		0.00		9.60		6.505e-02		126.571		1.689e-02		38.508
6		0.00		9.20		6.316e-02		133.448		1.516e-02		22.989
6		0.00		8.80		6.033e-02		134.392		1.505e-02		30.877
6		0.00		8.40		5.945e-02		127.720		1.709e-02		44.706
6		0.00		8.00		5.803e-02		129.521		1.727e-02		26.964
6		0.00		7.60		5.677e-02		132.927		1.585e-02		14.078
6		0.00		7.20		5.497e-02		129.984		1.511e-02		14.342
6		0.00		6.80		5.098e-02		129.012		1.474e-02		14.667
6		0.00		6.40		4.709e-02		128.561		1.369e-02		11.916
6		0.00		6.00		4.370e-02		129.228		1.200e-02		7.827
6		0.00		5.60		3.958e-02		130.170		9.819e-03		7.040
6		0.00		5.20		3.496e-02		132.530		7.951e-03		6.583
6		0.00		4.80		3.037e-02		132.162		6.635e-03		6.391
6		0.00		4.40		2.537e-02		132.473		5.606e-03		7.894
6		0.00		4.00		2.038e-02		132.660		4.395e-03		9.937
6		0.00		3.60		1.501e-02		135.437		3.071e-03		10.235
6		0.00		3.20		9.325e-03		137.046		1.998e-03		12.268
6		0.00		2.80		4.106e-03		125.572		1.274e-03		43.361
6		0.00		2.40		2.419e-03		-52.991		1.057e-03		47.678
6		0.00		2.00		7.563e-03		-61.473		2.045e-03		18.441
6		0.00		1.60		1.324e-02		-55.369		3.197e-03		12.264
6		0.00		1.20		1.872e-02		-53.557		4.371e-03		11.033
6		0.00		0.80		2.442e-02		-52.268		5.787e-03		10.293
6		0.00		0.40		2.979e-02		-53.350		6.606e-03		9.268
6		0.00		0.00		3.579e-02		-51.632		7.300e-03		7.195
6		0.00		-0.40		4.147e-02		-52.476		7.743e-03		5.152
6		0.00		-0.80		4.687e-02		-53.577		8.111e-03		6.645
6		0.00		-1.20		5.141e-02		-52.830		8.615e-03		4.525
6		0.00		-1.60		5.568e-02		-52.597		8.763e-03		4.953
6		0.00		-2.00		5.793e-02		-52.436		1.027e-02		8.978
6		0.00		-2.40		5.973e-02		-52.412		9.900e-03		6.803
6		0.00		-2.80		6.194e-02		-48.688		1.140e-02		8.372
6		0.00		-3.20		6.242e-02		-48.622		1.382e-02		11.401
6		0.00		-3.60		6.326e-02		-47.945		1.652e-02		15.610
6		0.00		-4.00		6.256e-02		-45.773		1.695e-02		14.297
6		0.00		-4.40		6.143e-02		-46.729		1.707e-02		20.861
6		0.00		-4.80		6.382e-02		-46.102		1.786e-02		18.189
6		0.00		-5.20		6.503e-02		-40.705		1.752e-02		18.508
6		0.00		-5.60		6.584e-02		-47.467		1.823e-02		19.754
6		0.00		-6.00		6.977e-02		-44.071		1.887e-02		18.448
6		0.00		-6.40		6.620e-02		-35.346		1.586e-02		18.285
6		0.00		-6.80		6.875e-02		-41.442		1.933e-02		21.042
6		0.00		-7.20		6.833e-02		-43.213		1.648e-02		23.051
6		0.00		-7.60		6.804e-02		-46.369		1.929e-02		27.175
6		0.00		-8.00		6.507e-02		-38.558		1.638e-02		28.631
6		0.00		-8.40		6.538e-02		-39.356		1.858e-02		20.549
6		0.00		-8.80		6.530e-02		-40.221		1.926e-02		24.424
6		0.00		-9.20		6.211e-02		-38.042		2.141e-02		25.852
6		0.00		-9.60		5.851e-02		-37.411		1.944e-02		20.547
6		0.00		-10.00		5.468e-02		-42.554		1.800e-02		20.259
6		0.00		-9.60		5.970e-02		-38.428		2.048e-02		18.845
6		0.00		-9.20		6.074e-02		-36.465		2.123e-02		19.415
6		0.00		-8.80		6.192e-02		-41.758		1.764e-02		19.501
6		0.00		-8.40		6.355e-02		-39.335		1.630e-02		16.880
6		0.00		-8.00		6.514e-02		-40.279		1.777e-02		17.252
6		0.00		-7.60		6.575e-02		-42.136		1.715e-02		12.539
6		0.00		-7.20		6.430e-02		-42.099		1.504e-02		13.298
6		0.00		-6.80		6.315e-02		-42.555		1.535e-02		11.168
6		0.00		-6.40		6.169e-02		-45.698		1.423e-02		9.463
6		0.00		-6.00		5.885e-02		-45.412		1.428e-02		9.483
6		0.00		-5.60		5.834e-02		-47.641		1.389e-02		6.718
6		0.00		-5.20		5.585e-02		-49.261		1.363e-02		10.027
6		0.00		-4.80		5.252e-02		-50.842		1.253e-02		8.742
6		0.00		-4.40		4.884e-02		-52.792		1.178e-02		9.371
6		0.00		-4.00		4.449e-02		-53.706		1.063e-02		7.989
6		0.00		-3.60		4.034e-02		-51.770		8.732e-03		7.238
6		0.00		-3.20		3.640e-02		-51.585		6.830e-03		6.123
6		0.00		-2.80		3.148e-02		-52.859		5.620e-03		8.031
6		0.00		-2.40		2.723e-02		-51.701		4.614e-03		7.456
6		0.00		-2.00		2.228e-02		-49.279		3.680e-03		8.777
6		0.00		-1.60		1.732e-02		-49.104		2.817e-03		10.165
6		0.00		-1.20		1.216e-02		-46.227		2.402e-03		12.425
6		0.00		-0.80		6.830e-03		-46.514		1.735e-03		20.511
6		0.00		-0.40		2.304e-03		-28.444		8.215e-04		50.476
7		0.00		0.00		3.680e-03		105.248		1.463e-03		40.011
7		0.00		0.40		8.204e-03		121.636		2.209e-03		22.314
7		0.00		0.80		1.338e-02		126.537		3.205e-03		14.348
7		0.00		1.20		1.785e-02		128.623		4.131e-03		13.173
7		0.00		1.60		2.330e-02		129.048		5.255e-03		10.126
7		0.00		2.00		2.786e-02		128.513		5.308e-03		6.999
7		0.00		2.40		3.300e-02		128.966		6.199e-03		7.155
7		0.00		2.80		3.668e-02		130.843		5.948e-03		5.930
7		0.00		3.20		4.138e-02		131.182		7.003e-03		5.429
7		0.00		3.60		4.595e-02		130.397		7.999e-03		5.679
7		0.00		4.00		4.915e-02		131.506		8.502e-03		5.745
7		0.00		4.40		5.301e-02		131.324		9.944e-03		5.526
7		0.00		4.80		5.529e-02		131.223		1.117e-02		7.399
7		0.00		5.20		5.561e-02		132.019		1.351e-02		11.530
7		0.00		5.60		5.723e-02		130.651		1.600e-02		19.187
7		0.00		6.00		5.736e-02		131.307		1.600e-02		17.367
7		0.00		6.40		5.882e-02		131.498		1.755e-02		19.012
7		0.00		6.80		6.029e-02		129.409		1.851e-02		25.421
7		0.00		7.20		6.156e-02		126.421		1.866e-02		35.465
7		0.00		7.60		6.142e-02		130.300		1.834e-02		32.928
7		0.00		8.00		6.305e-02		127.107		1.798e-02		26.255
7		0.00		8.40		6.401e-02		128.081		1.793e-02		27.570
7		0.00		8.80		6.939e-02		128.897		1.801e-02		41.770
7		0.00		9.20		6.753e-02		118.607		1.773e-02		42.615
7		0.00		9.60		6.301e-02		108.775		1.797e-02		65.685
7		0.00		10.00		6.667e-02		134.653		1.696e-02		27.004
7		0.00		9.60		6.579e-02		133.100		1.741e-02		33.306
7		0.00		9.20		6.606e-02		126.383		1.661e-02		36.309
7		0.00		8.80		6.442e-02		132.243		1.510e-02		22.509
7		0.00		8.40		6.335e-02		132.635		1.525e-02		23.265
7		0.00		8.00		6.121e-02		135.056		1.433e-02		9.033
7		0.00		7.60		5.825e-02		132.569		1.368e-02		13.049
7		0.00		7.20		5.520e-02		132.751		1.252e-02		7.843
7		0.00		6.80		5.188e-02		132.657		1.223e-02		6.649
7		0.00		6.40		4.735e-02		131.212		1.172e-02		7.534
7		0.00		6.00		4.374e-02		132.591		1.091e-02		7.002
7		0.00		5.60		3.966e-02		132.145		9.944e-03		8.035
7		0.00		5.20		3.483e-02		132.182		8.767e-03		9.274
7		0.00		4.80		3.009e-02		133.066		7.889e-03		10.139
7		0.00		4.40		2.551e-02		131.873		6.227e-03		10.488
7		0.00		4.00		2.024e-02		132.155		5.084e-03		11.374
7		0.00		3.60		1.486e-02		130.197		3.924e-03		15.368
7		0.00		3.20		9.541e-03		130.764		2.620e-03		22.175
7		0.00		2.80		4.368e-03		116.361		1.609e-03		54.345
7		0.00		2.40		2.250e-03		-35.019		9.282e-04		44.743
7		0.00		2.00		7.081e-03		-54.711		2.104e-03		16.825
7		0.00		1.60		1.269e-02		-54.057		3.235e-03		12.345
7		0.00		1.20		1.831e-02		-53.637		4.392e-03		10.689
7		0.00		0.80		2.374e-02		-50.827		5.371e-03		8.415
7		0.00		0.40		2.901e-02		-51.704		6.670e-03		8.506
7		0.00		0.00		3.451e-02		-52.151		7.722e-03		8.445
7		0.00		-0.40		3.996e-02		-52.796		9.102e-03		8.635
7		0.00		-0.80		4.469e-02		-53.021		1.013e-02		8.163
7		0.00		-1.20		4.921e-02		-53.061		1.227e-02		8.999
7		0.00		-1.60		5.285e-02		-53.122		1.312e-02		7.489
7		0.00		-2.00		5.628e-02		-52.824		1.438e-02		7.106
7		0.00		-2.40		5.823e-02		-52.640		1.459e-02		6.835
7		0.00		-2.80		6.139e-02		-52.200		1.467e-02		7.644
7		0.00		-3.20		6.247e-02		-51.640		1.549e-02		9.151
7		0.00		-3.60		6.289e-02		-49.966		1.560e-02		9.198
7		0.00		-4.00		6.165e-02		-50.637		1.680e-02		15.220
7		0.00		-4.40		6.247e-02		-45.957		1.576e-02		15.971
7		0.00		-4.80		6.483e-02		-47.328		1.379e-02		13.207
7		0.00		-5.20		6.361e-02		-40.883		1.477e-02		16.406
7		0.00		-5.60		6.466e-02		-42.939		1.375e-02		18.434
7		0.00		-6.00		6.345e-02		-38.531		1.497e-02		19.442
7		0.00		-6.40		6.781e-02		-38.028		1.628e-02		16.364
7		0.00		-6.80		6.898e-02		-40.503		1.593e-02		16.808
7		0.00		-7.20		6.653e-02		-39.140		1.604e-02		18.603
7		0.00		-7.60		6.406e-02		-40.778		1.597e-02		22.904
7		0.00		-8.00		6.758e-02		-37.634		1.749e-02		20.405
7		0.00		-8.40		6.787e-02		-40.403		1.661e-02		18.320
7		0.00		-8.80		6.593e-02		-38.475		1.855e-02		20.762
7		0.00		-9.20		6.065e-02		-37.387		1.693e-02		19.039
7		0.00		-9.60		5.912e-02		-42.618		1.753e-02		12.721
7		0.00		-10.00		5.506e-02		-42.545		1.572e-02		9.612
7		0.00		-9.60		5.776e-02		-41.672		1.703e-02		14.806
7		0.00		-9.20		6.144e-02		-41.263		1.828e-02		14.881
7		0.00		-8.80		6.306e-02		-41.592		1.743e-02		16.229
7		0.00		-8.40		6.234e-02		-42.302		1.693e-02		19.460
7		0.00		-8.00		6.495e-02		-40.048		1.861e-02		16.118
7		0.00		-7.60		6.363e-02		-44.526		1.684e-02		14.120
7		0.00		-7.20		6.299e-02		-42.381		1.642e-02		15.443
7		0.00		-6.80		6.275e-02		-45.248		1.721e-02		15.389
7		0.00		-6.40		6.193e-02		-48.223		1.619e-02		13.319
7		0.00		-6.00		6.013e-02		-47.320		1.589e-02		14.990
7		0.00		-5.60		5.697e-02		-47.242		1.500e-02		12.629
7		0.00		-5.20		5.520e-02		-48.657		1.359e-02		7.462
7		0.00		-4.80		5.212e-02		-49.497		1.165e-02		7.002
7		0.00		-4.40		4.858e-02		-51.852		1.041e-02		7.604
7		0.00		-4.00		4.449e-02		-51.380		8.845e-03		5.745
7		0.00		-3.60		4.003e-02		-52.742		8.270e-03		6.238
7		0.00		-3.20		3.496e-02		-50.196		7.182e-03		6.218
7		0.00		-2.80		3.039e-02		-50.430		6.193e-03		8.127
7		0.00		-2.40		2.634e-02		-52.131		4.750e-03		8.431
7		0.00		-2.00		2.104e-02		-49.864		4.100e-03		10.813
7		0.00		-1.60		1.655e-02		-47.759		3.077e-03		10.235
7		0.00		-1.20		1.135e-02		-44.785		2.133e-03		12.539
7		0.00		-0.80		6.250e-03		-45.110		1.587e-03		19.495
7		0.00		-0.40		2.090e-03		-38.852		9.454e-04		57.232
8		0.00		0.00		3.897e-03		115.778		1.155e-03		23.101
8		0.00		0.40		8.741e-03		128.420		1.846e-03		12.705
8		0.00		0.80		1.369e-02		126.074		2.808e-03		11.768
8		0.00		1.20		1.866e-02		128.915		3.600e-03		9.083
8		0.00		1.60		2.328e-02		128.713		4.691e-03		7.207
8		0.00		2.00		2.763e-02		129.703		6.026e-03		8.956
8		0.00		2.40		3.207e-02		128.428		7.103e-03		8.246
8		0.00		2.80		3.657e-02		127.702		8.137e-03		9.489
8		0.00		3.20		4.035e-02		128.236		9.487e-03		11.391
8		0.00		3.60		4.392e-02		129.325		1.072e-02		11.992
8		0.00		4.00		4.662e-02		129.505		1.199e-02		11.425
8		0.00		4.40		5.002e-02		129.441		1.329e-02		11.710
8		0.00		4.80		5.280e-02		129.330		1.442e-02		13.922
8		0.00		5.20		5.503e-02		131.223		1.549e-02		9.734
8		0.00		5.60		5.679e-02		129.332		1.640e-02		18.756
8		0.00		6.00		5.823e-02		132.682		1.663e-02		12.076
8		0.00		6.40		6.044e-02		132.184		1.758e-02		20.134
8		0.00		6.80		5.949e-02		135.308		1.707e-02		17.075
8		0.00		7.20		6.290e-02		136.472		1.770e-02		13.970
8		0.00		7.60		6.447e-02		128.604		1.975e-02		40.703
8		0.00		8.00		6.696e-02		127.163		1.943e-02		36.302
8		0.00		8.40		6.755e-02		127.040		1.915e-02		44.083
8		0.00		8.80		6.530e-02		119.459		2.067e-02		47.541
8		0.00		9.20		6.529e-02		119.132		1.849e-02		59.476
8		0.00		9.60		6.461e-02		124.921		1.692e-02		45.357
8		0.00		10.00		6.308e-02		123.084		1.702e-02		46.038
8		0.00		9.60		6.563e-02		124.995		1.753e-02		33.595
8		0.00		9.20		6.477e-02		127.779		1.690e-02		37.048
8		0.00		8.80		6.485e-02		131.248		1.591e-02		25.154
8		0.00		8.40		6.141e-02		132.032		1.547e-02		26.643
8		0.00		8.00		6.070e-02		135.494		1.527e-02		11.247
8		0.00		7.60		5.751e-02		132.777		1.337e-02		7.441
8		0.00		7.20		5.581e-02		131.530		1.421e-02		8.189
8		0.00		6.80		5.235e-02		130.421		1.315e-02		7.215
8		0.00		6.40		4.871e-02		130.017		1.284e-02		7.546
8		0.00		6.00		4.459e-02		129.802		1.183e-02		10.292
8		0.00		5.60		4.007e-02		129.034		1.112e-02		10.952
8		0.00		5.20		3.604e-02		129.970		9.139e-03		12.921
8		0.00		4.80		3.142e-02		129.944		7.717e-03		13.213
8		0.00		4.40		2.652e-02		132.745		6.517e-03		13.465
8		0.00		4.00		2.188e-02		132.984		5.430e-03		11.975
8		0.00		3.60		1.653e-02		131.372		3.871e-03		15.614
8		0.00		3.20		1.104e-02		132.143		2.915e-03		17.055
8		0.00		2.80		5.825e-03		135.324		1.600e-03		21.327
8		0.00		2.40		1.837e-03		-19.699		7.866e-04		67.785
8		0.00		2.00		6.215e-03		-64.887		1.453e-03		17.065
8		0.00		1.60		1.183e-02		-55.337		2.193e-03		13.756
8		0.00		1.20		1.768e-02		-52.825		2.866e-03		9.631
8		0.00		0.80		2.280e-02		-52.792		3.909e-03		8.860
8		0.00		0.40		2.902e-02		-50.428		4.503e-03		7.541
8		0.00		0.00		3.448e-02		-51.729		5.659e-03		6.879
8		0.00		-0.40		3.929e-02		-52.544		7.460e-03		6.563
8		0.00		-0.80		4.402e-02		-54.020		9.497e-03		6.271
8		0.00		-1.20		4.780e-02		-53.801		1.094e-02		5.862
8		0.00		-1.60		5.270e-02		-54.451		1.368e-02		9.110
8		0.00		-2.00		5.594e-02		-54.355		1.405e-02		10.044
8		0.00		-2.40		5.805e-02		-51.067		1.413e-02		8.239
8		0.00		-2.80		6.094e-02		-48.553		1.588e-02		12.320
8		0.00		-3.20		6.164e-02		-48.726		1.604e-02		19.069
8		0.00		-3.60		6.036e-02		-48.550		1.462e-02		11.240
8		0.00		-4.00		6.255e-02		-47.904		1.529e-02		15.125
8		0.00		-4.40		6.571e-02		-44.530		1.496e-02		13.888
8		0.00		-4.80		6.322e-02		-42.994		1.534e-02		18.537
8		0.00		-5.20		6.702e-02		-44.945		1.527e-02		14.723
8		0.00		-5.60		6.731e-02		-37.682		1.594e-02		15.328
8		0.00		-6.00		6.470e-02		-36.076		1.329e-02		17.279
8		0.00		-6.40		6.591e-02		-43.581		1.794e-02		21.349
8		0.00		-6.80		6.746e-02		-38.455		1.807e-02		17.501
8		0.00		-7.20		6.614e-02		-37.176		1.704e-02		18.610
8		0.00		-7.60		6.769e-02		-40.678		1.924e-02		18.394
8		0.00		-8.00		6.671e-02		-41.874		1.816e-02		20.126
8		0.00		-8.40		6.217e-02		-40.122		1.963e-02		21.743
8		0.00		-8.80		6.173e-02		-36.047		1.969e-02		19.554
8		0.00		-9.20		6.359e-02		-42.566		2.002e-02		26.095
8		0.00		-9.60		5.899e-02		-41.767		1.770e-02		23.225
8		0.00		-10.00		5.455e-02		-37.711		1.638e-02		23.955
8		0.00		-9.60		5.903e-02		-40.223		1.769e-02		16.660
8		0.00		-9.20		6.112e-02		-36.102		1.884e-02		21.662
8		0.00		-8.80		6.051e-02		-37.929		1.666e-02		19.469
8		0.00		-8.40		6.215e-02		-40.969		1.829e-02		21.337
8		0.00		-8.00		6.517e-02		-42.016		1.661e-02		15.293
8		0.00		-7.60		6.560e-02		-40.526		1.788e-02		16.238
8		0.00		-7.20		6.324e-02		-39.287		1.571e-02		11.546
8		0.00		-6.80		6.256e-02		-41.229		1.596e-02		12.127
8		0.00		-6.40		6.207e-02		-43.326		1.296e-02		8.758
8		0.00		-6.00		5.984e-02		-46.400		1.265e-02		9.583
8		0.00		-5.60		5.805e-02		-48.960		1.148e-02		8.545
8		0.00		-5.20		5.557e-02		-50.084		9.899e-03		6.313
8		0.00		-4.80		5.185e-02		-50.212		8.954e-03		4.992
8		0.00		-4.40		4.757e-02		-50.329		7.755e-03		5.073
8		0.00		-4.00		4.318e-02		-52.197		7.347e-03		5.252
8		0.00		-3.60		3.909e-02		-50.753		6.918e-03		5.312
8		0.00		-3.20		3.426e-02		-51.277		6.435e-03		6.100
8		0.00		-2.80		2.984e-02		-50.643		5.770e-03		7.445
8		0.00		-2.40		2.502e-02		-51.467		4.971e-03		8.633
8		0.00		-2.00		2.012e-02		-49.229		4.246e-03		9.454
8		0.00		-1.60		1.524e-02		-47.761		3.317e-03		11.988
8		0.00		-1.20		9.969e-03		-45.999		2.370e-03		14.725
8		0.00		-0.80		5.221e-03		-38.387		1.474e-03		23.672
8		0.00		-0.40		1.906e-03		12.059		6.523e-04		73.282
