# Date of analysis: 2023-11-20 16;16
# 
# Loop index	Read Volt (V)	Write Volt (V)	Amplitude (a.u)	Phase (deg)	Sigma Amp (a.u)	Sigma Pha (deg)	
1		0.00		0.00		1.601e-02		-46.927		7.304e-03		41.763
1		0.00		0.40		1.160e-02		-52.469		2.523e-03		15.162
1		0.00		0.80		5.387e-03		-54.189		1.591e-03		24.167
1		0.00		1.20		2.022e-03		13.140		8.698e-04		69.921
1		0.00		1.60		6.013e-03		117.208		2.038e-03		23.472
1		0.00		2.00		1.039e-02		123.540		3.124e-03		20.062
1		0.00		2.40		1.530e-02		127.080		4.126e-03		19.136
1		0.00		2.80		1.961e-02		126.231		5.281e-03		12.827
1		0.00		3.20		2.405e-02		127.383		5.294e-03		13.462
1		0.00		3.60		2.845e-02		124.835		6.549e-03		14.295
1		0.00		4.00		3.270e-02		126.397		7.495e-03		13.608
1		0.00		4.40		3.477e-02		124.950		9.062e-03		21.248
1		0.00		4.80		3.795e-02		124.616		1.033e-02		24.813
1		0.00		5.20		4.153e-02		125.551		1.042e-02		12.888
1		0.00		5.60		4.500e-02		126.949		8.996e-03		10.699
1		0.00		6.00		4.752e-02		125.721		1.012e-02		11.984
1		0.00		6.40		4.883e-02		127.336		1.106e-02		13.507
1		0.00		6.80		4.981e-02		124.378		1.381e-02		24.219
1		0.00		7.20		5.104e-02		125.300		1.418e-02		21.463
1		0.00		7.60		5.075e-02		126.892		1.141e-02		11.152
1		0.00		8.00		5.059e-02		127.541		1.085e-02		11.872
1		0.00		8.40		4.740e-02		126.913		1.060e-02		13.101
1		0.00		8.80		4.608e-02		125.076		1.153e-02		17.486
1		0.00		9.20		4.594e-02		122.037		1.204e-02		25.350
1		0.00		9.60		4.636e-02		123.335		1.307e-02		18.800
1		0.00		10.00		4.461e-02		125.056		1.192e-02		10.318
1		0.00		9.60		4.477e-02		123.882		1.135e-02		14.181
1		0.00		9.20		4.389e-02		124.769		1.136e-02		16.087
1		0.00		8.80		4.264e-02		126.046		1.085e-02		15.439
1		0.00		8.40		4.088e-02		123.015		1.111e-02		25.764
1		0.00		8.00		4.079e-02		124.050		1.213e-02		25.344
1		0.00		7.60		4.024e-02		125.162		1.070e-02		12.306
1		0.00		7.20		3.891e-02		124.816		8.210e-03		12.154
1		0.00		6.80		3.596e-02		123.795		7.745e-03		11.925
1		0.00		6.40		3.257e-02		125.861		7.086e-03		12.576
1		0.00		6.00		2.984e-02		123.634		7.429e-03		17.892
1		0.00		5.60		2.744e-02		123.877		7.476e-03		17.557
1		0.00		5.20		2.452e-02		124.724		5.860e-03		10.350
1		0.00		4.80		2.125e-02		123.075		4.506e-03		10.180
1		0.00		4.40		1.782e-02		120.952		3.675e-03		10.380
1		0.00		4.00		1.388e-02		125.564		3.350e-03		13.469
1		0.00		3.60		1.053e-02		119.429		3.051e-03		19.143
1		0.00		3.20		6.542e-03		101.551		2.478e-03		28.195
1		0.00		2.80		3.876e-03		56.713		1.269e-03		48.973
1		0.00		2.40		4.219e-03		-18.686		1.774e-03		30.412
1		0.00		2.00		7.308e-03		-35.103		2.285e-03		17.504
1		0.00		1.60		1.199e-02		-39.958		2.776e-03		12.428
1		0.00		1.20		1.668e-02		-46.274		3.917e-03		13.493
1		0.00		0.80		2.125e-02		-46.888		5.033e-03		10.326
1		0.00		0.40		2.750e-02		-48.843		4.784e-03		8.494
1		0.00		0.00		3.348e-02		-49.476		4.662e-03		7.799
1		0.00		-0.40		3.810e-02		-51.323		5.201e-03		6.816
1		0.00		-0.80		4.059e-02		-49.748		6.809e-03		8.091
1		0.00		-1.20		4.239e-02		-49.633		8.664e-03		11.295
1		0.00		-1.60		4.480e-02		-50.353		9.987e-03		9.146
1		0.00		-2.00		4.611e-02		-51.025		8.775e-03		8.498
1		0.00		-2.40		4.887e-02		-52.094		7.591e-03		6.952
1		0.00		-2.80		4.926e-02		-53.338		7.448e-03		7.693
1		0.00		-3.20		4.872e-02		-52.174		9.211e-03		10.213
1		0.00		-3.60		4.774e-02		-52.409		1.113e-02		15.378
1		0.00		-4.00		4.799e-02		-51.276		1.160e-02		13.848
1		0.00		-4.40		4.983e-02		-51.920		9.975e-03		8.704
1		0.00		-4.80		5.296e-02		-51.639		8.380e-03		8.275
1		0.00		-5.20		5.142e-02		-50.694		8.850e-03		8.963
1		0.00		-5.60		5.024e-02		-49.124		9.643e-03		9.823
1		0.00		-6.00		5.027e-02		-47.950		1.144e-02		10.387
1		0.00		-6.40		5.012e-02		-46.253		1.323e-02		12.336
1		0.00		-6.80		5.177e-02		-48.349		1.287e-02		7.660
1		0.00		-7.20		5.092e-02		-47.666		9.273e-03		7.884
1		0.00		-7.60		5.037e-02		-48.601		1.081e-02		10.542
1		0.00		-8.00		4.874e-02		-47.737		1.241e-02		12.675
1		0.00		-8.40		4.710e-02		-50.179		1.360e-02		22.269
1		0.00		-8.80		4.652e-02		-44.240		1.416e-02		20.896
1		0.00		-9.20		4.242e-02		-45.503		1.128e-02		10.032
1		0.00		-9.60		3.787e-02		-46.513		9.176e-03		10.527
1		0.00		-10.00		3.291e-02		-44.701		7.831e-03		12.186
1		0.00		-9.60		3.623e-02		-47.534		9.763e-03		14.187
1		0.00		-9.20		4.154e-02		-44.245		1.175e-02		24.763
1		0.00		-8.80		4.372e-02		-44.622		1.268e-02		13.572
1		0.00		-8.40		4.598e-02		-47.053		9.980e-03		7.780
1		0.00		-8.00		4.772e-02		-48.530		7.628e-03		7.327
1		0.00		-7.60		4.501e-02		-47.028		7.359e-03		8.797
1		0.00		-7.20		4.376e-02		-46.520		8.461e-03		10.052
1		0.00		-6.80		4.084e-02		-46.906		9.339e-03		14.758
1		0.00		-6.40		3.928e-02		-46.978		9.306e-03		9.401
1		0.00		-6.00		3.852e-02		-47.934		7.271e-03		7.409
1		0.00		-5.60		3.614e-02		-48.389		5.563e-03		8.176
1		0.00		-5.20		3.260e-02		-50.034		4.774e-03		10.927
1		0.00		-4.80		2.931e-02		-47.993		4.997e-03		9.976
1		0.00		-4.40		2.565e-02		-50.278		5.814e-03		13.336
1		0.00		-4.00		2.286e-02		-48.123		5.129e-03		9.672
1		0.00		-3.60		2.084e-02		-49.648		3.583e-03		8.971
1		0.00		-3.20		1.754e-02		-49.523		2.639e-03		10.683
1		0.00		-2.80		1.421e-02		-49.145		2.399e-03		11.915
1		0.00		-2.40		1.006e-02		-47.243		2.129e-03		15.407
1		0.00		-2.00		6.401e-03		-42.879		1.745e-03		20.256
1		0.00		-1.60		2.671e-03		-43.641		1.034e-03		35.143
1		0.00		-1.20		2.413e-03		74.009		1.043e-03		54.655
1		0.00		-0.80		6.466e-03		120.982		1.463e-03		18.798
1		0.00		-0.40		1.115e-02		124.892		2.218e-03		10.730
2		0.00		0.00		1.568e-02		126.296		3.030e-03		14.946
2		0.00		0.40		1.982e-02		129.336		4.410e-03		10.803
2		0.00		0.80		2.496e-02		128.084		4.376e-03		7.754
2		0.00		1.20		2.915e-02		127.051		4.591e-03		9.098
2		0.00		1.60		3.325e-02		128.516		4.682e-03		7.237
2		0.00		2.00		3.687e-02		128.431		6.740e-03		11.375
2		0.00		2.40		3.962e-02		128.249		8.915e-03		12.373
2		0.00		2.80		4.296e-02		129.402		9.310e-03		7.749
2		0.00		3.20		4.646e-02		128.751		7.676e-03		6.435
2		0.00		3.60		4.814e-02		128.366		7.507e-03		7.115
2		0.00		4.00		4.823e-02		130.347		9.117e-03		10.015
2		0.00		4.40		5.025e-02		128.111		1.142e-02		17.164
2		0.00		4.80		5.276e-02		129.113		1.334e-02		11.275
2		0.00		5.20		5.503e-02		129.661		1.169e-02		7.713
2		0.00		5.60		5.643e-02		128.221		1.023e-02		8.843
2		0.00		6.00		5.628e-02		129.074		1.161e-02		9.790
2		0.00		6.40		5.544e-02		124.840		1.503e-02		21.228
2		0.00		6.80		5.626e-02		125.184		1.623e-02		24.369
2		0.00		7.20		5.849e-02		127.939		1.558e-02		9.113
2		0.00		7.60		5.804e-02		128.097		1.214e-02		10.583
2		0.00		8.00		5.477e-02		126.865		1.152e-02		13.231
2		0.00		8.40		5.454e-02		127.842		1.308e-02		11.666
2		0.00		8.80		5.329e-02		123.897		1.405e-02		24.294
2		0.00		9.20		5.444e-02		126.106		1.482e-02		15.622
2		0.00		9.60		5.174e-02		125.687		1.154e-02		9.790
2		0.00		10.00		4.944e-02		128.180		1.028e-02		10.343
2		0.00		9.60		4.771e-02		126.608		9.918e-03		10.658
2		0.00		9.20		4.818e-02		125.376		1.138e-02		15.917
2		0.00		8.80		4.704e-02		124.602		1.166e-02		26.132
2		0.00		8.40		4.522e-02		127.823		1.141e-02		13.475
2		0.00		8.00		4.346e-02		128.435		8.026e-03		9.524
2		0.00		7.60		4.193e-02		127.786		7.030e-03		8.458
2		0.00		7.20		3.947e-02		130.061		7.056e-03		9.399
2		0.00		6.80		3.607e-02		125.632		7.945e-03		14.061
2		0.00		6.40		3.308e-02		125.550		8.706e-03		16.523
2		0.00		6.00		3.072e-02		127.518		7.297e-03		8.937
2		0.00		5.60		2.849e-02		127.728		5.593e-03		8.604
2		0.00		5.20		2.561e-02		127.680		4.861e-03		9.910
2		0.00		4.80		2.245e-02		125.405		4.280e-03		10.761
2		0.00		4.40		1.779e-02		126.036		4.481e-03		17.042
2		0.00		4.00		1.434e-02		124.567		3.747e-03		12.232
2		0.00		3.60		1.135e-02		122.310		2.899e-03		10.894
2		0.00		3.20		7.566e-03		115.802		2.026e-03		17.952
2		0.00		2.80		3.709e-03		93.482		1.227e-03		38.549
2		0.00		2.40		3.271e-03		-1.847		1.542e-03		41.343
2		0.00		2.00		7.405e-03		-40.419		2.198e-03		17.800
2		0.00		1.60		1.185e-02		-36.863		2.730e-03		11.717
2		0.00		1.20		1.810e-02		-45.765		2.974e-03		10.297
2		0.00		0.80		2.397e-02		-49.175		3.135e-03		8.602
2		0.00		0.40		2.962e-02		-47.178		4.288e-03		8.873
2		0.00		0.00		3.317e-02		-47.213		5.714e-03		8.975
2		0.00		-0.40		3.706e-02		-47.696		7.821e-03		11.868
2		0.00		-0.80		4.129e-02		-49.740		7.956e-03		8.632
2		0.00		-1.20		4.521e-02		-49.904		6.586e-03		6.997
2		0.00		-1.60		4.798e-02		-49.896		5.891e-03		6.487
2		0.00		-2.00		4.621e-02		-50.176		7.161e-03		7.786
2		0.00		-2.40		4.631e-02		-50.455		9.811e-03		10.827
2		0.00		-2.80		4.559e-02		-51.006		1.169e-02		13.661
2		0.00		-3.20		4.688e-02		-50.922		1.119e-02		8.678
2		0.00		-3.60		4.852e-02		-52.848		8.535e-03		6.392
2		0.00		-4.00		4.908e-02		-52.619		7.391e-03		7.566
2		0.00		-4.40		4.743e-02		-51.130		8.749e-03		8.362
2		0.00		-4.80		4.696e-02		-49.413		1.031e-02		8.767
2		0.00		-5.20		4.682e-02		-49.193		1.211e-02		13.044
2		0.00		-5.60		4.762e-02		-49.124		1.251e-02		9.725
2		0.00		-6.00		4.996e-02		-47.744		1.064e-02		5.695
2		0.00		-6.40		5.151e-02		-47.921		7.991e-03		5.922
2		0.00		-6.80		5.206e-02		-46.828		8.497e-03		7.017
2		0.00		-7.20		5.267e-02		-46.113		9.671e-03		8.334
2		0.00		-7.60		5.276e-02		-45.728		1.170e-02		11.829
2		0.00		-8.00		5.256e-02		-45.553		1.231e-02		14.324
2		0.00		-8.40		5.328e-02		-45.575		1.322e-02		10.777
2		0.00		-8.80		5.060e-02		-44.234		1.126e-02		7.005
2		0.00		-9.20		4.823e-02		-44.132		9.680e-03		7.606
2		0.00		-9.60		4.221e-02		-45.205		9.160e-03		8.382
2		0.00		-10.00		3.550e-02		-42.376		7.401e-03		9.005
2		0.00		-9.60		3.982e-02		-46.183		1.031e-02		14.123
2		0.00		-9.20		4.488e-02		-45.708		1.234e-02		18.127
2		0.00		-8.80		4.628e-02		-44.783		1.321e-02		15.287
2		0.00		-8.40		4.937e-02		-46.058		1.203e-02		5.818
2		0.00		-8.00		5.047e-02		-45.511		9.045e-03		5.907
2		0.00		-7.60		4.981e-02		-47.082		8.075e-03		5.953
2		0.00		-7.20		4.891e-02		-45.783		8.204e-03		6.093
2		0.00		-6.80		4.622e-02		-46.341		9.539e-03		7.662
2		0.00		-6.40		4.391e-02		-46.668		1.023e-02		12.632
2		0.00		-6.00		4.085e-02		-46.643		1.006e-02		9.348
2		0.00		-5.60		3.993e-02		-46.866		8.118e-03		6.799
2		0.00		-5.20		3.731e-02		-47.636		5.746e-03		7.364
2		0.00		-4.80		3.511e-02		-50.347		4.452e-03		7.699
2		0.00		-4.40		3.139e-02		-50.326		4.120e-03		7.627
2		0.00		-4.00		2.747e-02		-48.513		4.059e-03		8.338
2		0.00		-3.60		2.350e-02		-48.694		4.198e-03		13.587
2		0.00		-3.20		1.927e-02		-46.456		3.663e-03		12.003
2		0.00		-2.80		1.583e-02		-45.803		3.027e-03		10.847
2		0.00		-2.40		1.197e-02		-44.882		1.914e-03		12.664
2		0.00		-2.00		7.812e-03		-42.336		1.403e-03		15.916
2		0.00		-1.60		3.767e-03		-48.108		1.070e-03		26.207
2		0.00		-1.20		2.268e-03		62.347		8.461e-04		62.976
2		0.00		-0.80		6.579e-03		117.408		1.693e-03		15.739
2		0.00		-0.40		1.109e-02		123.513		2.691e-03		15.880
3		0.00		0.00		1.566e-02		125.976		3.888e-03		10.905
3		0.00		0.40		2.014e-02		126.241		4.785e-03		10.365
3		0.00		0.80		2.473e-02		129.286		4.831e-03		7.990
3		0.00		1.20		2.952e-02		127.042		4.603e-03		6.855
3		0.00		1.60		3.382e-02		128.786		5.195e-03		7.379
3		0.00		2.00		3.755e-02		129.830		6.070e-03		7.005
3		0.00		2.40		3.964e-02		130.216		7.722e-03		9.159
3		0.00		2.80		4.275e-02		128.485		9.580e-03		13.822
3		0.00		3.20		4.528e-02		129.910		1.034e-02		12.733
3		0.00		3.60		4.713e-02		130.903		1.068e-02		8.191
3		0.00		4.00		5.048e-02		129.967		9.584e-03		5.323
3		0.00		4.40		5.290e-02		130.804		8.627e-03		4.751
3		0.00		4.80		5.593e-02		129.811		8.898e-03		6.324
3		0.00		5.20		5.694e-02		130.800		9.606e-03		8.367
3		0.00		5.60		5.689e-02		130.710		1.127e-02		12.570
3		0.00		6.00		5.788e-02		129.276		1.299e-02		16.949
3		0.00		6.40		5.943e-02		129.269		1.445e-02		19.228
3		0.00		6.80		6.119e-02		129.444		1.570e-02		11.503
3		0.00		7.20		6.280e-02		129.978		1.524e-02		7.587
3		0.00		7.60		6.374e-02		129.854		1.225e-02		7.414
3		0.00		8.00		6.260e-02		130.977		1.176e-02		10.251
3		0.00		8.40		6.164e-02		129.376		1.276e-02		12.406
3		0.00		8.80		6.089e-02		128.625		1.344e-02		12.381
3		0.00		9.20		5.892e-02		128.259		1.476e-02		12.770
3		0.00		9.60		5.611e-02		123.522		1.594e-02		22.073
3		0.00		10.00		5.331e-02		128.991		1.600e-02		16.147
3		0.00		9.60		5.401e-02		128.404		1.542e-02		11.124
3		0.00		9.20		5.455e-02		127.158		1.355e-02		7.587
3		0.00		8.80		5.472e-02		128.385		1.096e-02		8.327
3		0.00		8.40		5.297e-02		129.449		9.239e-03		8.194
3		0.00		8.00		4.978e-02		130.700		8.500e-03		7.836
3		0.00		7.60		4.783e-02		129.861		8.495e-03		7.101
3		0.00		7.20		4.489e-02		129.698		9.110e-03		8.989
3		0.00		6.80		4.225e-02		129.112		9.054e-03		11.373
3		0.00		6.40		3.830e-02		128.791		8.571e-03		14.887
3		0.00		6.00		3.545e-02		128.240		8.189e-03		14.381
3		0.00		5.60		3.238e-02		129.256		7.027e-03		8.250
3		0.00		5.20		2.948e-02		128.676		5.425e-03		6.454
3		0.00		4.80		2.562e-02		129.714		4.239e-03		7.216
3		0.00		4.40		2.187e-02		128.406		3.218e-03		7.753
3		0.00		4.00		1.744e-02		128.753		3.021e-03		8.871
3		0.00		3.60		1.286e-02		127.899		2.659e-03		10.332
3		0.00		3.20		8.905e-03		126.760		2.015e-03		17.005
3		0.00		2.80		4.221e-03		108.280		1.587e-03		41.948
3		0.00		2.40		3.089e-03		1.865		1.175e-03		43.186
3		0.00		2.00		7.092e-03		-40.262		2.051e-03		21.280
3		0.00		1.60		1.246e-02		-46.251		2.411e-03		9.199
3		0.00		1.20		1.828e-02		-47.574		2.701e-03		9.553
3		0.00		0.80		2.437e-02		-48.103		3.675e-03		9.036
3		0.00		0.40		2.909e-02		-46.728		4.947e-03		8.221
3		0.00		0.00		3.349e-02		-46.707		6.121e-03		9.969
3		0.00		-0.40		3.726e-02		-47.987		7.664e-03		11.182
3		0.00		-0.80		4.038e-02		-48.023		8.461e-03		8.124
3		0.00		-1.20		4.374e-02		-50.061		7.874e-03		7.061
3		0.00		-1.60		4.638e-02		-51.043		6.204e-03		6.064
3		0.00		-2.00		4.735e-02		-49.547		5.618e-03		6.569
3		0.00		-2.40		4.776e-02		-50.452		7.047e-03		7.132
3		0.00		-2.80		4.705e-02		-48.560		8.364e-03		7.752
3		0.00		-3.20		4.697e-02		-50.657		9.958e-03		10.919
3		0.00		-3.60		4.745e-02		-49.828		1.136e-02		8.085
3		0.00		-4.00		4.845e-02		-50.968		1.057e-02		6.771
3		0.00		-4.40		5.014e-02		-50.828		8.137e-03		5.420
3		0.00		-4.80		5.095e-02		-48.680		7.165e-03		5.453
3		0.00		-5.20		4.997e-02		-47.442		8.221e-03		5.656
3		0.00		-5.60		4.999e-02		-46.767		1.078e-02		8.432
3		0.00		-6.00		5.087e-02		-46.355		1.274e-02		12.358
3		0.00		-6.40		5.140e-02		-45.963		1.310e-02		12.235
3		0.00		-6.80		5.340e-02		-46.614		1.197e-02		7.723
3		0.00		-7.20		5.468e-02		-45.602		9.722e-03		7.140
3		0.00		-7.60		5.517e-02		-46.590		8.761e-03		7.392
3		0.00		-8.00		5.573e-02		-43.461		9.988e-03		7.704
3		0.00		-8.40		5.360e-02		-43.946		1.237e-02		9.645
3		0.00		-8.80		5.182e-02		-43.123		1.307e-02		15.789
3		0.00		-9.20		5.028e-02		-40.237		1.374e-02		15.043
3		0.00		-9.60		4.516e-02		-43.554		1.087e-02		6.544
3		0.00		-10.00		4.033e-02		-43.221		8.450e-03		7.298
3		0.00		-9.60		4.553e-02		-43.203		1.020e-02		7.602
3		0.00		-9.20		4.972e-02		-41.794		1.135e-02		7.832
3		0.00		-8.80		5.199e-02		-43.387		1.267e-02		14.048
3		0.00		-8.40		5.272e-02		-44.074		1.297e-02		12.876
3		0.00		-8.00		5.238e-02		-45.245		1.284e-02		7.417
3		0.00		-7.60		5.241e-02		-45.638		1.086e-02		5.436
3		0.00		-7.20		5.119e-02		-45.963		8.121e-03		5.546
3		0.00		-6.80		4.783e-02		-44.672		8.360e-03		7.385
3		0.00		-6.40		4.626e-02		-44.670		9.032e-03		7.694
3		0.00		-6.00		4.284e-02		-46.752		1.020e-02		12.994
3		0.00		-5.60		4.064e-02		-46.813		9.995e-03		13.498
3		0.00		-5.20		3.850e-02		-47.021		8.294e-03		7.987
3		0.00		-4.80		3.580e-02		-47.796		5.836e-03		7.350
3		0.00		-4.40		3.234e-02		-49.488		3.733e-03		7.560
3		0.00		-4.00		2.873e-02		-49.065		3.632e-03		7.930
3		0.00		-3.60		2.496e-02		-47.340		3.826e-03		7.862
3		0.00		-3.20		2.121e-02		-46.662		3.374e-03		9.772
3		0.00		-2.80		1.663e-02		-46.485		3.184e-03		13.669
3		0.00		-2.40		1.264e-02		-41.654		2.458e-03		9.463
3		0.00		-2.00		8.316e-03		-35.644		1.634e-03		12.363
3		0.00		-1.60		4.026e-03		-30.725		1.287e-03		23.155
3		0.00		-1.20		2.189e-03		48.712		8.000e-04		69.069
3		0.00		-0.80		5.813e-03		113.758		1.432e-03		21.695
3		0.00		-0.40		1.058e-02		122.258		2.055e-03		11.686
4		0.00		0.00		1.534e-02		127.499		2.895e-03		12.661
4		0.00		0.40		2.003e-02		127.451		4.108e-03		9.802
4		0.00		0.80		2.516e-02		129.206		4.238e-03		7.827
4		0.00		1.20		2.951e-02		128.776		4.220e-03		7.221
4		0.00		1.60		3.423e-02		129.216		4.535e-03		7.286
4		0.00		2.00		3.897e-02		130.607		4.830e-03		5.535
4		0.00		2.40		4.201e-02		132.001		6.735e-03		6.406
4		0.00		2.80		4.453e-02		130.541		9.394e-03		10.963
4		0.00		3.20		4.733e-02		130.224		1.133e-02		13.179
4		0.00		3.60		4.957e-02		130.351		1.211e-02		10.131
4		0.00		4.00		5.277e-02		130.760		1.071e-02		6.892
4		0.00		4.40		5.590e-02		131.287		8.381e-03		5.278
4		0.00		4.80		5.696e-02		131.406		8.453e-03		6.752
4		0.00		5.20		5.827e-02		132.092		1.037e-02		7.877
4		0.00		5.60		5.880e-02		132.490		1.175e-02		7.700
4		0.00		6.00		5.921e-02		131.364		1.324e-02		11.471
4		0.00		6.40		6.011e-02		130.465		1.501e-02		16.537
4		0.00		6.80		6.133e-02		131.223		1.568e-02		15.219
4		0.00		7.20		6.310e-02		132.309		1.603e-02		7.767
4		0.00		7.60		6.442e-02		132.475		1.358e-02		10.004
4		0.00		8.00		6.475e-02		131.901		1.365e-02		19.949
4		0.00		8.40		6.047e-02		132.041		1.387e-02		15.976
4		0.00		8.80		6.335e-02		130.361		1.560e-02		14.060
4		0.00		9.20		6.033e-02		128.612		1.681e-02		16.519
4		0.00		9.60		5.866e-02		124.785		1.854e-02		25.617
4		0.00		10.00		5.567e-02		127.886		1.791e-02		20.129
4		0.00		9.60		5.872e-02		126.730		1.735e-02		13.126
4		0.00		9.20		5.949e-02		130.431		1.371e-02		8.573
4		0.00		8.80		5.663e-02		131.600		1.184e-02		9.984
4		0.00		8.40		5.382e-02		130.842		1.119e-02		8.819
4		0.00		8.00		5.038e-02		130.016		1.176e-02		13.100
4		0.00		7.60		4.894e-02		128.925		1.253e-02		21.939
4		0.00		7.20		4.887e-02		127.732		1.314e-02		24.096
4		0.00		6.80		4.648e-02		130.839		1.151e-02		8.885
4		0.00		6.40		4.484e-02		129.738		8.668e-03		6.663
4		0.00		6.00		4.199e-02		131.258		6.615e-03		6.000
4		0.00		5.60		3.830e-02		131.237		5.392e-03		5.948
4		0.00		5.20		3.426e-02		132.174		5.381e-03		7.347
4		0.00		4.80		2.992e-02		131.758		5.599e-03		9.030
4		0.00		4.40		2.546e-02		130.216		5.121e-03		12.782
4		0.00		4.00		2.112e-02		130.513		4.789e-03		10.588
4		0.00		3.60		1.676e-02		129.782		3.374e-03		8.275
4		0.00		3.20		1.144e-02		132.528		2.316e-03		10.133
4		0.00		2.80		6.865e-03		128.243		1.926e-03		15.301
4		0.00		2.40		2.329e-03		29.859		9.005e-04		70.431
4		0.00		2.00		5.557e-03		-38.540		1.711e-03		19.501
4		0.00		1.60		1.122e-02		-46.597		2.483e-03		11.527
4		0.00		1.20		1.646e-02		-47.542		3.842e-03		9.244
4		0.00		0.80		2.258e-02		-49.662		4.898e-03		8.121
4		0.00		0.40		2.859e-02		-47.303		4.649e-03		7.789
4		0.00		0.00		3.466e-02		-49.123		4.075e-03		6.408
4		0.00		-0.40		3.960e-02		-48.878		4.977e-03		6.426
4		0.00		-0.80		4.289e-02		-48.504		5.694e-03		6.590
4		0.00		-1.20		4.365e-02		-47.593		8.006e-03		9.364
4		0.00		-1.60		4.469e-02		-49.336		9.488e-03		11.703
4		0.00		-2.00		4.702e-02		-49.993		1.003e-02		7.961
4		0.00		-2.40		5.010e-02		-50.452		9.393e-03		7.179
4		0.00		-2.80		5.071e-02		-51.468		7.362e-03		6.656
4		0.00		-3.20		5.034e-02		-51.365		6.505e-03		5.832
4		0.00		-3.60		4.883e-02		-50.142		7.552e-03		6.302
4		0.00		-4.00		4.840e-02		-49.713		1.007e-02		8.402
4		0.00		-4.40		4.976e-02		-49.963		1.164e-02		9.637
4		0.00		-4.80		5.078e-02		-50.375		1.227e-02		11.579
4		0.00		-5.20		5.221e-02		-47.985		1.162e-02		5.101
4		0.00		-5.60		5.534e-02		-47.219		9.645e-03		4.428
4		0.00		-6.00		5.335e-02		-46.682		8.900e-03		6.810
4		0.00		-6.40		5.370e-02		-45.943		1.019e-02		5.990
4		0.00		-6.80		5.349e-02		-45.372		1.240e-02		8.348
4		0.00		-7.20		5.363e-02		-44.993		1.411e-02		15.718
4		0.00		-7.60		5.454e-02		-46.113		1.439e-02		11.794
4		0.00		-8.00		5.407e-02		-45.228		1.337e-02		6.531
4		0.00		-8.40		5.394e-02		-42.186		1.056e-02		8.394
4		0.00		-8.80		5.120e-02		-41.516		1.022e-02		9.514
4		0.00		-9.20		4.949e-02		-41.940		1.122e-02		8.251
4		0.00		-9.60		4.473e-02		-43.786		1.158e-02		10.982
4		0.00		-10.00		3.981e-02		-42.979		1.050e-02		17.265
4		0.00		-9.60		4.603e-02		-41.608		1.249e-02		16.353
4		0.00		-9.20		5.157e-02		-43.024		1.228e-02		6.700
4		0.00		-8.80		5.407e-02		-42.765		9.572e-03		7.253
4		0.00		-8.40		5.695e-02		-43.205		9.398e-03		6.774
4		0.00		-8.00		5.678e-02		-43.989		9.578e-03		6.138
4		0.00		-7.60		5.336e-02		-44.055		1.108e-02		8.343
4		0.00		-7.20		5.182e-02		-45.200		1.178e-02		10.855
4		0.00		-6.80		5.031e-02		-44.969		1.142e-02		7.861
4		0.00		-6.40		4.868e-02		-45.874		8.996e-03		5.536
4		0.00		-6.00		4.631e-02		-46.329		6.315e-03		5.127
4		0.00		-5.60		4.378e-02		-46.608		6.029e-03		5.930
4		0.00		-5.20		4.023e-02		-45.673		6.635e-03		7.515
4		0.00		-4.80		3.610e-02		-46.491		7.110e-03		8.781
4		0.00		-4.40		3.196e-02		-49.039		7.275e-03		12.580
4		0.00		-4.00		2.899e-02		-49.607		5.734e-03		7.478
4		0.00		-3.60		2.591e-02		-47.787		3.378e-03		7.653
4		0.00		-3.20		2.270e-02		-48.730		2.740e-03		8.068
4		0.00		-2.80		1.782e-02		-45.450		2.402e-03		8.089
4		0.00		-2.40		1.294e-02		-44.668		2.263e-03		12.372
4		0.00		-2.00		8.759e-03		-37.805		2.044e-03		14.270
4		0.00		-1.60		4.860e-03		-24.997		1.601e-03		21.915
4		0.00		-1.20		2.379e-03		17.604		8.750e-04		66.968
4		0.00		-0.80		5.210e-03		117.224		1.453e-03		24.418
4		0.00		-0.40		1.025e-02		121.892		2.010e-03		9.301
5		0.00		0.00		1.551e-02		127.267		2.891e-03		11.212
5		0.00		0.40		1.975e-02		125.547		4.200e-03		14.799
5		0.00		0.80		2.443e-02		127.980		5.052e-03		9.409
5		0.00		1.20		2.963e-02		129.248		4.999e-03		7.008
5		0.00		1.60		3.465e-02		128.954		4.385e-03		5.775
5		0.00		2.00		3.927e-02		130.122		5.188e-03		7.478
5		0.00		2.40		4.180e-02		130.780		7.040e-03		8.363
5		0.00		2.80		4.433e-02		127.841		1.012e-02		15.092
5		0.00		3.20		4.847e-02		129.260		1.207e-02		10.893
5		0.00		3.60		5.112e-02		130.891		1.041e-02		6.472
5		0.00		4.00		5.391e-02		132.466		8.558e-03		5.543
5		0.00		4.40		5.380e-02		131.942		1.009e-02		8.524
5		0.00		4.80		5.481e-02		131.482		1.298e-02		9.988
5		0.00		5.20		5.620e-02		130.485		1.433e-02		16.279
5		0.00		5.60		5.797e-02		130.038		1.648e-02		13.843
5		0.00		6.00		6.052e-02		132.519		1.400e-02		7.599
5		0.00		6.40		6.129e-02		134.259		1.255e-02		9.719
5		0.00		6.80		5.928e-02		129.903		1.322e-02		19.408
5		0.00		7.20		6.135e-02		134.007		1.444e-02		13.988
5		0.00		7.60		6.185e-02		134.085		1.550e-02		20.867
5		0.00		8.00		6.244e-02		136.228		1.644e-02		11.134
5		0.00		8.40		6.658e-02		132.223		1.436e-02		18.226
5		0.00		8.80		6.612e-02		130.247		1.762e-02		20.312
5		0.00		9.20		6.511e-02		130.991		1.669e-02		26.365
5		0.00		9.60		6.217e-02		129.372		1.721e-02		20.412
5		0.00		10.00		6.097e-02		132.459		1.748e-02		16.268
5		0.00		9.60		6.219e-02		133.149		1.585e-02		8.159
5		0.00		9.20		6.461e-02		130.939		1.336e-02		10.005
5		0.00		8.80		6.100e-02		133.543		1.184e-02		9.425
5		0.00		8.40		5.792e-02		132.475		1.309e-02		10.479
5		0.00		8.00		5.585e-02		130.783		1.465e-02		18.222
5		0.00		7.60		5.517e-02		130.486		1.442e-02		15.154
5		0.00		7.20		5.276e-02		131.805		1.258e-02		5.847
5		0.00		6.80		5.101e-02		131.311		8.821e-03		5.780
5		0.00		6.40		4.801e-02		132.498		7.765e-03		6.373
5		0.00		6.00		4.474e-02		132.993		8.396e-03		7.781
5		0.00		5.60		4.086e-02		131.104		9.238e-03		11.726
5		0.00		5.20		3.627e-02		130.000		8.745e-03		13.406
5		0.00		4.80		3.321e-02		132.792		6.472e-03		7.513
5		0.00		4.40		2.948e-02		132.119		4.206e-03		6.793
5		0.00		4.00		2.459e-02		133.410		3.419e-03		6.852
5		0.00		3.60		1.840e-02		131.713		2.937e-03		7.506
5		0.00		3.20		1.305e-02		129.165		2.701e-03		13.685
5		0.00		2.80		7.417e-03		125.430		1.839e-03		16.910
5		0.00		2.40		2.319e-03		40.663		1.097e-03		72.962
5		0.00		2.00		4.738e-03		-51.525		1.407e-03		21.757
5		0.00		1.60		1.074e-02		-51.686		1.716e-03		12.129
5		0.00		1.20		1.598e-02		-49.363		2.801e-03		10.160
5		0.00		0.80		2.176e-02		-45.548		4.345e-03		8.373
5		0.00		0.40		2.747e-02		-48.418		4.903e-03		9.128
5		0.00		0.00		3.327e-02		-50.417		4.252e-03		6.699
5		0.00		-0.40		3.858e-02		-49.158		4.572e-03		7.056
5		0.00		-0.80		4.144e-02		-49.814		6.287e-03		6.876
5		0.00		-1.20		4.342e-02		-49.124		8.865e-03		8.839
5		0.00		-1.60		4.512e-02		-50.368		1.077e-02		9.715
5		0.00		-2.00		4.719e-02		-50.931		9.996e-03		6.307
5		0.00		-2.40		5.109e-02		-51.159		7.466e-03		5.051
5		0.00		-2.80		4.964e-02		-52.022		6.851e-03		6.286
5		0.00		-3.20		5.026e-02		-50.353		8.619e-03		7.056
5		0.00		-3.60		4.921e-02		-51.033		1.159e-02		12.567
5		0.00		-4.00		4.993e-02		-50.285		1.244e-02		10.606
5		0.00		-4.40		5.228e-02		-50.664		1.010e-02		6.887
5		0.00		-4.80		5.532e-02		-50.054		7.423e-03		4.809
5		0.00		-5.20		5.417e-02		-47.365		7.748e-03		6.309
5		0.00		-5.60		5.459e-02		-45.926		8.913e-03		5.538
5		0.00		-6.00		5.375e-02		-45.340		1.183e-02		9.145
5		0.00		-6.40		5.423e-02		-45.112		1.324e-02		12.142
5		0.00		-6.80		5.543e-02		-46.288		1.262e-02		6.696
5		0.00		-7.20		5.804e-02		-45.061		1.032e-02		6.133
5		0.00		-7.60		5.871e-02		-44.487		9.363e-03		7.002
5		0.00		-8.00		5.938e-02		-43.403		1.010e-02		6.286
5		0.00		-8.40		5.645e-02		-43.756		1.295e-02		11.335
5		0.00		-8.80		5.427e-02		-43.513		1.442e-02		16.344
5		0.00		-9.20		5.152e-02		-42.123		1.508e-02		13.554
5		0.00		-9.60		4.761e-02		-44.024		1.261e-02		5.715
5		0.00		-10.00		4.106e-02		-41.717		9.194e-03		6.261
5		0.00		-9.60		4.547e-02		-43.093		1.029e-02		7.634
5		0.00		-9.20		4.939e-02		-41.040		1.188e-02		8.444
5		0.00		-8.80		5.168e-02		-43.512		1.364e-02		18.110
5		0.00		-8.40		5.380e-02		-44.566		1.448e-02		16.029
5		0.00		-8.00		5.488e-02		-44.736		1.350e-02		7.279
5		0.00		-7.60		5.682e-02		-45.699		9.856e-03		7.813
5		0.00		-7.20		5.299e-02		-44.754		7.759e-03		6.231
5		0.00		-6.80		5.231e-02		-43.773		8.666e-03		5.245
5		0.00		-6.40		4.870e-02		-45.040		1.011e-02		7.842
5		0.00		-6.00		4.676e-02		-46.162		1.064e-02		10.398
5		0.00		-5.60		4.457e-02		-46.386		9.556e-03		6.422
5		0.00		-5.20		4.264e-02		-47.086		6.843e-03		4.787
5		0.00		-4.80		3.968e-02		-48.884		4.774e-03		5.537
5		0.00		-4.40		3.532e-02		-48.052		4.935e-03		6.252
5		0.00		-4.00		3.103e-02		-47.989		5.193e-03		7.379
5		0.00		-3.60		2.652e-02		-46.417		5.267e-03		10.389
5		0.00		-3.20		2.282e-02		-47.256		4.421e-03		8.376
5		0.00		-2.80		1.862e-02		-46.182		3.122e-03		7.424
5		0.00		-2.40		1.486e-02		-43.798		1.971e-03		9.974
5		0.00		-2.00		1.061e-02		-37.967		1.783e-03		10.156
5		0.00		-1.60		5.469e-03		-39.565		1.321e-03		17.374
5		0.00		-1.20		2.111e-03		18.943		9.393e-04		59.624
5		0.00		-0.80		5.010e-03		104.867		1.960e-03		37.427
5		0.00		-0.40		9.489e-03		121.893		2.674e-03		16.699
6		0.00		0.00		1.465e-02		127.572		2.904e-03		9.246
6		0.00		0.40		1.999e-02		130.865		3.114e-03		7.861
6		0.00		0.80		2.499e-02		130.396		3.613e-03		6.029
6		0.00		1.20		2.893e-02		130.468		4.680e-03		7.185
6		0.00		1.60		3.278e-02		130.355		6.343e-03		9.382
6		0.00		2.00		3.719e-02		130.814		7.458e-03		8.501
6		0.00		2.40		4.124e-02		130.127		8.631e-03		7.332
6		0.00		2.80		4.576e-02		130.103		8.239e-03		4.609
6		0.00		3.20		4.935e-02		131.114		7.674e-03		4.921
6		0.00		3.60		5.127e-02		132.197		7.638e-03		5.374
6		0.00		4.00		5.183e-02		133.722		9.942e-03		6.961
6		0.00		4.40		5.391e-02		133.042		1.209e-02		10.373
6		0.00		4.80		5.516e-02		131.096		1.289e-02		17.034
6		0.00		5.20		5.765e-02		131.751		1.450e-02		10.158
6		0.00		5.60		5.966e-02		132.750		1.267e-02		7.032
6		0.00		6.00		6.187e-02		133.144		1.151e-02		8.729
6		0.00		6.40		5.807e-02		132.707		1.253e-02		15.157
6		0.00		6.80		6.038e-02		134.632		1.469e-02		13.748
6		0.00		7.20		5.906e-02		135.539		1.487e-02		13.825
6		0.00		7.60		6.036e-02		134.351		1.692e-02		19.108
6		0.00		8.00		5.918e-02		136.500		1.677e-02		20.566
6		0.00		8.40		6.364e-02		134.983		1.754e-02		11.253
6		0.00		8.80		6.518e-02		135.571		1.627e-02		15.215
6		0.00		9.20		6.631e-02		128.931		1.779e-02		18.866
6		0.00		9.60		6.356e-02		131.475		1.654e-02		16.831
6		0.00		10.00		5.951e-02		133.167		1.592e-02		17.178
6		0.00		9.60		6.174e-02		129.011		1.751e-02		23.275
6		0.00		9.20		6.237e-02		130.146		1.779e-02		24.340
6		0.00		8.80		5.984e-02		135.062		1.606e-02		11.909
6		0.00		8.40		6.132e-02		132.951		1.533e-02		8.014
6		0.00		8.00		5.948e-02		132.750		1.217e-02		7.023
6		0.00		7.60		5.649e-02		133.687		1.055e-02		7.416
6		0.00		7.20		5.388e-02		134.035		9.656e-03		7.548
6		0.00		6.80		5.017e-02		133.847		1.018e-02		6.640
6		0.00		6.40		4.668e-02		131.698		1.077e-02		11.476
6		0.00		6.00		4.406e-02		130.670		1.082e-02		18.936
6		0.00		5.60		4.092e-02		129.519		1.048e-02		16.472
6		0.00		5.20		3.723e-02		131.422		9.128e-03		7.333
6		0.00		4.80		3.345e-02		131.895		6.829e-03		7.367
6		0.00		4.40		2.931e-02		131.974		5.327e-03		7.032
6		0.00		4.00		2.511e-02		131.331		4.498e-03		8.035
6		0.00		3.60		1.972e-02		132.372		3.602e-03		8.830
6		0.00		3.20		1.441e-02		131.276		3.497e-03		11.785
6		0.00		2.80		8.776e-03		132.230		2.493e-03		17.952
6		0.00		2.40		3.551e-03		103.756		1.570e-03		52.122
6		0.00		2.00		3.022e-03		-32.292		1.410e-03		42.149
6		0.00		1.60		8.661e-03		-54.249		2.146e-03		12.896
6		0.00		1.20		1.443e-02		-51.256		2.262e-03		10.604
6		0.00		0.80		1.977e-02		-49.446		3.031e-03		9.161
6		0.00		0.40		2.590e-02		-48.040		4.182e-03		8.371
6		0.00		0.00		3.017e-02		-46.606		5.501e-03		8.042
6		0.00		-0.40		3.453e-02		-49.357		7.132e-03		11.288
6		0.00		-0.80		3.864e-02		-49.135		8.451e-03		7.971
6		0.00		-1.20		4.293e-02		-51.415		9.192e-03		7.056
6		0.00		-1.60		4.523e-02		-51.411		7.932e-03		5.778
6		0.00		-2.00		4.795e-02		-50.863		6.917e-03		5.088
6		0.00		-2.40		4.787e-02		-50.223		6.860e-03		6.009
6		0.00		-2.80		4.824e-02		-50.876		7.483e-03		6.074
6		0.00		-3.20		4.722e-02		-49.651		9.167e-03		6.914
6		0.00		-3.60		4.704e-02		-49.623		1.131e-02		10.259
6		0.00		-4.00		4.882e-02		-51.746		1.217e-02		13.409
6		0.00		-4.40		5.012e-02		-50.096		1.314e-02		8.791
6		0.00		-4.80		5.104e-02		-49.734		1.132e-02		5.991
6		0.00		-5.20		5.203e-02		-47.732		9.425e-03		6.159
6		0.00		-5.60		5.279e-02		-46.169		8.514e-03		7.548
6		0.00		-6.00		5.338e-02		-44.401		9.379e-03		6.540
6		0.00		-6.40		5.439e-02		-45.722		1.146e-02		7.542
6		0.00		-6.80		5.426e-02		-45.322		1.340e-02		11.340
6		0.00		-7.20		5.427e-02		-46.248		1.412e-02		16.819
6		0.00		-7.60		5.580e-02		-45.820		1.479e-02		12.641
6		0.00		-8.00		5.765e-02		-44.798		1.380e-02		6.728
6		0.00		-8.40		5.637e-02		-42.963		1.185e-02		8.531
6		0.00		-8.80		5.467e-02		-41.844		1.070e-02		8.641
6		0.00		-9.20		5.103e-02		-40.287		1.085e-02		8.134
6		0.00		-9.60		4.570e-02		-42.407		1.118e-02		7.845
6		0.00		-10.00		4.047e-02		-42.091		1.105e-02		10.446
6		0.00		-9.60		4.442e-02		-44.163		1.306e-02		16.001
6		0.00		-9.20		4.961e-02		-37.645		1.474e-02		17.664
6		0.00		-8.80		5.197e-02		-42.893		1.570e-02		9.916
6		0.00		-8.40		5.357e-02		-43.726		1.303e-02		6.556
6		0.00		-8.00		5.546e-02		-43.887		1.163e-02		7.026
6		0.00		-7.60		5.435e-02		-43.745		9.706e-03		7.009
6		0.00		-7.20		5.126e-02		-44.006		9.669e-03		6.188
6		0.00		-6.80		5.060e-02		-44.869		1.083e-02		6.602
6		0.00		-6.40		4.730e-02		-45.148		1.166e-02		8.446
6		0.00		-6.00		4.555e-02		-46.648		1.119e-02		12.090
6		0.00		-5.60		4.306e-02		-47.748		1.053e-02		12.723
6		0.00		-5.20		4.067e-02		-48.024		9.391e-03		8.799
6		0.00		-4.80		3.839e-02		-48.553		7.644e-03		6.867
6		0.00		-4.40		3.464e-02		-48.720		5.470e-03		5.846
6		0.00		-4.00		3.146e-02		-48.108		4.481e-03		6.547
6		0.00		-3.60		2.742e-02		-48.273		3.551e-03		7.178
6		0.00		-3.20		2.353e-02		-46.253		3.238e-03		7.874
6		0.00		-2.80		1.885e-02		-45.063		2.735e-03		10.027
6		0.00		-2.40		1.416e-02		-42.076		2.586e-03		9.353
6		0.00		-2.00		1.000e-02		-41.113		2.180e-03		11.229
6		0.00		-1.60		4.880e-03		-52.792		1.518e-03		18.484
6		0.00		-1.20		2.115e-03		15.740		1.055e-03		64.469
6		0.00		-0.80		5.277e-03		108.169		1.775e-03		32.113
6		0.00		-0.40		9.815e-03		120.606		2.468e-03		13.014
7		0.00		0.00		1.506e-02		128.279		3.004e-03		9.192
7		0.00		0.40		2.037e-02		126.808		3.331e-03		7.885
7		0.00		0.80		2.507e-02		128.801		3.961e-03		7.680
7		0.00		1.20		2.966e-02		129.261		4.318e-03		6.962
7		0.00		1.60		3.439e-02		129.752		5.392e-03		7.410
7		0.00		2.00		3.849e-02		130.289		7.140e-03		8.086
7		0.00		2.40		4.145e-02		131.787		8.881e-03		8.629
7		0.00		2.80		4.570e-02		129.425		1.006e-02		12.195
7		0.00		3.20		4.970e-02		130.516		1.134e-02		11.716
7		0.00		3.60		5.280e-02		130.911		1.260e-02		10.729
7		0.00		4.00		5.573e-02		132.151		1.243e-02		5.986
7		0.00		4.40		5.828e-02		133.352		1.094e-02		5.462
7		0.00		4.80		5.966e-02		134.047		9.775e-03		6.504
7		0.00		5.20		6.090e-02		132.757		1.065e-02		8.579
7		0.00		5.60		5.972e-02		133.552		1.138e-02		10.412
7		0.00		6.00		6.125e-02		133.393		1.362e-02		13.457
7		0.00		6.40		6.182e-02		134.887		1.402e-02		12.819
7		0.00		6.80		6.041e-02		133.574		1.630e-02		16.990
7		0.00		7.20		5.998e-02		133.556		1.669e-02		20.288
7		0.00		7.60		5.980e-02		132.945		1.751e-02		26.386
7		0.00		8.00		6.100e-02		131.754		1.816e-02		31.193
7		0.00		8.40		6.214e-02		132.248		1.848e-02		19.403
7		0.00		8.80		6.298e-02		137.264		1.770e-02		11.936
7		0.00		9.20		6.553e-02		134.200		1.681e-02		11.968
7		0.00		9.60		6.586e-02		133.916		1.724e-02		14.631
7		0.00		10.00		6.313e-02		132.863		1.659e-02		14.016
7		0.00		9.60		6.048e-02		132.012		1.582e-02		16.772
7		0.00		9.20		6.180e-02		131.541		1.586e-02		14.733
7		0.00		8.80		6.200e-02		132.152		1.544e-02		12.240
7		0.00		8.40		5.953e-02		131.855		1.491e-02		16.469
7		0.00		8.00		5.656e-02		132.892		1.387e-02		14.389
7		0.00		7.60		5.614e-02		131.945		1.382e-02		17.462
7		0.00		7.20		5.453e-02		131.728		1.346e-02		15.663
7		0.00		6.80		5.197e-02		131.511		1.336e-02		13.525
7		0.00		6.40		4.950e-02		131.717		1.220e-02		8.065
7		0.00		6.00		4.627e-02		132.017		1.006e-02		5.058
7		0.00		5.60		4.317e-02		132.958		8.249e-03		5.201
7		0.00		5.20		3.939e-02		132.620		6.800e-03		5.022
7		0.00		4.80		3.495e-02		132.587		5.773e-03		6.052
7		0.00		4.40		3.025e-02		132.633		4.694e-03		5.288
7		0.00		4.00		2.546e-02		133.081		4.376e-03		6.709
7		0.00		3.60		2.091e-02		133.942		3.768e-03		7.405
7		0.00		3.20		1.562e-02		129.856		3.047e-03		12.526
7		0.00		2.80		1.002e-02		132.793		2.353e-03		15.935
7		0.00		2.40		4.538e-03		106.702		1.729e-03		52.347
7		0.00		2.00		2.645e-03		-26.114		1.352e-03		52.410
7		0.00		1.60		7.613e-03		-48.061		2.066e-03		15.140
7		0.00		1.20		1.333e-02		-48.450		2.764e-03		10.606
7		0.00		0.80		2.007e-02		-49.015		3.183e-03		8.274
7		0.00		0.40		2.624e-02		-48.888		3.258e-03		7.130
7		0.00		0.00		3.208e-02		-50.466		3.862e-03		6.887
7		0.00		-0.40		3.734e-02		-50.742		4.566e-03		7.055
7		0.00		-0.80		4.085e-02		-49.943		5.621e-03		7.183
7		0.00		-1.20		4.333e-02		-48.703		6.766e-03		6.359
7		0.00		-1.60		4.506e-02		-48.895		8.371e-03		10.000
7		0.00		-2.00		4.638e-02		-49.199		9.700e-03		9.946
7		0.00		-2.40		4.744e-02		-50.213		1.037e-02		11.408
7		0.00		-2.80		4.883e-02		-51.666		1.115e-02		9.611
7		0.00		-3.20		4.870e-02		-51.288		1.117e-02		6.354
7		0.00		-3.60		4.995e-02		-50.957		9.687e-03		5.038
7		0.00		-4.00		5.155e-02		-50.862		8.809e-03		4.982
7		0.00		-4.40		5.158e-02		-49.917		8.656e-03		6.280
7		0.00		-4.80		5.139e-02		-48.137		9.125e-03		6.877
7		0.00		-5.20		5.261e-02		-47.450		1.032e-02		6.440
7		0.00		-5.60		5.156e-02		-45.632		1.231e-02		8.658
7		0.00		-6.00		5.116e-02		-46.130		1.355e-02		17.421
7		0.00		-6.40		5.337e-02		-46.563		1.445e-02		17.110
7		0.00		-6.80		5.542e-02		-45.343		1.455e-02		8.646
7		0.00		-7.20		5.735e-02		-44.548		1.137e-02		7.786
7		0.00		-7.60		5.880e-02		-43.342		1.064e-02		9.988
7		0.00		-8.00		5.735e-02		-42.783		9.252e-03		6.925
7		0.00		-8.40		5.598e-02		-43.082		1.085e-02		8.341
7		0.00		-8.80		5.400e-02		-41.733		1.254e-02		10.077
7		0.00		-9.20		5.111e-02		-42.551		1.349e-02		13.900
7		0.00		-9.60		4.672e-02		-41.977		1.263e-02		17.970
7		0.00		-10.00		4.246e-02		-44.426		1.139e-02		16.542
7		0.00		-9.60		4.842e-02		-43.588		1.270e-02		6.655
7		0.00		-9.20		5.321e-02		-41.885		1.176e-02		6.614
7		0.00		-8.80		5.302e-02		-41.169		1.065e-02		6.766
7		0.00		-8.40		5.544e-02		-41.903		1.065e-02		7.799
7		0.00		-8.00		5.697e-02		-44.651		1.300e-02		8.580
7		0.00		-7.60		5.466e-02		-45.557		1.398e-02		11.797
7		0.00		-7.20		5.415e-02		-46.134		1.405e-02		12.612
7		0.00		-6.80		5.209e-02		-46.019		1.394e-02		12.385
7		0.00		-6.40		5.152e-02		-45.401		1.309e-02		5.985
7		0.00		-6.00		4.971e-02		-45.133		9.345e-03		4.651
7		0.00		-5.60		4.634e-02		-46.843		7.231e-03		5.337
7		0.00		-5.20		4.324e-02		-46.883		6.066e-03		5.906
7		0.00		-4.80		3.928e-02		-46.453		6.312e-03		6.726
7		0.00		-4.40		3.466e-02		-46.464		6.389e-03		7.334
7		0.00		-4.00		3.079e-02		-47.918		5.997e-03		9.441
7		0.00		-3.60		2.711e-02		-47.432		5.567e-03		9.362
7		0.00		-3.20		2.252e-02		-46.703		4.452e-03		7.444
7		0.00		-2.80		1.882e-02		-43.678		3.077e-03		10.149
7		0.00		-2.40		1.480e-02		-44.309		2.370e-03		8.914
7		0.00		-2.00		1.001e-02		-38.214		1.574e-03		12.358
7		0.00		-1.60		5.451e-03		-42.724		1.620e-03		18.449
7		0.00		-1.20		1.937e-03		5.052		7.566e-04		54.359
7		0.00		-0.80		5.718e-03		118.181		1.559e-03		23.034
7		0.00		-0.40		1.049e-02		122.717		2.463e-03		15.009
8		0.00		0.00		1.509e-02		124.380		3.628e-03		15.240
8		0.00		0.40		1.993e-02		125.700		5.009e-03		9.520
8		0.00		0.80		2.521e-02		127.359		4.933e-03		7.012
8		0.00		1.20		3.023e-02		127.592		4.900e-03		6.316
8		0.00		1.60		3.457e-02		129.474		5.489e-03		6.196
8		0.00		2.00		3.778e-02		129.247		6.575e-03		6.331
8		0.00		2.40		4.057e-02		129.951		8.627e-03		8.097
8		0.00		2.80		4.293e-02		130.896		1.058e-02		9.681
8		0.00		3.20		4.669e-02		130.009		1.208e-02		12.919
8		0.00		3.60		4.998e-02		131.403		1.330e-02		8.427
8		0.00		4.00		5.367e-02		132.165		1.160e-02		4.751
8		0.00		4.40		5.580e-02		133.557		1.065e-02		6.063
8		0.00		4.80		5.527e-02		134.388		9.341e-03		6.363
8		0.00		5.20		5.537e-02		134.163		1.097e-02		8.403
8		0.00		5.60		5.486e-02		135.702		1.201e-02		10.250
8		0.00		6.00		5.802e-02		131.769		1.413e-02		18.573
8		0.00		6.40		5.675e-02		134.821		1.434e-02		15.848
8		0.00		6.80		5.757e-02		138.028		1.502e-02		10.232
8		0.00		7.20		6.242e-02		134.492		1.339e-02		8.819
8		0.00		7.60		6.364e-02		135.402		1.404e-02		11.828
8		0.00		8.00		6.189e-02		132.131		1.559e-02		17.045
8		0.00		8.40		6.283e-02		131.735		1.698e-02		33.749
8		0.00		8.80		6.126e-02		131.516		1.737e-02		34.948
8		0.00		9.20		6.292e-02		128.221		1.930e-02		36.852
8		0.00		9.60		6.191e-02		127.258		1.890e-02		39.086
8		0.00		10.00		6.261e-02		134.870		1.770e-02		11.489
8		0.00		9.60		6.437e-02		135.517		1.635e-02		15.738
8		0.00		9.20		6.397e-02		131.751		1.742e-02		16.974
8		0.00		8.80		6.227e-02		135.542		1.633e-02		16.203
8		0.00		8.40		5.857e-02		129.857		1.649e-02		20.734
8		0.00		8.00		5.909e-02		132.543		1.623e-02		18.740
8		0.00		7.60		5.685e-02		132.874		1.465e-02		16.931
8		0.00		7.20		5.592e-02		133.793		1.445e-02		7.610
8		0.00		6.80		5.418e-02		132.738		1.113e-02		5.209
8		0.00		6.40		5.057e-02		133.862		9.294e-03		6.028
8		0.00		6.00		4.749e-02		134.587		8.791e-03		5.922
8		0.00		5.60		4.287e-02		132.906		8.822e-03		8.255
8		0.00		5.20		3.925e-02		131.227		8.758e-03		13.572
8		0.00		4.80		3.480e-02		130.945		7.874e-03		15.318
8		0.00		4.40		3.004e-02		131.956		6.481e-03		8.453
8		0.00		4.00		2.575e-02		135.004		4.424e-03		7.163
8		0.00		3.60		2.037e-02		130.799		3.512e-03		8.017
8		0.00		3.20		1.515e-02		133.897		2.966e-03		9.745
8		0.00		2.80		9.594e-03		134.263		2.300e-03		14.375
8		0.00		2.40		3.167e-03		85.954		1.299e-03		61.992
8		0.00		2.00		3.670e-03		-48.276		1.410e-03		39.718
8		0.00		1.60		9.415e-03		-52.386		2.202e-03		11.639
8		0.00		1.20		1.535e-02		-49.193		2.275e-03		8.804
8		0.00		0.80		2.112e-02		-48.678		3.338e-03		9.066
8		0.00		0.40		2.631e-02		-51.240		4.978e-03		8.889
8		0.00		0.00		3.053e-02		-49.863		6.768e-03		10.559
8		0.00		-0.40		3.546e-02		-49.918		8.236e-03		9.326
8		0.00		-0.80		4.075e-02		-50.790		6.910e-03		6.165
8		0.00		-1.20		4.513e-02		-50.188		5.794e-03		5.365
8		0.00		-1.60		4.645e-02		-49.489		6.182e-03		6.524
8		0.00		-2.00		4.577e-02		-48.853		8.200e-03		8.776
8		0.00		-2.40		4.695e-02		-50.904		1.041e-02		11.048
8		0.00		-2.80		4.779e-02		-51.287		1.059e-02		7.728
8		0.00		-3.20		4.961e-02		-51.146		8.980e-03		5.985
8		0.00		-3.60		4.946e-02		-50.680		6.657e-03		5.974
8		0.00		-4.00		5.043e-02		-49.180		8.266e-03		5.833
8		0.00		-4.40		5.025e-02		-49.501		1.037e-02		7.011
8		0.00		-4.80		5.031e-02		-49.888		1.238e-02		11.064
8		0.00		-5.20		5.206e-02		-48.673		1.362e-02		7.044
8		0.00		-5.60		5.521e-02		-46.763		1.116e-02		5.448
8		0.00		-6.00		5.451e-02		-46.198		8.949e-03		6.895
8		0.00		-6.40		5.582e-02		-44.788		1.101e-02		6.742
8		0.00		-6.80		5.641e-02		-46.344		1.471e-02		13.690
8		0.00		-7.20		5.497e-02		-42.627		1.473e-02		17.675
8		0.00		-7.60		5.692e-02		-44.098		1.624e-02		8.752
8		0.00		-8.00		5.878e-02		-43.618		1.153e-02		8.424
8		0.00		-8.40		5.723e-02		-42.682		9.971e-03		9.739
8		0.00		-8.80		5.451e-02		-42.907		1.262e-02		10.939
8		0.00		-9.20		5.237e-02		-42.113		1.367e-02		11.390
8		0.00		-9.60		4.671e-02		-41.927		1.326e-02		19.714
8		0.00		-10.00		4.108e-02		-40.194		1.099e-02		13.677
8		0.00		-9.60		4.729e-02		-42.467		1.112e-02		5.436
8		0.00		-9.20		5.109e-02		-41.202		1.161e-02		6.867
8		0.00		-8.80		5.354e-02		-41.577		1.097e-02		7.471
8		0.00		-8.40		5.418e-02		-44.448		1.333e-02		11.420
8		0.00		-8.00		5.492e-02		-46.110		1.418e-02		18.017
8		0.00		-7.60		5.365e-02		-45.928		1.375e-02		11.820
8		0.00		-7.20		5.423e-02		-45.919		1.140e-02		5.609
8		0.00		-6.80		5.315e-02		-44.878		9.100e-03		5.857
8		0.00		-6.40		4.941e-02		-45.285		8.161e-03		5.954
8		0.00		-6.00		4.624e-02		-44.866		9.130e-03		6.291
8		0.00		-5.60		4.328e-02		-47.218		1.021e-02		9.865
8		0.00		-5.20		4.103e-02		-47.255		1.006e-02		11.629
8		0.00		-4.80		3.801e-02		-47.973		9.031e-03		7.806
8		0.00		-4.40		3.476e-02		-49.523		6.397e-03		5.549
8		0.00		-4.00		3.138e-02		-48.798		4.769e-03		7.701
8		0.00		-3.60		2.685e-02		-48.253		4.283e-03		6.741
8		0.00		-3.20		2.305e-02		-46.906		4.310e-03		7.289
8		0.00		-2.80		1.871e-02		-46.242		4.225e-03		11.392
8		0.00		-2.40		1.413e-02		-42.336		3.234e-03		9.909
8		0.00		-2.00		1.019e-02		-42.249		2.368e-03		12.654
8		0.00		-1.60		5.504e-03		-36.948		1.576e-03		17.423
8		0.00		-1.20		2.273e-03		31.101		1.046e-03		71.026
8		0.00		-0.80		5.655e-03		117.749		1.518e-03		23.265
8		0.00		-0.40		1.062e-02		121.031		2.489e-03		14.309
