# Date of analysis: 2023-11-20 16;15
# 
# Loop index	Read Volt (V)	Write Volt (V)	Amplitude (a.u)	Phase (deg)	Sigma Amp (a.u)	Sigma Pha (deg)	
1		0.00		0.00		6.188e-03		-8.685		5.648e-03		61.009
1		0.00		0.40		5.119e-03		-5.569		4.277e-03		48.782
1		0.00		0.80		3.629e-03		-26.794		2.742e-03		47.981
1		0.00		1.20		2.910e-03		-31.609		1.530e-03		64.397
1		0.00		1.60		2.737e-03		-35.743		1.511e-03		77.345
1		0.00		2.00		3.307e-03		16.307		2.230e-03		91.278
1		0.00		2.40		3.721e-03		34.638		2.563e-03		84.101
1		0.00		2.80		3.390e-03		46.070		2.776e-03		61.752
1		0.00		3.20		4.778e-03		64.076		3.588e-03		67.212
1		0.00		3.60		5.258e-03		67.000		3.512e-03		70.214
1		0.00		4.00		5.651e-03		41.071		3.072e-03		86.782
1		0.00		4.40		6.022e-03		54.846		3.097e-03		78.771
1		0.00		4.80		6.612e-03		44.679		3.673e-03		79.754
1		0.00		5.20		7.679e-03		42.230		4.888e-03		82.079
1		0.00		5.60		8.214e-03		37.770		5.144e-03		80.245
1		0.00		6.00		8.813e-03		41.277		5.706e-03		79.298
1		0.00		6.40		9.778e-03		42.006		6.094e-03		85.047
1		0.00		6.80		1.057e-02		50.042		6.941e-03		76.123
1		0.00		7.20		1.106e-02		37.370		7.023e-03		85.234
1		0.00		7.60		1.113e-02		38.025		7.220e-03		80.542
1		0.00		8.00		1.022e-02		35.028		5.131e-03		69.333
1		0.00		8.40		1.047e-02		24.216		5.495e-03		74.706
1		0.00		8.80		1.035e-02		24.386		5.467e-03		65.083
1		0.00		9.20		1.071e-02		26.927		6.185e-03		69.245
1		0.00		9.60		1.038e-02		22.724		5.739e-03		66.338
1		0.00		10.00		9.856e-03		7.657		5.801e-03		76.666
1		0.00		9.60		1.018e-02		6.087		5.793e-03		71.499
1		0.00		9.20		1.071e-02		7.378		6.499e-03		77.040
1		0.00		8.80		1.015e-02		9.669		6.192e-03		73.410
1		0.00		8.40		9.074e-03		11.028		5.473e-03		75.154
1		0.00		8.00		9.978e-03		8.751		5.895e-03		73.077
1		0.00		7.60		9.146e-03		16.590		5.082e-03		76.216
1		0.00		7.20		1.006e-02		31.894		5.685e-03		78.514
1		0.00		6.80		9.245e-03		32.024		4.969e-03		83.710
1		0.00		6.40		8.824e-03		32.942		5.055e-03		86.010
1		0.00		6.00		8.474e-03		34.057		4.900e-03		88.487
1		0.00		5.60		8.251e-03		37.472		4.640e-03		89.288
1		0.00		5.20		7.429e-03		37.093		4.680e-03		86.215
1		0.00		4.80		6.458e-03		30.717		4.089e-03		82.009
1		0.00		4.40		6.084e-03		34.049		3.705e-03		83.918
1		0.00		4.00		5.367e-03		26.337		3.429e-03		89.599
1		0.00		3.60		4.669e-03		24.983		3.153e-03		88.956
1		0.00		3.20		4.057e-03		-1.654		2.317e-03		98.507
1		0.00		2.80		3.813e-03		-11.121		2.285e-03		99.810
1		0.00		2.40		3.621e-03		-20.026		2.318e-03		90.561
1		0.00		2.00		3.980e-03		-43.790		3.097e-03		84.093
1		0.00		1.60		4.606e-03		-60.088		4.261e-03		62.157
1		0.00		1.20		5.941e-03		-49.627		5.796e-03		55.107
1		0.00		0.80		6.702e-03		-53.491		6.786e-03		52.625
1		0.00		0.40		7.650e-03		-53.942		7.408e-03		51.357
1		0.00		0.00		9.159e-03		-40.594		8.686e-03		58.370
1		0.00		-0.40		1.051e-02		-49.130		9.665e-03		49.763
1		0.00		-0.80		1.072e-02		-57.867		9.191e-03		54.967
1		0.00		-1.20		1.259e-02		-42.656		1.036e-02		54.042
1		0.00		-1.60		1.329e-02		-51.431		1.088e-02		52.710
1		0.00		-2.00		1.482e-02		-48.317		1.127e-02		45.485
1		0.00		-2.40		1.433e-02		-48.915		1.107e-02		62.873
1		0.00		-2.80		1.509e-02		-51.399		1.175e-02		47.422
1		0.00		-3.20		1.661e-02		-50.233		1.236e-02		51.240
1		0.00		-3.60		1.717e-02		-55.440		1.285e-02		49.814
1		0.00		-4.00		1.683e-02		-53.756		1.235e-02		60.995
1		0.00		-4.40		1.669e-02		-53.485		1.166e-02		71.296
1		0.00		-4.80		1.624e-02		-47.619		1.120e-02		79.395
1		0.00		-5.20		1.690e-02		-42.099		1.173e-02		79.171
1		0.00		-5.60		1.928e-02		-45.081		1.481e-02		62.655
1		0.00		-6.00		2.150e-02		-38.540		1.818e-02		46.028
1		0.00		-6.40		1.860e-02		-51.644		1.338e-02		72.973
1		0.00		-6.80		2.069e-02		-57.270		1.603e-02		67.204
1		0.00		-7.20		2.207e-02		-54.700		1.811e-02		60.868
1		0.00		-7.60		2.312e-02		-47.336		1.817e-02		61.465
1		0.00		-8.00		2.142e-02		-60.079		1.587e-02		72.960
1		0.00		-8.40		2.186e-02		-50.556		1.625e-02		65.891
1		0.00		-8.80		2.291e-02		-47.126		1.869e-02		57.544
1		0.00		-9.20		2.008e-02		-47.714		1.515e-02		68.308
1		0.00		-9.60		1.981e-02		-40.201		1.503e-02		67.226
1		0.00		-10.00		1.544e-02		-47.621		1.032e-02		76.182
1		0.00		-9.60		1.761e-02		-44.080		1.204e-02		74.542
1		0.00		-9.20		1.901e-02		-43.238		1.272e-02		70.774
1		0.00		-8.80		2.164e-02		-27.606		1.571e-02		61.973
1		0.00		-8.40		2.190e-02		-37.315		1.568e-02		56.435
1		0.00		-8.00		2.240e-02		-30.887		1.558e-02		56.715
1		0.00		-7.60		2.116e-02		-38.828		1.373e-02		60.123
1		0.00		-7.20		2.019e-02		-38.367		1.327e-02		57.723
1		0.00		-6.80		1.737e-02		-45.508		1.125e-02		60.241
1		0.00		-6.40		1.737e-02		-37.479		1.058e-02		54.175
1		0.00		-6.00		1.605e-02		-38.765		9.720e-03		54.555
1		0.00		-5.60		1.526e-02		-70.969		8.423e-03		53.527
1		0.00		-5.20		1.431e-02		-77.380		8.803e-03		50.476
1		0.00		-4.80		1.368e-02		-87.593		7.090e-03		44.095
1		0.00		-4.40		1.224e-02		-87.242		7.052e-03		39.706
1		0.00		-4.00		1.061e-02		-85.101		6.284e-03		50.023
1		0.00		-3.60		1.143e-02		-74.394		5.645e-03		41.086
1		0.00		-3.20		8.950e-03		-86.363		4.797e-03		45.305
1		0.00		-2.80		7.665e-03		-85.252		4.105e-03		52.724
1		0.00		-2.40		6.498e-03		-98.365		3.830e-03		37.823
1		0.00		-2.00		5.538e-03		-92.680		3.521e-03		43.649
1		0.00		-1.60		4.900e-03		-85.691		2.865e-03		39.525
1		0.00		-1.20		3.586e-03		-85.825		2.389e-03		48.339
1		0.00		-0.80		2.534e-03		-51.515		1.536e-03		74.769
1		0.00		-0.40		2.460e-03		-35.246		1.596e-03		88.368
2		0.00		0.00		2.221e-03		-9.730		1.770e-03		82.309
2		0.00		0.40		2.511e-03		16.602		2.354e-03		83.406
2		0.00		0.80		3.167e-03		43.968		3.502e-03		67.416
2		0.00		1.20		3.567e-03		56.960		3.492e-03		53.808
2		0.00		1.60		4.118e-03		62.114		4.161e-03		41.538
2		0.00		2.00		4.792e-03		70.211		4.961e-03		41.213
2		0.00		2.40		5.052e-03		24.102		2.994e-03		102.203
2		0.00		2.80		4.386e-03		6.235		2.055e-03		105.383
2		0.00		3.20		5.081e-03		24.250		2.283e-03		115.491
2		0.00		3.60		5.536e-03		18.942		2.777e-03		109.848
2		0.00		4.00		7.065e-03		43.366		3.170e-03		101.474
2		0.00		4.40		7.161e-03		40.639		3.384e-03		104.555
2		0.00		4.80		8.294e-03		44.740		4.201e-03		94.639
2		0.00		5.20		8.202e-03		30.115		4.466e-03		80.579
2		0.00		5.60		9.112e-03		35.154		4.943e-03		79.979
2		0.00		6.00		1.028e-02		42.798		6.025e-03		78.416
2		0.00		6.40		1.016e-02		27.346		6.087e-03		73.814
2		0.00		6.80		9.925e-03		24.816		5.789e-03		73.110
2		0.00		7.20		1.142e-02		39.801		7.166e-03		75.747
2		0.00		7.60		1.135e-02		35.372		6.411e-03		76.713
2		0.00		8.00		1.156e-02		32.309		6.389e-03		78.170
2		0.00		8.40		1.268e-02		33.263		7.474e-03		82.907
2		0.00		8.80		1.182e-02		34.690		5.658e-03		82.330
2		0.00		9.20		1.290e-02		43.574		5.740e-03		78.522
2		0.00		9.60		1.293e-02		37.913		5.974e-03		85.703
2		0.00		10.00		1.467e-02		41.480		7.031e-03		88.914
2		0.00		9.60		1.555e-02		51.725		7.283e-03		82.829
2		0.00		9.20		1.505e-02		47.300		7.947e-03		85.155
2		0.00		8.80		1.738e-02		68.031		8.353e-03		73.748
2		0.00		8.40		1.612e-02		61.802		6.943e-03		72.827
2		0.00		8.00		1.271e-02		61.383		9.256e-03		50.890
2		0.00		7.60		1.470e-02		66.085		7.025e-03		74.501
2		0.00		7.20		1.598e-02		65.831		7.516e-03		86.369
2		0.00		6.80		1.520e-02		65.551		7.156e-03		82.660
2		0.00		6.40		1.205e-02		58.191		7.125e-03		75.412
2		0.00		6.00		1.289e-02		57.621		5.970e-03		87.862
2		0.00		5.60		1.226e-02		52.238		6.066e-03		91.662
2		0.00		5.20		1.094e-02		41.559		6.025e-03		102.253
2		0.00		4.80		1.017e-02		39.249		5.875e-03		100.640
2		0.00		4.40		8.257e-03		15.748		5.060e-03		102.924
2		0.00		4.00		7.671e-03		5.828		4.737e-03		108.554
2		0.00		3.60		7.214e-03		-1.840		4.310e-03		106.934
2		0.00		3.20		5.336e-03		-27.843		2.956e-03		98.546
2		0.00		2.80		5.162e-03		-31.802		2.706e-03		96.351
2		0.00		2.40		4.001e-03		-60.626		2.318e-03		70.001
2		0.00		2.00		4.738e-03		-68.825		3.205e-03		64.667
2		0.00		1.60		5.104e-03		-52.138		4.066e-03		57.987
2		0.00		1.20		5.780e-03		-36.035		5.010e-03		55.387
2		0.00		0.80		6.539e-03		-31.606		5.773e-03		52.871
2		0.00		0.40		7.614e-03		-31.539		6.509e-03		46.455
2		0.00		0.00		8.959e-03		-24.827		7.249e-03		45.921
2		0.00		-0.40		9.542e-03		-23.479		7.306e-03		45.187
2		0.00		-0.80		1.068e-02		-21.652		7.892e-03		47.412
2		0.00		-1.20		1.190e-02		-18.387		8.567e-03		48.125
2		0.00		-1.60		1.330e-02		-22.209		9.378e-03		45.120
2		0.00		-2.00		1.413e-02		-23.471		9.458e-03		42.182
2		0.00		-2.40		1.490e-02		-24.386		1.089e-02		42.387
2		0.00		-2.80		1.610e-02		-25.701		1.240e-02		47.333
2		0.00		-3.20		1.703e-02		-41.607		1.300e-02		44.648
2		0.00		-3.60		1.644e-02		-50.958		1.298e-02		52.585
2		0.00		-4.00		1.536e-02		-56.566		1.179e-02		64.667
2		0.00		-4.40		1.916e-02		-51.005		1.510e-02		55.322
2		0.00		-4.80		2.011e-02		-54.479		1.576e-02		50.942
2		0.00		-5.20		2.150e-02		-42.443		1.650e-02		57.631
2		0.00		-5.60		2.289e-02		-41.290		1.713e-02		54.991
2		0.00		-6.00		2.309e-02		-31.995		1.634e-02		56.480
2		0.00		-6.40		2.304e-02		-35.820		1.408e-02		53.294
2		0.00		-6.80		2.083e-02		-78.337		1.317e-02		50.827
2		0.00		-7.20		2.379e-02		-74.150		1.162e-02		46.371
2		0.00		-7.60		2.633e-02		-55.002		1.287e-02		45.438
2		0.00		-8.00		2.562e-02		-56.940		1.416e-02		53.965
2		0.00		-8.40		2.578e-02		-19.504		1.509e-02		46.705
2		0.00		-8.80		2.426e-02		0.675		1.623e-02		34.130
2		0.00		-9.20		2.206e-02		4.561		1.475e-02		31.076
2		0.00		-9.60		1.900e-02		-12.195		1.118e-02		44.493
2		0.00		-10.00		1.616e-02		-3.440		9.604e-03		38.551
2		0.00		-9.60		1.759e-02		-4.275		1.084e-02		39.852
2		0.00		-9.20		1.878e-02		-10.711		1.182e-02		41.284
2		0.00		-8.80		1.841e-02		-12.409		1.282e-02		40.597
2		0.00		-8.40		1.953e-02		-29.414		1.306e-02		51.112
2		0.00		-8.00		2.099e-02		-21.065		1.580e-02		51.740
2		0.00		-7.60		1.863e-02		-43.164		1.323e-02		68.782
2		0.00		-7.20		1.818e-02		-49.697		1.291e-02		79.287
2		0.00		-6.80		1.813e-02		-55.391		1.259e-02		73.217
2		0.00		-6.40		2.126e-02		-41.289		1.570e-02		59.409
2		0.00		-6.00		2.022e-02		-43.071		1.389e-02		56.233
2		0.00		-5.60		1.894e-02		-41.271		1.319e-02		60.108
2		0.00		-5.20		1.802e-02		-30.545		1.223e-02		59.348
2		0.00		-4.80		1.569e-02		-38.667		9.443e-03		55.173
2		0.00		-4.40		1.311e-02		-76.172		5.844e-03		45.837
2		0.00		-4.00		1.183e-02		-87.397		5.782e-03		43.864
2		0.00		-3.60		1.111e-02		-86.106		6.347e-03		46.660
2		0.00		-3.20		1.126e-02		-44.234		5.438e-03		54.753
2		0.00		-2.80		9.604e-03		-4.305		7.063e-03		44.201
2		0.00		-2.40		7.935e-03		-3.523		6.713e-03		40.584
2		0.00		-2.00		6.868e-03		-9.946		5.256e-03		38.466
2		0.00		-1.60		5.886e-03		-8.963		4.163e-03		48.101
2		0.00		-1.20		5.086e-03		-20.547		3.561e-03		45.018
2		0.00		-0.80		4.053e-03		-31.176		3.180e-03		50.989
2		0.00		-0.40		3.067e-03		-49.680		2.447e-03		60.257
3		0.00		0.00		2.676e-03		-43.736		1.859e-03		70.249
3		0.00		0.40		2.460e-03		-7.806		1.217e-03		86.842
3		0.00		0.80		2.977e-03		16.612		1.671e-03		92.321
3		0.00		1.20		3.016e-03		38.174		1.515e-03		91.583
3		0.00		1.60		4.673e-03		42.323		2.479e-03		79.825
3		0.00		2.00		5.348e-03		53.183		3.337e-03		69.977
3		0.00		2.40		5.465e-03		46.261		3.490e-03		80.186
3		0.00		2.80		6.024e-03		51.017		3.414e-03		78.307
3		0.00		3.20		7.078e-03		49.794		4.071e-03		69.439
3		0.00		3.60		7.787e-03		52.167		4.160e-03		72.415
3		0.00		4.00		8.651e-03		56.266		4.354e-03		82.745
3		0.00		4.40		9.131e-03		51.663		4.349e-03		97.651
3		0.00		4.80		8.130e-03		22.609		4.201e-03		99.967
3		0.00		5.20		7.814e-03		-9.029		4.222e-03		110.343
3		0.00		5.60		8.077e-03		-18.675		4.116e-03		105.126
3		0.00		6.00		8.535e-03		-0.897		4.652e-03		108.995
3		0.00		6.40		8.667e-03		-5.305		4.711e-03		111.765
3		0.00		6.80		9.107e-03		15.872		4.742e-03		108.315
3		0.00		7.20		9.231e-03		31.807		4.752e-03		110.106
3		0.00		7.60		1.013e-02		26.703		5.460e-03		93.979
3		0.00		8.00		1.213e-02		13.284		7.283e-03		75.750
3		0.00		8.40		1.227e-02		18.915		8.005e-03		77.520
3		0.00		8.80		1.495e-02		40.329		1.037e-02		80.786
3		0.00		9.20		1.435e-02		43.744		8.862e-03		76.802
3		0.00		9.60		1.449e-02		57.250		8.512e-03		75.116
3		0.00		10.00		1.532e-02		45.820		7.357e-03		88.815
3		0.00		9.60		1.675e-02		53.716		9.467e-03		78.788
3		0.00		9.20		1.402e-02		43.484		7.418e-03		82.302
3		0.00		8.80		1.650e-02		47.174		8.950e-03		91.500
3		0.00		8.40		1.439e-02		9.672		6.584e-03		112.761
3		0.00		8.00		1.193e-02		-13.930		6.147e-03		104.510
3		0.00		7.60		1.130e-02		-18.143		5.802e-03		106.234
3		0.00		7.20		1.074e-02		-6.966		5.850e-03		104.579
3		0.00		6.80		9.229e-03		1.831		4.640e-03		107.952
3		0.00		6.40		8.302e-03		-5.524		4.403e-03		106.382
3		0.00		6.00		7.760e-03		11.335		4.319e-03		104.977
3		0.00		5.60		7.846e-03		28.443		4.527e-03		90.515
3		0.00		5.20		7.421e-03		25.277		4.505e-03		82.085
3		0.00		4.80		7.786e-03		52.153		5.160e-03		82.805
3		0.00		4.40		6.498e-03		34.292		3.778e-03		72.566
3		0.00		4.00		6.145e-03		37.575		3.921e-03		77.062
3		0.00		3.60		5.194e-03		29.369		3.163e-03		89.854
3		0.00		3.20		4.573e-03		9.771		2.841e-03		89.063
3		0.00		2.80		5.042e-03		-19.767		2.757e-03		90.367
3		0.00		2.40		5.370e-03		-5.250		2.940e-03		101.287
3		0.00		2.00		4.535e-03		-37.941		3.452e-03		72.233
3		0.00		1.60		4.671e-03		-53.280		3.392e-03		79.871
3		0.00		1.20		4.664e-03		-58.349		3.595e-03		67.788
3		0.00		0.80		7.109e-03		-43.418		6.774e-03		48.895
3		0.00		0.40		8.128e-03		-24.838		7.103e-03		40.743
3		0.00		0.00		9.523e-03		-31.109		7.509e-03		43.450
3		0.00		-0.40		1.167e-02		-15.355		8.587e-03		46.626
3		0.00		-0.80		1.385e-02		-20.256		9.946e-03		46.049
3		0.00		-1.20		1.428e-02		-35.619		1.032e-02		48.144
3		0.00		-1.60		1.531e-02		-42.965		1.119e-02		48.085
3		0.00		-2.00		1.627e-02		-41.984		1.232e-02		57.764
3		0.00		-2.40		1.754e-02		-40.138		1.347e-02		54.393
3		0.00		-2.80		1.818e-02		-38.076		1.318e-02		53.033
3		0.00		-3.20		1.880e-02		-29.401		1.298e-02		48.739
3		0.00		-3.60		1.766e-02		-52.142		1.074e-02		55.640
3		0.00		-4.00		1.878e-02		-53.978		1.107e-02		54.862
3		0.00		-4.40		1.967e-02		-20.170		1.285e-02		51.267
3		0.00		-4.80		2.172e-02		-19.841		1.312e-02		41.951
3		0.00		-5.20		2.359e-02		-13.612		1.397e-02		37.751
3		0.00		-5.60		2.184e-02		-19.970		1.330e-02		42.154
3		0.00		-6.00		2.251e-02		-21.353		1.533e-02		44.138
3		0.00		-6.40		2.359e-02		-16.719		1.821e-02		41.864
3		0.00		-6.80		2.156e-02		-40.481		1.515e-02		66.368
3		0.00		-7.20		2.064e-02		-34.522		1.507e-02		76.731
3		0.00		-7.60		2.554e-02		-42.207		2.226e-02		56.249
3		0.00		-8.00		2.379e-02		-39.449		1.871e-02		67.768
3		0.00		-8.40		2.137e-02		-39.614		1.445e-02		71.963
3		0.00		-8.80		2.034e-02		-46.288		1.133e-02		64.240
3		0.00		-9.20		2.237e-02		-54.640		1.055e-02		47.254
3		0.00		-9.60		2.204e-02		-65.435		1.246e-02		46.714
3		0.00		-10.00		1.664e-02		-50.141		1.023e-02		63.221
3		0.00		-9.60		2.138e-02		-2.918		1.337e-02		36.851
3		0.00		-9.20		2.235e-02		-0.275		1.404e-02		34.179
3		0.00		-8.80		2.196e-02		-3.647		1.416e-02		34.331
3		0.00		-8.40		2.129e-02		-25.484		1.452e-02		43.155
3		0.00		-8.00		2.275e-02		-30.531		1.661e-02		44.392
3		0.00		-7.60		2.176e-02		-32.450		1.712e-02		53.814
3		0.00		-7.20		2.028e-02		-55.722		1.416e-02		63.378
3		0.00		-6.80		2.155e-02		-53.601		1.614e-02		61.139
3		0.00		-6.40		2.007e-02		-46.128		1.502e-02		55.556
3		0.00		-6.00		1.987e-02		-31.270		1.455e-02		60.977
3		0.00		-5.60		1.726e-02		-42.779		1.006e-02		51.716
3		0.00		-5.20		1.482e-02		-71.754		8.889e-03		56.560
3		0.00		-4.80		1.601e-02		-86.652		8.797e-03		41.381
3		0.00		-4.40		1.546e-02		-86.757		8.986e-03		42.266
3		0.00		-4.00		1.490e-02		-35.188		1.101e-02		51.636
3		0.00		-3.60		1.187e-02		-8.571		8.740e-03		36.059
3		0.00		-3.20		1.065e-02		-16.761		6.864e-03		42.214
3		0.00		-2.80		9.981e-03		-21.751		7.079e-03		44.442
3		0.00		-2.40		9.797e-03		-42.701		7.370e-03		46.197
3		0.00		-2.00		8.411e-03		-57.695		6.528e-03		54.418
3		0.00		-1.60		8.045e-03		-48.199		5.971e-03		47.043
3		0.00		-1.20		6.428e-03		-44.472		4.778e-03		50.238
3		0.00		-0.80		5.010e-03		-31.254		3.507e-03		46.861
3		0.00		-0.40		3.064e-03		-50.169		1.901e-03		59.236
4		0.00		0.00		2.642e-03		-32.693		1.546e-03		72.446
4		0.00		0.40		2.785e-03		-7.218		1.569e-03		86.684
4		0.00		0.80		3.285e-03		-10.111		1.612e-03		97.746
4		0.00		1.20		3.277e-03		-21.464		1.649e-03		96.528
4		0.00		1.60		3.326e-03		-13.146		1.663e-03		97.909
4		0.00		2.00		3.618e-03		-10.352		1.780e-03		100.691
4		0.00		2.40		4.021e-03		-1.596		2.083e-03		102.751
4		0.00		2.80		4.764e-03		16.817		2.316e-03		103.232
4		0.00		3.20		5.264e-03		29.136		2.681e-03		98.247
4		0.00		3.60		6.566e-03		28.059		3.856e-03		80.588
4		0.00		4.00		6.733e-03		21.726		3.823e-03		71.599
4		0.00		4.40		8.683e-03		65.077		5.823e-03		81.144
4		0.00		4.80		8.126e-03		49.212		4.491e-03		74.488
4		0.00		5.20		9.137e-03		48.977		5.131e-03		78.660
4		0.00		5.60		1.061e-02		65.787		5.477e-03		72.038
4		0.00		6.00		1.082e-02		65.381		6.641e-03		50.588
4		0.00		6.40		1.137e-02		76.777		9.106e-03		43.422
4		0.00		6.80		1.407e-02		53.987		5.889e-03		101.923
4		0.00		7.20		1.132e-02		-8.400		6.065e-03		114.603
4		0.00		7.60		1.132e-02		-9.260		6.195e-03		109.106
4		0.00		8.00		1.161e-02		-19.069		6.016e-03		106.334
4		0.00		8.40		1.171e-02		-31.128		6.252e-03		108.452
4		0.00		8.80		1.173e-02		-34.144		5.682e-03		103.580
4		0.00		9.20		1.152e-02		-18.228		6.343e-03		106.306
4		0.00		9.60		1.164e-02		-5.322		6.904e-03		105.306
4		0.00		10.00		1.104e-02		13.387		6.718e-03		99.727
4		0.00		9.60		1.124e-02		13.856		7.244e-03		92.681
4		0.00		9.20		1.104e-02		4.951		5.480e-03		80.917
4		0.00		8.80		1.099e-02		9.287		5.599e-03		77.406
4		0.00		8.40		1.187e-02		16.715		7.320e-03		76.787
4		0.00		8.00		1.220e-02		24.730		7.808e-03		69.042
4		0.00		7.60		1.194e-02		45.683		8.073e-03		80.425
4		0.00		7.20		1.245e-02		43.327		7.297e-03		74.075
4		0.00		6.80		1.222e-02		47.160		7.169e-03		70.544
4		0.00		6.40		1.125e-02		35.926		6.235e-03		79.544
4		0.00		6.00		1.118e-02		61.085		5.772e-03		81.680
4		0.00		5.60		1.177e-02		71.487		5.910e-03		73.133
4		0.00		5.20		1.070e-02		66.250		5.601e-03		76.843
4		0.00		4.80		8.735e-03		73.146		6.427e-03		65.330
4		0.00		4.40		9.220e-03		35.328		5.255e-03		97.289
4		0.00		4.00		7.735e-03		-1.084		4.346e-03		111.972
4		0.00		3.60		5.813e-03		-47.437		3.191e-03		94.850
4		0.00		3.20		4.798e-03		-65.819		2.311e-03		82.057
4		0.00		2.80		3.864e-03		-63.191		2.084e-03		73.135
4		0.00		2.40		4.232e-03		-67.781		2.523e-03		63.630
4		0.00		2.00		4.689e-03		-72.143		2.943e-03		50.567
4		0.00		1.60		5.497e-03		-78.274		3.649e-03		45.123
4		0.00		1.20		6.296e-03		-62.498		4.430e-03		47.284
4		0.00		0.80		7.344e-03		-58.340		5.586e-03		43.646
4		0.00		0.40		8.902e-03		-49.941		6.587e-03		53.269
4		0.00		0.00		1.026e-02		-50.341		7.814e-03		51.655
4		0.00		-0.40		1.232e-02		-42.854		9.223e-03		51.424
4		0.00		-0.80		1.325e-02		-56.015		1.029e-02		45.536
4		0.00		-1.20		1.445e-02		-45.905		1.120e-02		53.248
4		0.00		-1.60		1.642e-02		-55.236		1.231e-02		54.274
4		0.00		-2.00		1.786e-02		-44.676		1.342e-02		51.874
4		0.00		-2.40		1.877e-02		-34.152		1.347e-02		55.846
4		0.00		-2.80		1.917e-02		-29.499		1.301e-02		58.727
4		0.00		-3.20		1.884e-02		-32.326		1.276e-02		59.164
4		0.00		-3.60		1.834e-02		-31.363		1.177e-02		60.182
4		0.00		-4.00		1.712e-02		-55.433		1.004e-02		57.659
4		0.00		-4.40		1.841e-02		-55.595		9.499e-03		59.619
4		0.00		-4.80		2.124e-02		-70.273		1.148e-02		51.036
4		0.00		-5.20		2.146e-02		-64.140		1.057e-02		52.374
4		0.00		-5.60		2.367e-02		-55.067		1.109e-02		50.740
4		0.00		-6.00		2.218e-02		3.322		1.405e-02		46.689
4		0.00		-6.40		2.341e-02		-5.595		1.533e-02		40.197
4		0.00		-6.80		2.412e-02		-7.839		1.532e-02		40.293
4		0.00		-7.20		2.554e-02		-3.165		1.619e-02		38.093
4		0.00		-7.60		2.829e-02		-7.095		1.837e-02		36.184
4		0.00		-8.00		2.747e-02		-5.035		1.724e-02		36.928
4		0.00		-8.40		2.601e-02		-7.778		1.564e-02		37.115
4		0.00		-8.80		2.353e-02		-6.681		1.436e-02		38.976
4		0.00		-9.20		2.212e-02		-13.287		1.308e-02		43.408
4		0.00		-9.60		1.976e-02		-10.138		1.152e-02		41.807
4		0.00		-10.00		1.739e-02		-4.575		1.174e-02		39.939
4		0.00		-9.60		1.942e-02		-4.000		1.299e-02		39.060
4		0.00		-9.20		1.988e-02		-12.907		1.361e-02		40.382
4		0.00		-8.80		2.053e-02		-13.368		1.382e-02		42.234
4		0.00		-8.40		2.117e-02		-14.393		1.473e-02		41.981
4		0.00		-8.00		2.135e-02		-16.067		1.571e-02		42.391
4		0.00		-7.60		2.093e-02		-21.426		1.536e-02		48.590
4		0.00		-7.20		1.960e-02		-26.441		1.420e-02		51.661
4		0.00		-6.80		1.888e-02		-34.216		1.434e-02		53.574
4		0.00		-6.40		1.866e-02		-32.393		1.399e-02		50.323
4		0.00		-6.00		1.765e-02		-35.917		1.325e-02		55.866
4		0.00		-5.60		1.539e-02		-42.808		1.145e-02		60.840
4		0.00		-5.20		1.693e-02		-40.220		1.323e-02		51.847
4		0.00		-4.80		1.466e-02		-56.986		1.101e-02		56.522
4		0.00		-4.40		1.370e-02		-48.023		1.043e-02		56.911
4		0.00		-4.00		1.324e-02		-48.016		1.043e-02		57.213
4		0.00		-3.60		1.194e-02		-50.790		8.952e-03		57.449
4		0.00		-3.20		1.139e-02		-47.322		8.714e-03		51.090
4		0.00		-2.80		1.076e-02		-31.223		8.582e-03		49.760
4		0.00		-2.40		9.740e-03		-37.227		7.373e-03		45.952
4		0.00		-2.00		8.111e-03		-40.207		6.272e-03		47.719
4		0.00		-1.60		7.236e-03		-33.174		5.746e-03		49.687
4		0.00		-1.20		5.871e-03		-39.309		4.685e-03		49.009
4		0.00		-0.80		4.811e-03		-41.518		3.768e-03		51.759
4		0.00		-0.40		3.215e-03		-58.430		2.198e-03		57.980
5		0.00		0.00		2.774e-03		-50.889		1.652e-03		73.219
5		0.00		0.40		2.812e-03		-28.948		1.135e-03		90.106
5		0.00		0.80		3.124e-03		19.043		1.958e-03		84.636
5		0.00		1.20		3.713e-03		3.562		2.153e-03		100.163
5		0.00		1.60		3.873e-03		20.068		2.123e-03		97.772
5		0.00		2.00		4.235e-03		37.645		2.493e-03		102.837
5		0.00		2.40		4.466e-03		16.888		2.337e-03		106.798
5		0.00		2.80		5.352e-03		22.662		2.824e-03		101.900
5		0.00		3.20		5.781e-03		27.601		2.891e-03		103.691
5		0.00		3.60		6.725e-03		19.144		3.727e-03		100.784
5		0.00		4.00		6.723e-03		21.304		3.509e-03		101.168
5		0.00		4.40		7.180e-03		8.177		3.993e-03		106.758
5		0.00		4.80		7.552e-03		11.295		3.942e-03		109.702
5		0.00		5.20		8.268e-03		17.628		4.566e-03		107.367
5		0.00		5.60		8.669e-03		18.500		4.524e-03		106.616
5		0.00		6.00		9.069e-03		15.361		5.156e-03		109.032
5		0.00		6.40		8.844e-03		11.203		5.065e-03		103.081
5		0.00		6.80		9.370e-03		3.562		5.414e-03		102.940
5		0.00		7.20		9.777e-03		10.514		5.972e-03		106.224
5		0.00		7.60		9.966e-03		8.717		6.051e-03		110.497
5		0.00		8.00		1.027e-02		17.441		6.068e-03		107.365
5		0.00		8.40		1.024e-02		19.401		6.109e-03		108.576
5		0.00		8.80		1.154e-02		20.710		6.892e-03		105.188
5		0.00		9.20		1.112e-02		22.970		7.343e-03		99.351
5		0.00		9.60		1.175e-02		21.513		7.950e-03		98.716
5		0.00		10.00		1.169e-02		20.016		7.413e-03		90.826
5		0.00		9.60		1.167e-02		24.828		7.162e-03		96.728
5		0.00		9.20		1.169e-02		25.973		6.733e-03		100.039
5		0.00		8.80		1.123e-02		24.471		6.447e-03		101.769
5		0.00		8.40		1.116e-02		29.873		6.652e-03		100.771
5		0.00		8.00		1.112e-02		24.281		6.085e-03		100.117
5		0.00		7.60		1.085e-02		36.868		6.089e-03		99.455
5		0.00		7.20		1.031e-02		29.939		6.226e-03		99.778
5		0.00		6.80		9.367e-03		31.308		5.199e-03		98.771
5		0.00		6.40		8.823e-03		20.781		5.425e-03		104.556
5		0.00		6.00		8.185e-03		25.710		3.984e-03		98.400
5		0.00		5.60		7.355e-03		19.952		3.787e-03		101.385
5		0.00		5.20		6.763e-03		12.078		3.409e-03		106.871
5		0.00		4.80		5.934e-03		16.378		2.681e-03		104.997
5		0.00		4.40		5.080e-03		3.307		2.566e-03		112.518
5		0.00		4.00		5.264e-03		0.601		3.083e-03		102.424
5		0.00		3.60		4.324e-03		-18.641		3.016e-03		99.252
5		0.00		3.20		4.350e-03		-41.501		2.400e-03		95.387
5		0.00		2.80		4.206e-03		-46.336		2.379e-03		78.431
5		0.00		2.40		4.698e-03		-38.824		2.883e-03		86.060
5		0.00		2.00		4.997e-03		-55.932		2.565e-03		73.040
5		0.00		1.60		5.352e-03		-58.107		3.180e-03		69.223
5		0.00		1.20		6.474e-03		-63.715		4.616e-03		48.751
5		0.00		0.80		7.453e-03		-52.988		5.301e-03		47.582
5		0.00		0.40		9.265e-03		-41.929		6.159e-03		40.525
5		0.00		0.00		1.100e-02		-35.160		7.476e-03		47.458
5		0.00		-0.40		1.274e-02		-28.422		8.437e-03		44.101
5		0.00		-0.80		1.431e-02		-21.452		9.607e-03		44.036
5		0.00		-1.20		1.514e-02		-19.164		1.023e-02		43.811
5		0.00		-1.60		1.578e-02		-16.180		1.081e-02		42.688
5		0.00		-2.00		1.656e-02		-16.381		1.123e-02		42.404
5		0.00		-2.40		1.705e-02		-16.073		1.177e-02		41.174
5		0.00		-2.80		1.820e-02		-17.761		1.237e-02		41.876
5		0.00		-3.20		1.856e-02		-16.310		1.247e-02		40.350
5		0.00		-3.60		1.845e-02		-13.310		1.260e-02		39.798
5		0.00		-4.00		1.903e-02		-15.500		1.300e-02		42.969
5		0.00		-4.40		2.037e-02		-18.593		1.422e-02		42.521
5		0.00		-4.80		2.096e-02		-16.781		1.456e-02		41.532
5		0.00		-5.20		2.164e-02		-16.898		1.463e-02		40.771
5		0.00		-5.60		2.220e-02		-20.968		1.553e-02		45.033
5		0.00		-6.00		2.339e-02		-14.637		1.593e-02		42.156
5		0.00		-6.40		2.431e-02		-14.589		1.633e-02		40.777
5		0.00		-6.80		2.668e-02		-9.592		1.756e-02		40.618
5		0.00		-7.20		2.719e-02		-13.516		1.833e-02		37.247
5		0.00		-7.60		2.801e-02		-15.000		1.883e-02		39.227
5		0.00		-8.00		2.784e-02		-9.913		1.783e-02		37.665
5		0.00		-8.40		2.693e-02		-4.901		1.752e-02		37.568
5		0.00		-8.80		2.598e-02		-5.210		1.680e-02		38.979
5		0.00		-9.20		2.356e-02		0.429		1.462e-02		41.987
5		0.00		-9.60		2.110e-02		-0.055		1.310e-02		41.146
5		0.00		-10.00		1.815e-02		6.572		1.108e-02		40.573
5		0.00		-9.60		2.014e-02		6.039		1.227e-02		41.548
5		0.00		-9.20		2.130e-02		-1.167		1.305e-02		42.412
5		0.00		-8.80		2.152e-02		4.837		1.285e-02		41.483
5		0.00		-8.40		2.202e-02		-2.964		1.299e-02		45.451
5		0.00		-8.00		2.202e-02		-15.955		1.181e-02		49.308
5		0.00		-7.60		2.201e-02		-5.126		1.420e-02		44.719
5		0.00		-7.20		2.133e-02		-36.667		1.143e-02		53.834
5		0.00		-6.80		2.045e-02		-51.328		1.047e-02		54.967
5		0.00		-6.40		1.765e-02		-54.794		8.401e-03		63.284
5		0.00		-6.00		1.724e-02		-57.582		8.314e-03		51.170
5		0.00		-5.60		1.555e-02		-52.304		8.061e-03		63.976
5		0.00		-5.20		1.532e-02		-48.190		8.489e-03		50.901
5		0.00		-4.80		1.404e-02		-51.305		8.657e-03		66.175
5		0.00		-4.40		1.088e-02		-82.169		6.536e-03		60.164
5		0.00		-4.00		1.241e-02		-60.036		7.719e-03		62.884
5		0.00		-3.60		1.331e-02		-34.117		8.913e-03		52.284
5		0.00		-3.20		1.221e-02		-30.617		8.498e-03		50.036
5		0.00		-2.80		1.059e-02		-29.192		7.250e-03		54.195
5		0.00		-2.40		9.400e-03		-34.388		6.687e-03		54.219
5		0.00		-2.00		8.122e-03		-27.115		5.906e-03		56.349
5		0.00		-1.60		7.428e-03		-22.300		5.406e-03		52.201
5		0.00		-1.20		6.076e-03		-27.618		4.734e-03		52.805
5		0.00		-0.80		4.845e-03		-34.426		3.635e-03		45.289
5		0.00		-0.40		3.637e-03		-36.495		2.727e-03		65.187
6		0.00		0.00		2.857e-03		-31.210		2.082e-03		65.558
6		0.00		0.40		2.581e-03		-41.764		1.189e-03		76.727
6		0.00		0.80		2.802e-03		2.679		2.033e-03		84.480
6		0.00		1.20		3.552e-03		39.137		2.806e-03		83.950
6		0.00		1.60		3.848e-03		34.210		2.296e-03		89.313
6		0.00		2.00		4.563e-03		33.207		2.687e-03		96.065
6		0.00		2.40		5.318e-03		38.636		2.840e-03		95.903
6		0.00		2.80		6.250e-03		50.146		3.556e-03		97.934
6		0.00		3.20		7.692e-03		49.380		4.646e-03		92.014
6		0.00		3.60		8.557e-03		55.571		4.941e-03		87.907
6		0.00		4.00		9.129e-03		45.771		5.190e-03		84.096
6		0.00		4.40		9.203e-03		43.466		5.343e-03		87.518
6		0.00		4.80		8.902e-03		37.672		5.319e-03		84.425
6		0.00		5.20		9.300e-03		40.394		6.335e-03		88.080
6		0.00		5.60		9.399e-03		40.917		5.961e-03		85.660
6		0.00		6.00		1.011e-02		41.110		6.733e-03		84.220
6		0.00		6.40		1.079e-02		31.862		7.213e-03		77.485
6		0.00		6.80		9.946e-03		17.715		6.377e-03		72.297
6		0.00		7.20		1.130e-02		35.908		6.990e-03		78.996
6		0.00		7.60		1.185e-02		43.890		8.355e-03		79.539
6		0.00		8.00		1.184e-02		40.774		7.649e-03		82.057
6		0.00		8.40		1.164e-02		29.754		7.663e-03		72.905
6		0.00		8.80		1.327e-02		35.492		8.827e-03		74.943
6		0.00		9.20		1.411e-02		36.643		9.390e-03		75.152
6		0.00		9.60		1.480e-02		30.352		9.749e-03		79.873
6		0.00		10.00		1.425e-02		23.937		9.106e-03		78.328
6		0.00		9.60		1.448e-02		25.466		8.958e-03		76.529
6		0.00		9.20		1.378e-02		21.546		8.461e-03		78.995
6		0.00		8.80		1.304e-02		36.812		8.142e-03		78.634
6		0.00		8.40		1.170e-02		19.582		7.131e-03		77.310
6		0.00		8.00		1.149e-02		29.074		7.343e-03		78.607
6		0.00		7.60		1.049e-02		19.040		6.922e-03		79.598
6		0.00		7.20		1.068e-02		32.905		6.423e-03		87.006
6		0.00		6.80		9.366e-03		30.013		5.955e-03		87.943
6		0.00		6.40		9.480e-03		32.465		5.650e-03		95.636
6		0.00		6.00		8.400e-03		34.518		4.212e-03		100.588
6		0.00		5.60		7.458e-03		30.208		3.911e-03		107.813
6		0.00		5.20		6.873e-03		34.661		3.471e-03		99.215
6		0.00		4.80		6.171e-03		16.723		2.861e-03		104.631
6		0.00		4.40		5.239e-03		14.479		2.562e-03		104.102
6		0.00		4.00		4.650e-03		2.145		2.306e-03		100.843
6		0.00		3.60		3.866e-03		-12.722		2.051e-03		103.265
6		0.00		3.20		3.621e-03		-50.351		1.813e-03		93.249
6		0.00		2.80		3.913e-03		-61.188		2.048e-03		79.837
6		0.00		2.40		4.288e-03		-66.145		2.536e-03		77.606
6		0.00		2.00		4.373e-03		-63.589		3.023e-03		77.564
6		0.00		1.60		5.233e-03		-66.236		4.000e-03		62.110
6		0.00		1.20		6.362e-03		-53.705		5.454e-03		55.585
6		0.00		0.80		7.851e-03		-58.418		6.345e-03		47.437
6		0.00		0.40		9.092e-03		-39.307		7.179e-03		54.953
6		0.00		0.00		1.059e-02		-40.791		8.521e-03		46.333
6		0.00		-0.40		1.195e-02		-33.007		9.531e-03		47.998
6		0.00		-0.80		1.342e-02		-31.277		1.017e-02		49.410
6		0.00		-1.20		1.472e-02		-31.706		1.127e-02		45.252
6		0.00		-1.60		1.624e-02		-34.924		1.247e-02		36.821
6		0.00		-2.00		1.683e-02		-30.583		1.256e-02		44.416
6		0.00		-2.40		1.733e-02		-34.665		1.248e-02		49.098
6		0.00		-2.80		1.802e-02		-34.917		1.334e-02		48.104
6		0.00		-3.20		1.914e-02		-32.216		1.415e-02		48.729
6		0.00		-3.60		1.980e-02		-37.103		1.384e-02		48.929
6		0.00		-4.00		2.024e-02		-41.741		1.393e-02		53.838
6		0.00		-4.40		2.168e-02		-39.304		1.536e-02		48.330
6		0.00		-4.80		2.203e-02		-35.601		1.507e-02		51.870
6		0.00		-5.20		2.294e-02		-38.686		1.657e-02		55.741
6		0.00		-5.60		2.285e-02		-38.019		1.616e-02		57.890
6		0.00		-6.00		2.168e-02		-40.311		1.609e-02		60.956
6		0.00		-6.40		2.207e-02		-41.679		1.652e-02		59.877
6		0.00		-6.80		2.400e-02		-44.516		1.812e-02		65.040
6		0.00		-7.20		2.285e-02		-45.315		1.752e-02		59.517
6		0.00		-7.60		2.294e-02		-38.955		1.685e-02		72.279
6		0.00		-8.00		2.298e-02		-31.151		1.769e-02		69.299
6		0.00		-8.40		2.113e-02		-32.343		1.572e-02		80.265
6		0.00		-8.80		1.982e-02		-36.156		1.365e-02		78.628
6		0.00		-9.20		1.970e-02		-39.715		1.422e-02		79.052
6		0.00		-9.60		1.621e-02		-31.474		1.096e-02		86.972
6		0.00		-10.00		1.506e-02		-31.818		1.010e-02		86.815
6		0.00		-9.60		1.709e-02		-37.266		1.166e-02		84.774
6		0.00		-9.20		1.870e-02		-36.824		1.217e-02		81.325
6		0.00		-8.80		2.167e-02		-42.780		1.513e-02		73.153
6		0.00		-8.40		2.206e-02		-46.348		1.529e-02		75.041
6		0.00		-8.00		2.329e-02		-39.165		1.643e-02		66.274
6		0.00		-7.60		2.465e-02		-50.053		1.700e-02		56.090
6		0.00		-7.20		2.351e-02		-41.848		1.628e-02		51.268
6		0.00		-6.80		2.354e-02		-46.515		1.594e-02		45.642
6		0.00		-6.40		2.169e-02		-42.678		1.497e-02		55.198
6		0.00		-6.00		2.099e-02		-41.498		1.457e-02		46.054
6		0.00		-5.60		2.018e-02		-35.896		1.365e-02		47.099
6		0.00		-5.20		1.854e-02		-39.823		1.218e-02		52.210
6		0.00		-4.80		1.689e-02		-28.449		1.130e-02		53.655
6		0.00		-4.40		1.553e-02		-34.519		1.066e-02		53.342
6		0.00		-4.00		1.419e-02		-33.611		9.928e-03		53.971
6		0.00		-3.60		1.275e-02		-30.376		8.985e-03		57.632
6		0.00		-3.20		1.203e-02		-29.191		8.226e-03		53.466
6		0.00		-2.80		1.010e-02		-41.266		6.755e-03		52.989
6		0.00		-2.40		9.129e-03		-33.396		6.210e-03		55.412
6		0.00		-2.00		8.223e-03		-35.318		5.610e-03		53.475
6		0.00		-1.60		6.792e-03		-25.111		4.823e-03		48.421
6		0.00		-1.20		4.874e-03		-40.200		3.095e-03		51.112
6		0.00		-0.80		3.999e-03		-37.590		2.658e-03		56.778
6		0.00		-0.40		3.236e-03		-49.721		2.125e-03		64.196
7		0.00		0.00		2.752e-03		-34.796		1.319e-03		85.966
7		0.00		0.40		2.983e-03		-14.773		1.528e-03		96.943
7		0.00		0.80		3.299e-03		2.021		1.738e-03		93.435
7		0.00		1.20		3.525e-03		25.238		2.441e-03		86.149
7		0.00		1.60		3.342e-03		42.870		3.507e-03		64.541
7		0.00		2.00		3.908e-03		52.368		4.410e-03		66.393
7		0.00		2.40		4.878e-03		65.370		4.356e-03		51.532
7		0.00		2.80		5.400e-03		53.652		5.386e-03		61.336
7		0.00		3.20		5.995e-03		53.479		4.355e-03		63.034
7		0.00		3.60		6.519e-03		59.491		6.352e-03		44.173
7		0.00		4.00		7.456e-03		33.782		4.264e-03		100.649
7		0.00		4.40		7.366e-03		16.268		4.515e-03		101.523
7		0.00		4.80		7.942e-03		5.278		4.230e-03		106.059
7		0.00		5.20		8.055e-03		-0.492		4.302e-03		112.015
7		0.00		5.60		8.731e-03		8.625		4.603e-03		113.641
7		0.00		6.00		9.117e-03		28.805		4.647e-03		111.245
7		0.00		6.40		9.764e-03		39.414		4.826e-03		107.961
7		0.00		6.80		9.813e-03		38.969		5.027e-03		94.819
7		0.00		7.20		1.039e-02		52.149		5.645e-03		88.208
7		0.00		7.60		1.186e-02		53.835		7.054e-03		85.558
7		0.00		8.00		1.200e-02		25.241		7.682e-03		76.298
7		0.00		8.40		1.353e-02		32.902		9.023e-03		74.630
7		0.00		8.80		1.441e-02		40.608		9.880e-03		77.560
7		0.00		9.20		1.370e-02		45.859		8.705e-03		72.661
7		0.00		9.60		1.412e-02		54.577		8.824e-03		72.832
7		0.00		10.00		1.373e-02		53.798		9.023e-03		67.161
7		0.00		9.60		1.460e-02		50.013		8.301e-03		86.060
7		0.00		9.20		1.094e-02		67.237		1.029e-02		32.964
7		0.00		8.80		1.306e-02		51.081		1.023e-02		78.087
7		0.00		8.40		1.157e-02		-16.315		5.944e-03		100.422
7		0.00		8.00		1.117e-02		2.210		6.222e-03		101.525
7		0.00		7.60		1.041e-02		1.788		5.943e-03		106.797
7		0.00		7.20		1.036e-02		14.423		5.636e-03		111.687
7		0.00		6.80		9.735e-03		2.540		5.479e-03		109.962
7		0.00		6.40		9.476e-03		15.633		4.896e-03		112.200
7		0.00		6.00		8.697e-03		20.132		4.316e-03		113.313
7		0.00		5.60		8.562e-03		28.459		4.719e-03		99.142
7		0.00		5.20		8.309e-03		35.676		5.081e-03		95.486
7		0.00		4.80		8.231e-03		37.859		5.221e-03		88.766
7		0.00		4.40		7.729e-03		43.943		5.411e-03		88.835
7		0.00		4.00		5.855e-03		22.302		4.217e-03		88.915
7		0.00		3.60		5.203e-03		17.785		3.519e-03		88.519
7		0.00		3.20		4.697e-03		4.945		3.450e-03		90.515
7		0.00		2.80		4.414e-03		-2.202		4.035e-03		84.991
7		0.00		2.40		4.588e-03		-15.439		3.795e-03		83.655
7		0.00		2.00		4.132e-03		-65.066		2.949e-03		54.831
7		0.00		1.60		4.717e-03		-63.994		3.592e-03		47.540
7		0.00		1.20		5.620e-03		-66.196		4.306e-03		45.149
7		0.00		0.80		7.241e-03		-51.734		5.512e-03		41.531
7		0.00		0.40		8.428e-03		-39.678		6.451e-03		49.041
7		0.00		0.00		1.011e-02		-42.014		7.586e-03		50.276
7		0.00		-0.40		1.178e-02		-40.083		8.673e-03		37.473
7		0.00		-0.80		1.300e-02		-33.200		9.345e-03		42.395
7		0.00		-1.20		1.371e-02		-31.148		9.542e-03		42.286
7		0.00		-1.60		1.462e-02		-26.072		1.050e-02		46.795
7		0.00		-2.00		1.593e-02		-12.608		1.205e-02		48.834
7		0.00		-2.40		1.743e-02		-21.207		1.371e-02		45.344
7		0.00		-2.80		1.742e-02		-17.941		1.282e-02		39.295
7		0.00		-3.20		1.875e-02		-17.711		1.256e-02		44.951
7		0.00		-3.60		2.127e-02		-15.061		1.373e-02		40.490
7		0.00		-4.00		2.117e-02		-30.799		1.380e-02		44.740
7		0.00		-4.40		2.117e-02		-42.420		1.456e-02		49.307
7		0.00		-4.80		2.117e-02		-41.743		1.560e-02		49.896
7		0.00		-5.20		2.189e-02		-39.536		1.582e-02		60.098
7		0.00		-5.60		2.231e-02		-35.316		1.480e-02		52.718
7		0.00		-6.00		2.040e-02		-43.352		1.299e-02		49.687
7		0.00		-6.40		2.231e-02		-30.035		1.398e-02		60.837
7		0.00		-6.80		2.383e-02		-2.693		1.552e-02		38.924
7		0.00		-7.20		2.466e-02		-12.582		1.604e-02		43.981
7		0.00		-7.60		2.521e-02		-19.955		1.646e-02		43.126
7		0.00		-8.00		2.409e-02		-21.450		1.733e-02		45.266
7		0.00		-8.40		2.378e-02		-37.655		1.684e-02		62.800
7		0.00		-8.80		2.423e-02		-35.424		1.794e-02		59.420
7		0.00		-9.20		2.291e-02		-42.327		1.649e-02		67.298
7		0.00		-9.60		2.136e-02		-32.551		1.432e-02		60.584
7		0.00		-10.00		1.741e-02		-47.866		9.197e-03		49.980
7		0.00		-9.60		2.005e-02		-47.122		9.976e-03		51.050
7		0.00		-9.20		2.335e-02		-15.490		1.272e-02		54.147
7		0.00		-8.80		2.404e-02		-11.935		1.557e-02		44.562
7		0.00		-8.40		2.535e-02		-16.008		1.743e-02		40.345
7		0.00		-8.00		2.413e-02		-25.236		1.729e-02		44.313
7		0.00		-7.60		2.363e-02		-33.394		1.741e-02		48.684
7		0.00		-7.20		2.137e-02		-48.860		1.545e-02		58.085
7		0.00		-6.80		2.066e-02		-39.436		1.592e-02		59.817
7		0.00		-6.40		1.961e-02		-33.858		1.350e-02		60.776
7		0.00		-6.00		1.840e-02		-34.578		1.154e-02		50.731
7		0.00		-5.60		1.654e-02		-57.887		9.799e-03		53.931
7		0.00		-5.20		1.636e-02		-4.919		9.974e-03		50.079
7		0.00		-4.80		1.594e-02		-13.449		1.082e-02		46.651
7		0.00		-4.40		1.505e-02		-15.900		1.044e-02		36.339
7		0.00		-4.00		1.557e-02		-15.434		1.068e-02		35.304
7		0.00		-3.60		1.389e-02		-20.171		9.911e-03		39.683
7		0.00		-3.20		1.310e-02		-36.298		9.609e-03		50.400
7		0.00		-2.80		1.179e-02		-40.448		8.227e-03		42.099
7		0.00		-2.40		9.888e-03		-28.429		6.631e-03		54.712
7		0.00		-2.00		7.388e-03		-44.645		4.285e-03		49.263
7		0.00		-1.60		5.738e-03		-58.747		3.017e-03		45.151
7		0.00		-1.20		5.741e-03		-20.825		4.376e-03		51.227
7		0.00		-0.80		4.622e-03		-15.485		3.493e-03		51.793
7		0.00		-0.40		3.561e-03		-38.405		2.421e-03		44.112
8		0.00		0.00		3.031e-03		-63.470		2.084e-03		53.883
8		0.00		0.40		2.645e-03		-40.444		1.654e-03		70.316
8		0.00		0.80		2.590e-03		0.874		1.829e-03		87.990
8		0.00		1.20		2.879e-03		6.275		2.066e-03		83.948
8		0.00		1.60		3.625e-03		16.129		2.293e-03		76.128
8		0.00		2.00		4.901e-03		36.131		3.778e-03		85.189
8		0.00		2.40		4.685e-03		55.923		4.404e-03		48.167
8		0.00		2.80		5.392e-03		59.634		4.809e-03		47.283
8		0.00		3.20		5.372e-03		65.810		4.810e-03		36.633
8		0.00		3.60		6.583e-03		26.814		3.405e-03		104.766
8		0.00		4.00		7.535e-03		38.603		4.135e-03		101.002
8		0.00		4.40		8.600e-03		40.350		5.226e-03		96.555
8		0.00		4.80		9.837e-03		46.834		6.054e-03		82.247
8		0.00		5.20		9.564e-03		40.472		5.199e-03		100.464
8		0.00		5.60		9.161e-03		9.030		4.515e-03		100.033
8		0.00		6.00		9.746e-03		22.243		4.976e-03		100.977
8		0.00		6.40		1.006e-02		15.317		6.082e-03		101.149
8		0.00		6.80		1.060e-02		20.460		6.231e-03		108.505
8		0.00		7.20		1.044e-02		22.514		6.155e-03		103.177
8		0.00		7.60		1.097e-02		32.422		6.799e-03		82.054
8		0.00		8.00		1.097e-02		21.585		7.009e-03		70.319
8		0.00		8.40		1.215e-02		43.790		8.488e-03		81.517
8		0.00		8.80		1.021e-02		40.282		7.518e-03		65.062
8		0.00		9.20		1.507e-02		63.513		9.514e-03		73.026
8		0.00		9.60		1.193e-02		68.054		1.146e-02		31.975
8		0.00		10.00		1.447e-02		2.687		8.971e-03		109.097
8		0.00		9.60		1.425e-02		8.661		8.957e-03		116.189
8		0.00		9.20		1.283e-02		34.594		7.939e-03		106.207
8		0.00		8.80		1.281e-02		21.921		7.418e-03		82.629
8		0.00		8.40		1.277e-02		34.204		7.778e-03		78.706
8		0.00		8.00		1.283e-02		32.900		8.144e-03		84.552
8		0.00		7.60		1.266e-02		52.383		7.567e-03		76.413
8		0.00		7.20		1.229e-02		45.207		6.729e-03		99.231
8		0.00		6.80		1.092e-02		51.362		8.991e-03		71.121
8		0.00		6.40		9.777e-03		12.098		5.681e-03		103.430
8		0.00		6.00		9.232e-03		14.968		5.434e-03		110.255
8		0.00		5.60		8.738e-03		1.305		4.322e-03		112.606
8		0.00		5.20		7.658e-03		14.269		3.538e-03		108.763
8		0.00		4.80		6.520e-03		25.760		2.984e-03		106.633
8		0.00		4.40		6.534e-03		38.112		3.669e-03		98.231
8		0.00		4.00		5.938e-03		30.782		4.121e-03		87.604
8		0.00		3.60		4.873e-03		28.859		3.281e-03		86.332
8		0.00		3.20		4.500e-03		4.201		2.856e-03		92.556
8		0.00		2.80		4.362e-03		22.828		4.562e-03		83.001
8		0.00		2.40		3.574e-03		-12.708		3.448e-03		92.188
8		0.00		2.00		4.402e-03		-46.807		3.493e-03		57.148
8		0.00		1.60		5.125e-03		-57.009		3.928e-03		51.112
8		0.00		1.20		6.023e-03		-43.579		4.873e-03		47.407
8		0.00		0.80		7.756e-03		-41.023		6.181e-03		45.527
8		0.00		0.40		9.192e-03		-37.136		6.849e-03		43.983
8		0.00		0.00		1.104e-02		-33.354		7.825e-03		38.346
8		0.00		-0.40		1.257e-02		-33.022		8.581e-03		36.019
8		0.00		-0.80		1.360e-02		-25.759		9.068e-03		39.297
8		0.00		-1.20		1.444e-02		-26.941		9.916e-03		46.087
8		0.00		-1.60		1.473e-02		-30.626		1.054e-02		40.364
8		0.00		-2.00		1.462e-02		-17.541		1.130e-02		47.404
8		0.00		-2.40		1.633e-02		-5.450		1.238e-02		49.128
8		0.00		-2.80		1.756e-02		-14.460		1.309e-02		49.729
8		0.00		-3.20		1.806e-02		-22.920		1.353e-02		42.687
8		0.00		-3.60		1.993e-02		-16.169		1.435e-02		40.109
8		0.00		-4.00		2.257e-02		-18.967		1.544e-02		36.534
8		0.00		-4.40		2.339e-02		-20.956		1.577e-02		35.070
8		0.00		-4.80		2.276e-02		-31.780		1.614e-02		41.768
8		0.00		-5.20		2.401e-02		-40.125		1.684e-02		46.861
8		0.00		-5.60		2.481e-02		-50.332		1.768e-02		57.468
8		0.00		-6.00		2.435e-02		-43.353		1.693e-02		57.957
8		0.00		-6.40		2.480e-02		-39.466		1.498e-02		49.251
8		0.00		-6.80		2.321e-02		-34.980		1.378e-02		49.732
8		0.00		-7.20		2.448e-02		-9.490		1.445e-02		50.664
8		0.00		-7.60		2.703e-02		-5.510		1.692e-02		36.311
8		0.00		-8.00		2.981e-02		-8.933		1.974e-02		39.047
8		0.00		-8.40		2.912e-02		-10.916		1.844e-02		40.388
8		0.00		-8.80		2.577e-02		-25.265		1.736e-02		47.584
8		0.00		-9.20		2.376e-02		-19.771		1.849e-02		44.958
8		0.00		-9.60		2.159e-02		-19.482		1.678e-02		52.180
8		0.00		-10.00		1.716e-02		-30.477		1.227e-02		74.234
8		0.00		-9.60		2.127e-02		-37.747		1.621e-02		63.197
8		0.00		-9.20		2.206e-02		-41.756		1.721e-02		63.891
8		0.00		-8.80		2.111e-02		-55.478		1.445e-02		61.739
8		0.00		-8.40		2.437e-02		-30.109		1.487e-02		45.772
8		0.00		-8.00		2.274e-02		-19.199		1.232e-02		53.700
8		0.00		-7.60		2.489e-02		-4.758		1.629e-02		48.175
8		0.00		-7.20		2.411e-02		-17.758		1.674e-02		42.619
8		0.00		-6.80		2.288e-02		-17.127		1.546e-02		41.868
8		0.00		-6.40		2.362e-02		-16.753		1.674e-02		36.600
8		0.00		-6.00		2.161e-02		-20.831		1.572e-02		41.471
8		0.00		-5.60		2.048e-02		-28.307		1.567e-02		40.210
8		0.00		-5.20		1.931e-02		-33.957		1.433e-02		51.912
8		0.00		-4.80		1.821e-02		-35.164		1.302e-02		57.580
8		0.00		-4.40		1.639e-02		-32.186		1.115e-02		49.737
8		0.00		-4.00		1.398e-02		-32.478		9.111e-03		47.660
8		0.00		-3.60		1.068e-02		-78.716		6.046e-03		47.486
8		0.00		-3.20		9.527e-03		-93.794		5.031e-03		38.904
8		0.00		-2.80		9.246e-03		-62.289		5.929e-03		54.134
8		0.00		-2.40		9.379e-03		-17.292		7.409e-03		45.864
8		0.00		-2.00		8.661e-03		-15.478		6.613e-03		38.164
8		0.00		-1.60		7.841e-03		-22.646		6.010e-03		38.003
8		0.00		-1.20		6.499e-03		-36.215		5.311e-03		40.286
8		0.00		-0.80		5.292e-03		-39.157		4.269e-03		55.644
8		0.00		-0.40		3.291e-03		-63.436		1.918e-03		65.516
