# Date of analysis: 2024-03-08 10;59
# Segment other properties: height: -57.14941764420621, diff height: 529.8097756284787, deflection: 34.346972941391094, deflection error: 3.2870947151856504, adhesion: 27.40013571579636, phase offset: 0
# 
# Loop index	Read Volt (V)	Write Volt (V)	Amplitude (a.u)	Phase (deg)	Sigma Amp (a.u)	Sigma Pha (deg)	
1		0.00		0.00		9.381e-03		-46.464		2.844e-03		20.977
1		0.00		0.40		5.737e-03		-43.345		2.087e-03		18.805
1		0.00		0.80		2.425e-03		0.948		1.074e-03		33.842
1		0.00		1.20		2.894e-03		78.477		1.132e-03		47.467
1		0.00		1.60		6.195e-03		113.973		1.803e-03		25.095
1		0.00		2.00		9.700e-03		123.520		2.685e-03		21.379
1		0.00		2.40		1.325e-02		122.134		3.475e-03		22.821
1		0.00		2.80		1.638e-02		120.106		4.676e-03		20.912
1		0.00		3.20		1.918e-02		119.699		5.761e-03		23.779
1		0.00		3.60		2.142e-02		119.999		6.705e-03		23.273
1		0.00		4.00		2.429e-02		121.760		7.444e-03		22.052
1		0.00		4.40		2.731e-02		123.191		8.124e-03		22.689
1		0.00		4.80		2.974e-02		123.236		8.939e-03		22.318
1		0.00		5.20		3.266e-02		124.613		1.009e-02		22.268
1		0.00		5.60		3.466e-02		123.043		1.087e-02		21.987
1		0.00		6.00		3.645e-02		121.561		1.176e-02		22.844
1		0.00		6.40		3.920e-02		122.874		1.254e-02		22.328
1		0.00		6.80		4.048e-02		122.536		1.386e-02		22.366
1		0.00		7.20		4.243e-02		123.103		1.477e-02		22.701
1		0.00		7.60		4.514e-02		122.905		1.600e-02		22.234
1		0.00		8.00		4.685e-02		122.885		1.666e-02		23.089
1		0.00		8.40		4.830e-02		123.177		1.778e-02		23.929
1		0.00		8.80		4.782e-02		121.869		1.913e-02		23.659
1		0.00		9.20		4.921e-02		120.337		2.059e-02		23.676
1		0.00		9.60		4.758e-02		120.545		2.004e-02		24.849
1		0.00		10.00		4.606e-02		120.373		1.959e-02		25.086
1		0.00		9.60		4.670e-02		119.315		1.884e-02		24.507
1		0.00		9.20		4.647e-02		120.781		1.804e-02		23.782
1		0.00		8.80		4.543e-02		122.399		1.663e-02		23.202
1		0.00		8.40		4.278e-02		124.397		1.552e-02		21.757
1		0.00		8.00		4.123e-02		123.697		1.429e-02		21.841
1		0.00		7.60		3.949e-02		123.971		1.303e-02		22.049
1		0.00		7.20		3.707e-02		124.211		1.175e-02		21.270
1		0.00		6.80		3.548e-02		124.220		1.067e-02		22.294
1		0.00		6.40		3.328e-02		127.060		9.762e-03		20.277
1		0.00		6.00		3.118e-02		123.369		9.074e-03		22.836
1		0.00		5.60		2.784e-02		124.333		8.010e-03		28.016
1		0.00		5.20		2.520e-02		122.781		7.110e-03		29.919
1		0.00		4.80		2.275e-02		126.909		6.183e-03		20.962
1		0.00		4.40		2.013e-02		126.485		5.601e-03		22.755
1		0.00		4.00		1.700e-02		127.696		4.474e-03		22.371
1		0.00		3.60		1.360e-02		123.335		3.490e-03		27.144
1		0.00		3.20		1.016e-02		125.972		2.636e-03		23.356
1		0.00		2.80		6.805e-03		121.251		1.922e-03		45.651
1		0.00		2.40		3.536e-03		104.044		1.363e-03		39.688
1		0.00		2.00		2.323e-03		13.435		9.978e-04		49.719
1		0.00		1.60		5.062e-03		-53.851		2.170e-03		27.970
1		0.00		1.20		8.818e-03		-51.125		3.164e-03		25.199
1		0.00		0.80		1.253e-02		-55.989		4.303e-03		19.061
1		0.00		0.40		1.671e-02		-54.777		4.974e-03		17.526
1		0.00		0.00		2.056e-02		-53.147		5.613e-03		17.577
1		0.00		-0.40		2.385e-02		-54.542		6.459e-03		18.108
1		0.00		-0.80		2.819e-02		-53.638		7.230e-03		18.098
1		0.00		-1.20		3.132e-02		-55.452		8.275e-03		17.910
1		0.00		-1.60		3.519e-02		-55.136		9.165e-03		18.161
1		0.00		-2.00		3.883e-02		-56.324		9.762e-03		16.992
1		0.00		-2.40		4.024e-02		-55.850		1.121e-02		18.841
1		0.00		-2.80		4.458e-02		-56.477		1.193e-02		17.775
1		0.00		-3.20		4.653e-02		-56.338		1.322e-02		18.941
1		0.00		-3.60		4.879e-02		-56.851		1.411e-02		19.679
1		0.00		-4.00		4.960e-02		-55.692		1.670e-02		19.193
1		0.00		-4.40		5.205e-02		-54.031		1.755e-02		19.325
1		0.00		-4.80		5.299e-02		-53.470		1.934e-02		25.772
1		0.00		-5.20		5.278e-02		-50.960		1.912e-02		29.821
1		0.00		-5.60		5.350e-02		-51.377		2.067e-02		28.598
1		0.00		-6.00		5.441e-02		-49.904		2.158e-02		32.189
1		0.00		-6.40		5.542e-02		-43.971		2.015e-02		29.719
1		0.00		-6.80		5.616e-02		-48.003		2.209e-02		30.104
1		0.00		-7.20		5.875e-02		-42.761		2.179e-02		30.688
1		0.00		-7.60		5.533e-02		-47.270		2.145e-02		31.317
1		0.00		-8.00		6.008e-02		-40.883		2.401e-02		29.573
1		0.00		-8.40		5.806e-02		-38.874		2.210e-02		27.958
1		0.00		-8.80		5.955e-02		-40.034		2.260e-02		29.516
1		0.00		-9.20		5.514e-02		-44.023		2.232e-02		26.020
1		0.00		-9.60		4.965e-02		-41.501		1.875e-02		26.057
1		0.00		-10.00		4.422e-02		-42.352		1.707e-02		24.918
1		0.00		-9.60		5.047e-02		-43.213		1.989e-02		25.449
1		0.00		-9.20		5.351e-02		-40.875		2.068e-02		24.548
1		0.00		-8.80		5.570e-02		-41.471		2.084e-02		26.150
1		0.00		-8.40		5.753e-02		-39.249		2.119e-02		27.512
1		0.00		-8.00		5.774e-02		-44.278		2.170e-02		28.907
1		0.00		-7.60		5.651e-02		-46.668		2.081e-02		27.449
1		0.00		-7.20		5.355e-02		-50.204		2.132e-02		31.782
1		0.00		-6.80		5.162e-02		-50.770		1.845e-02		28.839
1		0.00		-6.40		4.991e-02		-51.916		1.847e-02		26.342
1		0.00		-6.00		4.941e-02		-51.468		1.692e-02		26.347
1		0.00		-5.60		4.641e-02		-52.385		1.549e-02		25.847
1		0.00		-5.20		4.436e-02		-53.311		1.451e-02		21.801
1		0.00		-4.80		4.186e-02		-52.565		1.245e-02		20.876
1		0.00		-4.40		3.864e-02		-53.729		1.111e-02		19.579
1		0.00		-4.00		3.570e-02		-52.732		9.961e-03		19.948
1		0.00		-3.60		3.224e-02		-53.412		8.441e-03		18.306
1		0.00		-3.20		2.878e-02		-53.662		7.780e-03		16.790
1		0.00		-2.80		2.539e-02		-51.819		6.618e-03		17.568
1		0.00		-2.40		2.185e-02		-50.005		5.485e-03		17.343
1		0.00		-2.00		1.873e-02		-47.840		4.479e-03		17.717
1		0.00		-1.60		1.466e-02		-50.776		3.497e-03		17.087
1		0.00		-1.20		1.138e-02		-46.805		2.940e-03		21.134
1		0.00		-0.80		7.315e-03		-34.841		2.033e-03		24.274
1		0.00		-0.40		3.981e-03		-16.761		1.346e-03		31.661
2		0.00		0.00		2.085e-03		36.574		9.495e-04		54.201
2		0.00		0.40		4.523e-03		105.959		1.642e-03		34.603
2		0.00		0.80		8.068e-03		119.241		2.168e-03		18.799
2		0.00		1.20		1.108e-02		118.268		3.372e-03		25.587
2		0.00		1.60		1.440e-02		119.983		4.062e-03		20.109
2		0.00		2.00		1.752e-02		120.165		5.422e-03		22.805
2		0.00		2.40		2.035e-02		117.842		6.377e-03		26.142
2		0.00		2.80		2.325e-02		121.079		6.564e-03		29.817
2		0.00		3.20		2.598e-02		122.506		7.206e-03		24.646
2		0.00		3.60		2.883e-02		124.182		8.176e-03		23.195
2		0.00		4.00		3.085e-02		122.918		8.925e-03		29.730
2		0.00		4.40		3.309e-02		123.495		9.573e-03		26.669
2		0.00		4.80		3.444e-02		123.178		1.029e-02		33.378
2		0.00		5.20		3.699e-02		125.616		1.103e-02		25.133
2		0.00		5.60		3.898e-02		122.825		1.190e-02		31.789
2		0.00		6.00		4.030e-02		123.520		1.283e-02		31.090
2		0.00		6.40		4.359e-02		124.248		1.382e-02		30.053
2		0.00		6.80		4.447e-02		124.870		1.500e-02		28.616
2		0.00		7.20		4.530e-02		123.605		1.615e-02		27.309
2		0.00		7.60		4.653e-02		123.390		1.585e-02		26.249
2		0.00		8.00		4.701e-02		117.574		1.812e-02		33.778
2		0.00		8.40		4.923e-02		121.821		1.884e-02		27.118
2		0.00		8.80		5.111e-02		118.590		1.876e-02		31.916
2		0.00		9.20		5.184e-02		118.424		2.001e-02		28.915
2		0.00		9.60		4.904e-02		120.903		1.927e-02		28.326
2		0.00		10.00		4.748e-02		119.910		1.912e-02		30.823
2		0.00		9.60		5.099e-02		120.855		1.924e-02		26.401
2		0.00		9.20		5.297e-02		124.215		1.838e-02		23.134
2		0.00		8.80		4.934e-02		124.222		1.724e-02		24.104
2		0.00		8.40		4.860e-02		125.215		1.632e-02		24.002
2		0.00		8.00		4.583e-02		124.401		1.526e-02		23.328
2		0.00		7.60		4.347e-02		123.964		1.410e-02		23.122
2		0.00		7.20		4.211e-02		123.584		1.328e-02		22.757
2		0.00		6.80		3.894e-02		123.932		1.204e-02		22.658
2		0.00		6.40		3.650e-02		123.902		1.119e-02		22.560
2		0.00		6.00		3.418e-02		123.986		1.039e-02		22.369
2		0.00		5.60		3.116e-02		124.987		9.492e-03		21.454
2		0.00		5.20		2.793e-02		122.882		8.867e-03		22.834
2		0.00		4.80		2.501e-02		122.332		7.896e-03		23.204
2		0.00		4.40		2.211e-02		124.417		6.829e-03		23.354
2		0.00		4.00		1.888e-02		124.254		5.579e-03		23.157
2		0.00		3.60		1.590e-02		123.080		4.280e-03		23.860
2		0.00		3.20		1.284e-02		123.809		3.100e-03		22.432
2		0.00		2.80		9.016e-03		124.286		2.244e-03		22.396
2		0.00		2.40		5.876e-03		119.197		1.719e-03		24.574
2		0.00		2.00		2.997e-03		92.670		1.188e-03		46.370
2		0.00		1.60		2.885e-03		-39.376		1.400e-03		50.652
2		0.00		1.20		6.297e-03		-59.703		2.533e-03		29.679
2		0.00		0.80		9.957e-03		-57.047		3.264e-03		21.266
2		0.00		0.40		1.443e-02		-53.228		4.246e-03		18.579
2		0.00		0.00		1.834e-02		-54.577		5.076e-03		17.291
2		0.00		-0.40		2.207e-02		-55.585		5.989e-03		17.675
2		0.00		-0.80		2.613e-02		-55.125		6.594e-03		17.530
2		0.00		-1.20		2.904e-02		-54.754		7.798e-03		19.410
2		0.00		-1.60		3.291e-02		-55.371		8.539e-03		18.365
2		0.00		-2.00		3.662e-02		-55.815		9.506e-03		18.920
2		0.00		-2.40		3.974e-02		-55.508		1.039e-02		17.906
2		0.00		-2.80		4.290e-02		-56.440		1.155e-02		18.411
2		0.00		-3.20		4.547e-02		-57.108		1.242e-02		18.727
2		0.00		-3.60		4.782e-02		-55.606		1.300e-02		18.322
2		0.00		-4.00		5.043e-02		-56.038		1.415e-02		19.173
2		0.00		-4.40		5.383e-02		-54.951		1.549e-02		18.145
2		0.00		-4.80		5.552e-02		-53.280		1.670e-02		18.164
2		0.00		-5.20		5.680e-02		-56.353		1.853e-02		22.446
2		0.00		-5.60		5.824e-02		-54.737		1.901e-02		22.974
2		0.00		-6.00		5.880e-02		-52.414		1.934e-02		26.962
2		0.00		-6.40		5.853e-02		-49.205		1.843e-02		23.216
2		0.00		-6.80		5.916e-02		-49.079		1.867e-02		25.110
2		0.00		-7.20		6.084e-02		-46.405		1.848e-02		23.454
2		0.00		-7.60		6.288e-02		-42.047		2.065e-02		23.083
2		0.00		-8.00		6.274e-02		-40.851		2.269e-02		26.017
2		0.00		-8.40		6.393e-02		-41.839		2.234e-02		24.588
2		0.00		-8.80		6.045e-02		-40.143		2.112e-02		24.599
2		0.00		-9.20		5.837e-02		-36.981		2.023e-02		27.675
2		0.00		-9.60		5.275e-02		-41.487		1.982e-02		26.999
2		0.00		-10.00		4.726e-02		-42.441		1.869e-02		28.505
2		0.00		-9.60		5.233e-02		-43.457		2.017e-02		28.738
2		0.00		-9.20		5.803e-02		-43.974		2.294e-02		25.968
2		0.00		-8.80		5.944e-02		-48.591		2.298e-02		26.366
2		0.00		-8.40		6.169e-02		-51.519		2.308e-02		24.517
2		0.00		-8.00		6.225e-02		-52.229		2.150e-02		22.883
2		0.00		-7.60		5.990e-02		-54.162		2.054e-02		23.380
2		0.00		-7.20		5.952e-02		-54.514		2.009e-02		25.178
2		0.00		-6.80		5.757e-02		-55.038		1.828e-02		23.846
2		0.00		-6.40		5.502e-02		-53.953		1.635e-02		22.891
2		0.00		-6.00		5.346e-02		-54.312		1.510e-02		21.431
2		0.00		-5.60		5.010e-02		-52.595		1.388e-02		19.514
2		0.00		-5.20		4.707e-02		-54.302		1.246e-02		19.283
2		0.00		-4.80		4.300e-02		-54.951		1.129e-02		18.900
2		0.00		-4.40		3.936e-02		-54.314		9.860e-03		18.642
2		0.00		-4.00		3.629e-02		-55.958		8.818e-03		18.526
2		0.00		-3.60		3.250e-02		-54.850		7.724e-03		17.766
2		0.00		-3.20		2.892e-02		-54.292		6.679e-03		17.604
2		0.00		-2.80		2.557e-02		-52.284		5.881e-03		17.197
2		0.00		-2.40		2.247e-02		-52.555		4.917e-03		17.288
2		0.00		-2.00		1.847e-02		-47.537		4.290e-03		17.326
2		0.00		-1.60		1.433e-02		-47.710		3.215e-03		19.028
2		0.00		-1.20		1.058e-02		-45.653		2.673e-03		17.740
2		0.00		-0.80		6.482e-03		-43.363		1.789e-03		24.607
2		0.00		-0.40		2.992e-03		-12.445		1.152e-03		43.402
3		0.00		0.00		2.921e-03		75.589		1.221e-03		47.553
3		0.00		0.40		6.141e-03		116.956		1.662e-03		24.658
3		0.00		0.80		9.798e-03		116.114		2.537e-03		17.144
3		0.00		1.20		1.302e-02		121.784		3.212e-03		16.990
3		0.00		1.60		1.689e-02		123.415		4.159e-03		18.155
3		0.00		2.00		2.069e-02		123.453		4.973e-03		18.948
3		0.00		2.40		2.330e-02		121.856		5.527e-03		19.129
3		0.00		2.80		2.610e-02		124.213		6.609e-03		19.806
3		0.00		3.20		2.818e-02		124.867		7.565e-03		19.932
3		0.00		3.60		3.055e-02		125.004		8.241e-03		21.176
3		0.00		4.00		3.269e-02		125.939		8.808e-03		20.559
3		0.00		4.40		3.554e-02		125.519		9.756e-03		21.153
3		0.00		4.80		3.774e-02		122.978		1.055e-02		20.549
3		0.00		5.20		3.981e-02		125.072		1.161e-02		21.150
3		0.00		5.60		4.148e-02		124.303		1.267e-02		21.329
3		0.00		6.00		4.240e-02		124.370		1.386e-02		21.403
3		0.00		6.40		4.440e-02		124.737		1.455e-02		21.861
3		0.00		6.80		4.556e-02		125.562		1.515e-02		23.452
3		0.00		7.20		4.659e-02		124.187		1.555e-02		25.633
3		0.00		7.60		4.633e-02		120.728		1.764e-02		31.376
3		0.00		8.00		4.847e-02		120.978		1.886e-02		33.211
3		0.00		8.40		5.042e-02		113.806		2.021e-02		38.264
3		0.00		8.80		5.266e-02		116.296		2.126e-02		38.285
3		0.00		9.20		5.301e-02		114.356		2.138e-02		36.448
3		0.00		9.60		5.521e-02		121.414		2.134e-02		23.880
3		0.00		10.00		5.361e-02		122.217		2.008e-02		21.882
3		0.00		9.60		5.601e-02		121.065		2.109e-02		22.550
3		0.00		9.20		5.648e-02		122.822		2.006e-02		23.191
3		0.00		8.80		5.436e-02		123.937		1.880e-02		23.327
3		0.00		8.40		4.994e-02		121.789		1.771e-02		25.408
3		0.00		8.00		4.818e-02		122.838		1.609e-02		23.779
3		0.00		7.60		4.580e-02		124.788		1.452e-02		21.873
3		0.00		7.20		4.351e-02		125.399		1.328e-02		19.525
3		0.00		6.80		4.016e-02		125.284		1.215e-02		21.412
3		0.00		6.40		3.617e-02		126.413		1.100e-02		21.540
3		0.00		6.00		3.351e-02		124.322		1.046e-02		23.987
3		0.00		5.60		3.100e-02		123.622		9.748e-03		26.255
3		0.00		5.20		2.827e-02		124.037		8.755e-03		26.593
3		0.00		4.80		2.553e-02		125.268		7.487e-03		23.871
3		0.00		4.40		2.310e-02		125.570		6.629e-03		21.463
3		0.00		4.00		1.998e-02		125.697		5.632e-03		20.508
3		0.00		3.60		1.696e-02		125.727		4.454e-03		20.353
3		0.00		3.20		1.338e-02		124.534		3.634e-03		19.729
3		0.00		2.80		9.847e-03		124.108		2.761e-03		25.864
3		0.00		2.40		6.478e-03		123.939		1.757e-03		32.765
3		0.00		2.00		2.964e-03		92.027		1.249e-03		49.753
3		0.00		1.60		2.517e-03		-16.756		1.060e-03		48.876
3		0.00		1.20		6.173e-03		-61.687		2.479e-03		31.623
3		0.00		0.80		9.884e-03		-55.383		2.935e-03		23.620
3		0.00		0.40		1.410e-02		-53.471		3.684e-03		15.936
3		0.00		0.00		1.732e-02		-51.892		4.770e-03		16.745
3		0.00		-0.40		2.100e-02		-50.988		5.256e-03		18.339
3		0.00		-0.80		2.479e-02		-52.597		6.316e-03		17.066
3		0.00		-1.20		2.862e-02		-53.987		7.546e-03		18.074
3		0.00		-1.60		3.173e-02		-55.819		8.565e-03		19.472
3		0.00		-2.00		3.464e-02		-56.611		1.012e-02		20.286
3		0.00		-2.40		3.749e-02		-58.683		1.104e-02		21.096
3		0.00		-2.80		4.095e-02		-59.157		1.197e-02		21.763
3		0.00		-3.20		4.317e-02		-57.931		1.326e-02		19.754
3		0.00		-3.60		4.541e-02		-54.254		1.498e-02		23.763
3		0.00		-4.00		4.695e-02		-54.058		1.563e-02		24.684
3		0.00		-4.40		5.025e-02		-57.664		1.731e-02		24.251
3		0.00		-4.80		5.381e-02		-57.088		1.746e-02		21.282
3		0.00		-5.20		5.613e-02		-55.988		1.726e-02		22.941
3		0.00		-5.60		5.898e-02		-53.831		1.670e-02		19.757
3		0.00		-6.00		6.193e-02		-55.564		1.744e-02		18.658
3		0.00		-6.40		6.167e-02		-52.057		1.822e-02		19.221
3		0.00		-6.80		6.049e-02		-48.765		1.880e-02		26.212
3		0.00		-7.20		6.169e-02		-44.928		1.948e-02		26.754
3		0.00		-7.60		6.550e-02		-45.941		2.222e-02		25.849
3		0.00		-8.00		6.805e-02		-50.603		2.197e-02		19.715
3		0.00		-8.40		6.531e-02		-49.835		2.104e-02		24.351
3		0.00		-8.80		6.315e-02		-46.756		1.964e-02		19.829
3		0.00		-9.20		6.059e-02		-49.726		2.097e-02		23.017
3		0.00		-9.60		5.405e-02		-49.143		1.943e-02		22.351
3		0.00		-10.00		4.463e-02		-43.374		1.702e-02		22.034
3		0.00		-9.60		5.155e-02		-39.678		1.975e-02		22.343
3		0.00		-9.20		5.570e-02		-48.710		2.163e-02		24.131
3		0.00		-8.80		6.045e-02		-51.010		2.267e-02		22.291
3		0.00		-8.40		6.270e-02		-53.325		2.057e-02		21.676
3		0.00		-8.00		6.085e-02		-52.967		2.051e-02		23.434
3		0.00		-7.60		5.987e-02		-51.388		2.001e-02		22.229
3		0.00		-7.20		5.566e-02		-48.977		1.908e-02		27.074
3		0.00		-6.80		5.287e-02		-50.603		1.809e-02		25.360
3		0.00		-6.40		5.296e-02		-53.464		1.752e-02		23.133
3		0.00		-6.00		5.304e-02		-53.194		1.514e-02		20.634
3		0.00		-5.60		5.122e-02		-52.108		1.392e-02		19.620
3		0.00		-5.20		4.763e-02		-55.214		1.288e-02		19.151
3		0.00		-4.80		4.443e-02		-54.498		1.099e-02		16.951
3		0.00		-4.40		4.048e-02		-54.881		9.548e-03		17.433
3		0.00		-4.00		3.703e-02		-54.495		8.643e-03		16.837
3		0.00		-3.60		3.273e-02		-50.723		7.836e-03		15.200
3		0.00		-3.20		2.962e-02		-53.319		6.493e-03		18.253
3		0.00		-2.80		2.526e-02		-52.359		6.202e-03		17.649
3		0.00		-2.40		2.189e-02		-50.084		5.419e-03		16.895
3		0.00		-2.00		1.802e-02		-49.915		4.367e-03		17.436
3		0.00		-1.60		1.386e-02		-49.368		3.369e-03		19.179
3		0.00		-1.20		9.931e-03		-46.712		2.656e-03		20.387
3		0.00		-0.80		5.983e-03		-39.594		1.617e-03		22.723
3		0.00		-0.40		3.041e-03		-13.550		1.331e-03		34.928
4		0.00		0.00		2.314e-03		68.106		1.037e-03		46.720
4		0.00		0.40		5.595e-03		104.168		2.086e-03		34.065
4		0.00		0.80		9.334e-03		114.420		2.782e-03		22.833
4		0.00		1.20		1.314e-02		117.865		3.487e-03		21.763
4		0.00		1.60		1.626e-02		121.054		4.334e-03		20.864
4		0.00		2.00		1.959e-02		121.467		5.469e-03		20.722
4		0.00		2.40		2.245e-02		125.915		5.799e-03		19.372
4		0.00		2.80		2.557e-02		122.297		6.726e-03		28.226
4		0.00		3.20		2.855e-02		123.881		7.307e-03		20.651
4		0.00		3.60		3.086e-02		126.091		7.988e-03		21.017
4		0.00		4.00		3.265e-02		123.276		8.716e-03		20.759
4		0.00		4.40		3.521e-02		124.673		9.515e-03		19.326
4		0.00		4.80		3.655e-02		125.199		9.924e-03		19.072
4		0.00		5.20		3.864e-02		124.970		1.068e-02		24.624
4		0.00		5.60		4.131e-02		125.401		1.184e-02		27.206
4		0.00		6.00		4.506e-02		126.757		1.302e-02		19.428
4		0.00		6.40		4.673e-02		124.777		1.460e-02		20.439
4		0.00		6.80		4.881e-02		125.749		1.617e-02		21.528
4		0.00		7.20		5.004e-02		122.802		1.721e-02		25.219
4		0.00		7.60		5.156e-02		123.946		1.722e-02		21.504
4		0.00		8.00		5.104e-02		124.870		1.810e-02		23.109
4		0.00		8.40		5.163e-02		125.264		1.820e-02		28.991
4		0.00		8.80		5.180e-02		118.219		2.035e-02		31.798
4		0.00		9.20		5.394e-02		116.466		2.131e-02		37.126
4		0.00		9.60		5.580e-02		120.807		2.242e-02		27.762
4		0.00		10.00		5.390e-02		122.282		2.177e-02		25.081
4		0.00		9.60		5.601e-02		119.920		2.192e-02		25.290
4		0.00		9.20		5.607e-02		120.766		1.950e-02		24.310
4		0.00		8.80		5.340e-02		125.803		1.815e-02		24.207
4		0.00		8.40		5.085e-02		127.188		1.615e-02		21.663
4		0.00		8.00		4.734e-02		124.002		1.569e-02		31.906
4		0.00		7.60		4.533e-02		120.011		1.553e-02		38.646
4		0.00		7.20		4.382e-02		122.773		1.457e-02		24.624
4		0.00		6.80		4.150e-02		124.814		1.322e-02		22.245
4		0.00		6.40		3.946e-02		124.211		1.160e-02		22.141
4		0.00		6.00		3.607e-02		124.212		1.037e-02		20.248
4		0.00		5.60		3.335e-02		125.099		9.080e-03		21.320
4		0.00		5.20		2.964e-02		126.933		8.210e-03		22.521
4		0.00		4.80		2.634e-02		123.368		7.862e-03		28.650
4		0.00		4.40		2.376e-02		126.583		6.933e-03		24.381
4		0.00		4.00		2.080e-02		124.591		6.059e-03		26.904
4		0.00		3.60		1.753e-02		125.658		4.801e-03		21.789
4		0.00		3.20		1.411e-02		124.398		3.816e-03		21.529
4		0.00		2.80		1.048e-02		125.304		2.679e-03		20.705
4		0.00		2.40		6.842e-03		120.803		1.878e-03		19.828
4		0.00		2.00		3.264e-03		110.760		1.194e-03		46.303
4		0.00		1.60		2.087e-03		-27.307		1.021e-03		54.091
4		0.00		1.20		5.197e-03		-52.353		1.935e-03		23.256
4		0.00		0.80		8.944e-03		-58.010		3.062e-03		22.336
4		0.00		0.40		1.312e-02		-52.644		3.681e-03		18.353
4		0.00		0.00		1.701e-02		-54.336		4.717e-03		17.663
4		0.00		-0.40		2.103e-02		-54.319		5.415e-03		19.213
4		0.00		-0.80		2.448e-02		-53.774		6.590e-03		18.244
4		0.00		-1.20		2.846e-02		-53.451		6.980e-03		16.706
4		0.00		-1.60		3.194e-02		-53.020		8.069e-03		18.252
4		0.00		-2.00		3.524e-02		-53.899		8.948e-03		18.974
4		0.00		-2.40		3.809e-02		-54.834		9.937e-03		18.295
4		0.00		-2.80		4.189e-02		-56.306		1.088e-02		18.612
4		0.00		-3.20		4.433e-02		-56.388		1.158e-02		18.609
4		0.00		-3.60		4.684e-02		-56.415		1.356e-02		16.881
4		0.00		-4.00		4.865e-02		-54.008		1.439e-02		19.748
4		0.00		-4.40		5.247e-02		-58.483		1.601e-02		20.290
4		0.00		-4.80		5.694e-02		-56.539		1.722e-02		19.433
4		0.00		-5.20		5.768e-02		-55.728		1.824e-02		20.986
4		0.00		-5.60		6.033e-02		-54.498		1.919e-02		21.014
4		0.00		-6.00		6.147e-02		-50.029		1.834e-02		18.024
4		0.00		-6.40		5.931e-02		-49.417		2.015e-02		25.257
4		0.00		-6.80		6.193e-02		-46.154		2.002e-02		18.254
4		0.00		-7.20		6.752e-02		-52.775		2.275e-02		21.977
4		0.00		-7.60		6.595e-02		-46.875		1.971e-02		21.927
4		0.00		-8.00		6.773e-02		-53.997		2.238e-02		25.400
4		0.00		-8.40		6.643e-02		-50.056		2.195e-02		24.796
4		0.00		-8.80		6.099e-02		-46.903		2.209e-02		27.941
4		0.00		-9.20		5.945e-02		-39.634		2.015e-02		30.172
4		0.00		-9.60		5.604e-02		-44.430		1.878e-02		23.960
4		0.00		-10.00		4.990e-02		-49.518		1.729e-02		18.775
4		0.00		-9.60		5.702e-02		-50.846		1.905e-02		19.666
4		0.00		-9.20		5.995e-02		-47.733		1.909e-02		20.705
4		0.00		-8.80		6.072e-02		-45.822		1.897e-02		21.981
4		0.00		-8.40		5.881e-02		-47.034		1.995e-02		24.750
4		0.00		-8.00		6.221e-02		-45.085		2.156e-02		17.718
4		0.00		-7.60		6.204e-02		-52.128		2.141e-02		20.177
4		0.00		-7.20		6.069e-02		-51.757		1.969e-02		20.174
4		0.00		-6.80		5.689e-02		-54.394		1.882e-02		21.229
4		0.00		-6.40		5.343e-02		-52.220		1.704e-02		18.576
4		0.00		-6.00		5.065e-02		-50.215		1.510e-02		19.634
4		0.00		-5.60		4.565e-02		-49.850		1.532e-02		25.214
4		0.00		-5.20		4.426e-02		-54.522		1.424e-02		23.174
4		0.00		-4.80		4.118e-02		-55.637		1.235e-02		22.256
4		0.00		-4.40		3.823e-02		-56.649		1.043e-02		20.455
4		0.00		-4.00		3.463e-02		-57.479		8.761e-03		20.162
4		0.00		-3.60		3.156e-02		-55.233		7.254e-03		18.388
4		0.00		-3.20		2.801e-02		-54.163		6.783e-03		16.475
4		0.00		-2.80		2.445e-02		-51.379		5.636e-03		17.953
4		0.00		-2.40		2.078e-02		-49.123		4.959e-03		16.879
4		0.00		-2.00		1.709e-02		-48.127		4.014e-03		17.160
4		0.00		-1.60		1.315e-02		-45.455		3.180e-03		16.246
4		0.00		-1.20		9.704e-03		-42.610		2.154e-03		20.785
4		0.00		-0.80		5.544e-03		-36.384		1.484e-03		24.181
4		0.00		-0.40		2.599e-03		-22.305		1.046e-03		37.938
5		0.00		0.00		3.406e-03		88.908		1.147e-03		38.523
5		0.00		0.40		6.881e-03		113.771		1.961e-03		22.655
5		0.00		0.80		1.061e-02		120.552		2.675e-03		21.430
5		0.00		1.20		1.448e-02		121.456		3.215e-03		16.720
5		0.00		1.60		1.778e-02		125.010		4.070e-03		17.158
5		0.00		2.00		2.109e-02		124.414		5.141e-03		17.765
5		0.00		2.40		2.405e-02		124.993		6.359e-03		18.456
5		0.00		2.80		2.746e-02		124.417		6.877e-03		17.627
5		0.00		3.20		3.013e-02		126.937		7.009e-03		16.354
5		0.00		3.60		3.243e-02		125.636		7.862e-03		16.416
5		0.00		4.00		3.463e-02		127.571		8.863e-03		15.549
5		0.00		4.40		3.626e-02		125.871		9.826e-03		19.734
5		0.00		4.80		4.014e-02		127.415		1.033e-02		17.693
5		0.00		5.20		4.303e-02		126.556		1.106e-02		19.382
5		0.00		5.60		4.393e-02		126.548		1.146e-02		20.357
5		0.00		6.00		4.553e-02		124.803		1.245e-02		27.853
5		0.00		6.40		4.826e-02		125.905		1.401e-02		20.553
5		0.00		6.80		5.265e-02		125.963		1.544e-02		20.920
5		0.00		7.20		5.376e-02		125.779		1.540e-02		20.050
5		0.00		7.60		5.441e-02		127.860		1.476e-02		18.197
5		0.00		8.00		5.346e-02		127.869		1.576e-02		23.940
5		0.00		8.40		5.628e-02		125.358		1.764e-02		28.134
5		0.00		8.80		5.904e-02		126.753		1.891e-02		21.343
5		0.00		9.20		6.093e-02		123.996		2.032e-02		29.095
5		0.00		9.60		5.929e-02		119.615		2.188e-02		25.065
5		0.00		10.00		5.460e-02		125.558		1.951e-02		24.493
5		0.00		9.60		5.212e-02		119.132		2.064e-02		33.983
5		0.00		9.20		5.298e-02		116.175		2.135e-02		38.102
5		0.00		8.80		5.179e-02		118.808		1.950e-02		31.439
5		0.00		8.40		5.175e-02		123.134		1.877e-02		23.770
5		0.00		8.00		5.022e-02		121.926		1.653e-02		24.812
5		0.00		7.60		4.673e-02		124.532		1.413e-02		21.067
5		0.00		7.20		4.367e-02		125.196		1.302e-02		22.263
5		0.00		6.80		4.089e-02		124.264		1.164e-02		29.534
5		0.00		6.40		3.939e-02		125.485		1.094e-02		26.882
5		0.00		6.00		3.731e-02		125.574		9.880e-03		23.221
5		0.00		5.60		3.536e-02		128.113		7.962e-03		18.417
5		0.00		5.20		3.186e-02		127.357		7.463e-03		17.769
5		0.00		4.80		2.796e-02		125.705		6.961e-03		18.834
5		0.00		4.40		2.459e-02		128.055		5.229e-03		17.469
5		0.00		4.00		2.128e-02		127.967		4.454e-03		17.131
5		0.00		3.60		1.813e-02		131.042		3.884e-03		17.250
5		0.00		3.20		1.432e-02		127.523		3.209e-03		20.242
5		0.00		2.80		1.073e-02		126.686		2.718e-03		22.687
5		0.00		2.40		6.561e-03		122.176		1.682e-03		18.543
5		0.00		2.00		3.296e-03		101.434		1.199e-03		52.213
5		0.00		1.60		2.296e-03		-17.540		1.169e-03		48.700
5		0.00		1.20		6.015e-03		-52.108		2.096e-03		19.753
5		0.00		0.80		9.924e-03		-47.817		2.940e-03		22.247
5		0.00		0.40		1.394e-02		-51.549		3.867e-03		17.163
5		0.00		0.00		1.772e-02		-49.717		4.881e-03		18.369
5		0.00		-0.40		2.169e-02		-53.354		5.625e-03		16.376
5		0.00		-0.80		2.612e-02		-52.232		6.392e-03		15.821
5		0.00		-1.20		2.991e-02		-54.794		7.318e-03		16.515
5		0.00		-1.60		3.466e-02		-54.135		7.901e-03		14.276
5		0.00		-2.00		3.777e-02		-54.737		9.150e-03		16.710
5		0.00		-2.40		4.056e-02		-53.863		9.921e-03		15.828
5		0.00		-2.80		4.398e-02		-53.692		1.095e-02		15.906
5		0.00		-3.20		4.785e-02		-55.300		1.232e-02		17.274
5		0.00		-3.60		5.167e-02		-55.324		1.306e-02		16.768
5		0.00		-4.00		5.425e-02		-56.915		1.337e-02		16.521
5		0.00		-4.40		5.707e-02		-54.962		1.457e-02		18.130
5		0.00		-4.80		5.764e-02		-55.314		1.560e-02		17.860
5		0.00		-5.20		5.857e-02		-49.429		1.506e-02		15.109
5		0.00		-5.60		6.201e-02		-53.337		1.814e-02		21.570
5		0.00		-6.00		6.358e-02		-50.938		1.723e-02		17.792
5		0.00		-6.40		6.677e-02		-52.422		1.909e-02		18.566
5		0.00		-6.80		6.705e-02		-50.625		1.944e-02		18.834
5		0.00		-7.20		6.667e-02		-47.902		1.946e-02		20.901
5		0.00		-7.60		6.743e-02		-45.570		2.192e-02		21.578
5		0.00		-8.00		6.323e-02		-43.324		2.245e-02		27.110
5		0.00		-8.40		6.195e-02		-37.604		2.271e-02		26.146
5		0.00		-8.80		6.309e-02		-39.117		2.330e-02		22.651
5		0.00		-9.20		6.171e-02		-45.281		2.149e-02		23.563
5		0.00		-9.60		5.461e-02		-50.917		2.053e-02		24.599
5		0.00		-10.00		5.053e-02		-49.493		1.681e-02		19.858
5		0.00		-9.60		5.621e-02		-49.592		1.795e-02		18.654
5		0.00		-9.20		6.066e-02		-47.958		1.917e-02		18.528
5		0.00		-8.80		6.379e-02		-46.222		1.844e-02		22.696
5		0.00		-8.40		6.334e-02		-46.222		1.759e-02		22.219
5		0.00		-8.00		6.002e-02		-45.087		1.782e-02		25.886
5		0.00		-7.60		5.975e-02		-48.394		1.873e-02		24.234
5		0.00		-7.20		6.047e-02		-48.871		1.687e-02		20.109
5		0.00		-6.80		5.893e-02		-51.643		1.587e-02		20.902
5		0.00		-6.40		5.693e-02		-53.248		1.561e-02		21.529
5		0.00		-6.00		5.442e-02		-51.691		1.388e-02		18.260
5		0.00		-5.60		5.020e-02		-52.937		1.425e-02		18.927
5		0.00		-5.20		4.640e-02		-55.224		1.265e-02		19.223
5		0.00		-4.80		4.250e-02		-54.755		1.075e-02		17.892
5		0.00		-4.40		3.833e-02		-55.041		8.961e-03		18.180
5		0.00		-4.00		3.522e-02		-53.659		8.269e-03		17.862
5		0.00		-3.60		3.193e-02		-54.059		7.547e-03		16.199
5		0.00		-3.20		2.817e-02		-52.943		6.664e-03		16.112
5		0.00		-2.80		2.445e-02		-51.310		5.304e-03		14.151
5		0.00		-2.40		2.050e-02		-51.255		4.772e-03		17.155
5		0.00		-2.00		1.674e-02		-48.113		3.738e-03		16.136
5		0.00		-1.60		1.295e-02		-44.233		3.067e-03		21.560
5		0.00		-1.20		9.013e-03		-44.310		2.290e-03		19.933
5		0.00		-0.80		5.166e-03		-26.551		1.435e-03		25.860
5		0.00		-0.40		2.314e-03		14.003		1.093e-03		50.247
6		0.00		0.00		3.933e-03		103.187		1.233e-03		31.689
6		0.00		0.40		7.991e-03		116.965		1.883e-03		19.707
6		0.00		0.80		1.145e-02		118.692		2.439e-03		17.451
6		0.00		1.20		1.559e-02		123.328		3.105e-03		14.421
6		0.00		1.60		1.918e-02		123.690		3.854e-03		13.388
6		0.00		2.00		2.256e-02		126.316		4.700e-03		14.583
6		0.00		2.40		2.527e-02		126.943		5.949e-03		14.284
6		0.00		2.80		2.797e-02		127.549		6.846e-03		17.102
6		0.00		3.20		3.018e-02		126.552		7.986e-03		18.608
6		0.00		3.60		3.265e-02		124.044		9.537e-03		20.716
6		0.00		4.00		3.583e-02		125.338		1.000e-02		20.049
6		0.00		4.40		3.751e-02		125.134		1.085e-02		20.870
6		0.00		4.80		4.040e-02		125.413		1.134e-02		18.235
6		0.00		5.20		4.166e-02		123.726		1.232e-02		20.406
6		0.00		5.60		4.479e-02		125.231		1.240e-02		19.912
6		0.00		6.00		4.652e-02		125.356		1.254e-02		20.483
6		0.00		6.40		4.882e-02		127.088		1.182e-02		17.205
6		0.00		6.80		4.988e-02		128.331		1.277e-02		17.686
6		0.00		7.20		5.190e-02		128.142		1.391e-02		21.574
6		0.00		7.60		5.238e-02		126.456		1.457e-02		25.602
6		0.00		8.00		5.372e-02		125.676		1.527e-02		25.749
6		0.00		8.40		5.427e-02		123.655		1.735e-02		31.651
6		0.00		8.80		5.694e-02		126.027		1.823e-02		30.232
6		0.00		9.20		5.857e-02		120.598		2.119e-02		29.235
6		0.00		9.60		5.923e-02		126.343		2.026e-02		22.699
6		0.00		10.00		5.793e-02		124.803		2.071e-02		24.150
6		0.00		9.60		5.831e-02		124.291		1.958e-02		24.228
6		0.00		9.20		5.780e-02		124.672		2.038e-02		21.555
6		0.00		8.80		5.611e-02		124.949		1.953e-02		21.731
6		0.00		8.40		5.330e-02		125.024		1.864e-02		22.534
6		0.00		8.00		5.146e-02		125.481		1.687e-02		22.251
6		0.00		7.60		4.942e-02		125.521		1.565e-02		21.017
6		0.00		7.20		4.642e-02		124.682		1.405e-02		20.548
6		0.00		6.80		4.286e-02		125.676		1.263e-02		20.940
6		0.00		6.40		4.079e-02		124.483		1.179e-02		20.015
6		0.00		6.00		3.807e-02		125.668		1.042e-02		19.799
6		0.00		5.60		3.619e-02		127.131		8.515e-03		18.831
6		0.00		5.20		3.246e-02		127.035		7.497e-03		18.616
6		0.00		4.80		2.906e-02		127.576		6.771e-03		17.223
6		0.00		4.40		2.571e-02		126.342		5.684e-03		18.389
6		0.00		4.00		2.216e-02		128.200		4.414e-03		16.097
6		0.00		3.60		1.885e-02		127.452		3.836e-03		15.675
6		0.00		3.20		1.512e-02		128.981		2.798e-03		15.461
6		0.00		2.80		1.120e-02		130.207		2.329e-03		17.040
6		0.00		2.40		6.755e-03		125.798		1.659e-03		17.072
6		0.00		2.00		3.082e-03		101.372		1.283e-03		59.136
6		0.00		1.60		2.381e-03		-32.331		1.065e-03		51.725
6		0.00		1.20		6.057e-03		-56.091		2.313e-03		23.940
6		0.00		0.80		1.024e-02		-54.009		3.149e-03		17.194
6		0.00		0.40		1.433e-02		-53.289		3.876e-03		15.779
6		0.00		0.00		1.898e-02		-52.071		4.869e-03		14.481
6		0.00		-0.40		2.190e-02		-53.708		5.720e-03		17.072
6		0.00		-0.80		2.656e-02		-50.517		6.341e-03		14.302
6		0.00		-1.20		2.937e-02		-53.016		7.300e-03		15.469
6		0.00		-1.60		3.299e-02		-53.263		8.097e-03		17.338
6		0.00		-2.00		3.677e-02		-53.917		8.954e-03		17.497
6		0.00		-2.40		3.989e-02		-54.467		1.006e-02		17.887
6		0.00		-2.80		4.419e-02		-55.391		1.119e-02		17.276
6		0.00		-3.20		4.742e-02		-54.720		1.214e-02		17.384
6		0.00		-3.60		5.092e-02		-55.591		1.296e-02		18.693
6		0.00		-4.00		5.368e-02		-56.317		1.418e-02		18.813
6		0.00		-4.40		5.588e-02		-56.008		1.507e-02		18.275
6		0.00		-4.80		5.817e-02		-53.766		1.547e-02		18.232
6		0.00		-5.20		6.211e-02		-55.637		1.811e-02		20.696
6		0.00		-5.60		6.636e-02		-52.112		1.723e-02		17.498
6		0.00		-6.00		6.515e-02		-56.702		2.004e-02		21.327
6		0.00		-6.40		6.676e-02		-51.099		1.904e-02		20.579
6		0.00		-6.80		6.799e-02		-51.807		2.051e-02		21.150
6		0.00		-7.20		6.816e-02		-52.380		2.170e-02		22.616
6		0.00		-7.60		6.679e-02		-50.972		2.068e-02		24.174
6		0.00		-8.00		6.798e-02		-48.372		2.096e-02		20.862
6		0.00		-8.40		6.639e-02		-49.223		2.021e-02		21.472
6		0.00		-8.80		6.696e-02		-46.416		2.165e-02		22.092
6		0.00		-9.20		6.186e-02		-49.599		2.175e-02		24.159
6		0.00		-9.60		5.687e-02		-44.565		1.817e-02		20.815
6		0.00		-10.00		4.930e-02		-46.152		1.651e-02		21.319
6		0.00		-9.60		5.599e-02		-45.710		1.795e-02		18.335
6		0.00		-9.20		6.052e-02		-44.846		1.990e-02		22.949
6		0.00		-8.80		6.249e-02		-45.880		2.100e-02		25.022
6		0.00		-8.40		6.539e-02		-44.327		1.991e-02		23.918
6		0.00		-8.00		6.352e-02		-48.755		2.013e-02		26.157
6		0.00		-7.60		6.320e-02		-48.813		1.893e-02		23.472
6		0.00		-7.20		6.048e-02		-47.554		1.851e-02		25.440
6		0.00		-6.80		5.904e-02		-50.368		1.673e-02		22.217
6		0.00		-6.40		5.512e-02		-50.586		1.521e-02		19.420
6		0.00		-6.00		5.233e-02		-51.420		1.482e-02		18.587
6		0.00		-5.60		5.018e-02		-52.936		1.399e-02		18.334
6		0.00		-5.20		4.633e-02		-51.623		1.302e-02		18.703
6		0.00		-4.80		4.250e-02		-53.949		1.175e-02		17.828
6		0.00		-4.40		3.867e-02		-52.416		1.049e-02		17.407
6		0.00		-4.00		3.589e-02		-54.375		8.982e-03		15.637
6		0.00		-3.60		3.209e-02		-54.460		7.869e-03		16.195
6		0.00		-3.20		2.856e-02		-52.286		6.929e-03		15.846
6		0.00		-2.80		2.500e-02		-52.915		6.000e-03		16.250
6		0.00		-2.40		2.108e-02		-49.872		4.399e-03		14.655
6		0.00		-2.00		1.736e-02		-50.443		3.480e-03		14.349
6		0.00		-1.60		1.346e-02		-44.595		2.821e-03		17.331
6		0.00		-1.20		9.659e-03		-40.928		2.005e-03		17.306
6		0.00		-0.80		5.444e-03		-34.642		1.458e-03		23.841
6		0.00		-0.40		2.076e-03		13.473		8.155e-04		51.079
7		0.00		0.00		3.331e-03		88.757		1.201e-03		32.750
7		0.00		0.40		7.040e-03		116.928		2.035e-03		22.079
7		0.00		0.80		1.105e-02		118.686		2.892e-03		22.010
7		0.00		1.20		1.454e-02		124.424		3.588e-03		22.677
7		0.00		1.60		1.771e-02		124.620		4.430e-03		17.284
7		0.00		2.00		2.107e-02		123.978		5.447e-03		18.563
7		0.00		2.40		2.427e-02		125.747		6.315e-03		18.320
7		0.00		2.80		2.691e-02		124.593		7.062e-03		19.657
7		0.00		3.20		2.963e-02		125.492		7.916e-03		20.178
7		0.00		3.60		3.216e-02		124.869		8.508e-03		20.023
7		0.00		4.00		3.503e-02		124.591		9.322e-03		19.373
7		0.00		4.40		3.688e-02		125.630		9.963e-03		19.912
7		0.00		4.80		4.020e-02		126.759		1.091e-02		18.945
7		0.00		5.20		4.279e-02		124.562		1.127e-02		19.478
7		0.00		5.60		4.556e-02		124.756		1.231e-02		19.505
7		0.00		6.00		4.747e-02		125.786		1.275e-02		19.445
7		0.00		6.40		4.945e-02		126.217		1.309e-02		18.984
7		0.00		6.80		5.092e-02		125.772		1.388e-02		19.387
7		0.00		7.20		5.414e-02		126.722		1.488e-02		18.058
7		0.00		7.60		5.573e-02		126.963		1.650e-02		20.709
7		0.00		8.00		5.670e-02		127.771		1.657e-02		19.745
7		0.00		8.40		5.726e-02		127.069		1.810e-02		22.847
7		0.00		8.80		5.849e-02		126.543		1.808e-02		25.521
7		0.00		9.20		5.780e-02		124.959		2.042e-02		30.995
7		0.00		9.60		5.564e-02		124.278		2.120e-02		31.703
7		0.00		10.00		5.171e-02		122.745		2.083e-02		38.333
7		0.00		9.60		5.287e-02		119.335		2.066e-02		32.913
7		0.00		9.20		5.197e-02		116.652		2.085e-02		36.442
7		0.00		8.80		5.117e-02		122.095		1.842e-02		29.136
7		0.00		8.40		4.917e-02		120.617		1.774e-02		33.847
7		0.00		8.00		4.730e-02		120.227		1.549e-02		32.220
7		0.00		7.60		4.528e-02		123.382		1.500e-02		28.840
7		0.00		7.20		4.351e-02		125.629		1.277e-02		25.602
7		0.00		6.80		4.175e-02		125.175		1.216e-02		24.540
7		0.00		6.40		3.971e-02		125.427		1.086e-02		26.089
7		0.00		6.00		3.731e-02		124.832		1.034e-02		25.793
7		0.00		5.60		3.453e-02		126.051		8.947e-03		21.826
7		0.00		5.20		3.186e-02		126.874		8.200e-03		19.240
7		0.00		4.80		2.841e-02		127.224		7.182e-03		19.862
7		0.00		4.40		2.530e-02		127.515		6.342e-03		17.818
7		0.00		4.00		2.228e-02		129.237		5.299e-03		16.969
7		0.00		3.60		1.880e-02		127.147		4.345e-03		19.543
7		0.00		3.20		1.529e-02		126.609		3.598e-03		17.429
7		0.00		2.80		1.109e-02		127.370		2.830e-03		18.368
7		0.00		2.40		7.010e-03		121.041		1.841e-03		23.453
7		0.00		2.00		3.412e-03		107.723		1.329e-03		44.597
7		0.00		1.60		2.249e-03		-28.480		9.327e-04		51.805
7		0.00		1.20		5.367e-03		-49.079		2.145e-03		26.179
7		0.00		0.80		9.353e-03		-53.535		3.157e-03		22.153
7		0.00		0.40		1.356e-02		-53.482		3.973e-03		18.573
7		0.00		0.00		1.764e-02		-51.972		4.743e-03		18.652
7		0.00		-0.40		2.152e-02		-54.742		5.772e-03		17.174
7		0.00		-0.80		2.576e-02		-54.277		6.088e-03		17.500
7		0.00		-1.20		3.032e-02		-54.603		6.963e-03		16.628
7		0.00		-1.60		3.428e-02		-53.588		7.840e-03		15.967
7		0.00		-2.00		3.807e-02		-55.234		8.564e-03		14.821
7		0.00		-2.40		4.059e-02		-55.599		8.911e-03		16.088
7		0.00		-2.80		4.574e-02		-54.947		1.015e-02		16.799
7		0.00		-3.20		4.720e-02		-55.102		1.088e-02		15.026
7		0.00		-3.60		4.835e-02		-54.586		1.171e-02		15.419
7		0.00		-4.00		5.105e-02		-55.972		1.374e-02		18.659
7		0.00		-4.40		5.434e-02		-54.763		1.455e-02		18.581
7		0.00		-4.80		5.641e-02		-54.746		1.583e-02		19.793
7		0.00		-5.20		5.618e-02		-55.947		1.787e-02		25.235
7		0.00		-5.60		6.125e-02		-51.144		1.811e-02		19.393
7		0.00		-6.00		6.220e-02		-52.225		1.859e-02		22.051
7		0.00		-6.40		6.513e-02		-52.265		1.835e-02		21.317
7		0.00		-6.80		6.566e-02		-50.998		1.943e-02		21.949
7		0.00		-7.20		6.885e-02		-51.474		2.257e-02		23.103
7		0.00		-7.60		6.952e-02		-50.493		2.214e-02		21.984
7		0.00		-8.00		6.824e-02		-52.628		2.097e-02		24.179
7		0.00		-8.40		6.837e-02		-51.903		2.055e-02		23.141
7		0.00		-8.80		6.663e-02		-47.564		1.950e-02		20.561
7		0.00		-9.20		6.478e-02		-49.921		2.038e-02		18.560
7		0.00		-9.60		5.799e-02		-48.621		1.829e-02		18.890
7		0.00		-10.00		4.856e-02		-48.859		1.504e-02		21.165
7		0.00		-9.60		5.603e-02		-46.981		1.749e-02		19.152
7		0.00		-9.20		5.911e-02		-43.851		1.853e-02		23.068
7		0.00		-8.80		5.987e-02		-43.968		1.939e-02		28.897
7		0.00		-8.40		6.273e-02		-48.696		2.110e-02		23.800
7		0.00		-8.00		6.724e-02		-47.997		1.979e-02		19.349
7		0.00		-7.60		6.164e-02		-45.447		1.783e-02		22.130
7		0.00		-7.20		5.907e-02		-49.528		1.839e-02		19.858
7		0.00		-6.80		5.653e-02		-53.435		1.799e-02		20.245
7		0.00		-6.40		5.491e-02		-53.865		1.712e-02		19.512
7		0.00		-6.00		5.334e-02		-53.786		1.563e-02		20.172
7		0.00		-5.60		5.012e-02		-53.190		1.416e-02		18.757
7		0.00		-5.20		4.687e-02		-53.127		1.278e-02		20.805
7		0.00		-4.80		4.272e-02		-54.927		1.183e-02		19.914
7		0.00		-4.40		3.986e-02		-54.691		1.071e-02		18.053
7		0.00		-4.00		3.540e-02		-53.750		9.441e-03		18.147
7		0.00		-3.60		3.319e-02		-52.815		8.118e-03		17.036
7		0.00		-3.20		2.915e-02		-52.556		6.441e-03		17.586
7		0.00		-2.80		2.554e-02		-50.904		5.444e-03		16.046
7		0.00		-2.40		2.165e-02		-49.506		4.622e-03		15.980
7		0.00		-2.00		1.806e-02		-47.801		3.644e-03		15.233
7		0.00		-1.60		1.363e-02		-47.437		2.851e-03		17.056
7		0.00		-1.20		9.305e-03		-43.401		2.067e-03		22.944
7		0.00		-0.80		5.167e-03		-33.112		1.507e-03		23.540
7		0.00		-0.40		2.212e-03		-5.510		8.924e-04		38.060
8		0.00		0.00		3.932e-03		98.628		1.374e-03		27.860
8		0.00		0.40		7.476e-03		119.290		1.934e-03		19.763
8		0.00		0.80		1.133e-02		118.617		2.724e-03		18.560
8		0.00		1.20		1.545e-02		119.613		3.552e-03		14.865
8		0.00		1.60		1.869e-02		121.617		5.082e-03		19.240
8		0.00		2.00		2.151e-02		121.365		6.004e-03		20.461
8		0.00		2.40		2.490e-02		122.204		6.754e-03		18.793
8		0.00		2.80		2.725e-02		123.711		7.496e-03		20.652
8		0.00		3.20		3.013e-02		124.404		7.939e-03		20.066
8		0.00		3.60		3.245e-02		124.263		8.673e-03		20.086
8		0.00		4.00		3.493e-02		124.729		9.450e-03		20.081
8		0.00		4.40		3.677e-02		124.178		9.854e-03		19.074
8		0.00		4.80		3.827e-02		124.873		1.024e-02		21.738
8		0.00		5.20		4.017e-02		124.361		1.110e-02		26.591
8		0.00		5.60		4.328e-02		125.812		1.120e-02		24.767
8		0.00		6.00		4.531e-02		124.227		1.317e-02		29.799
8		0.00		6.40		4.734e-02		125.245		1.423e-02		22.442
8		0.00		6.80		5.088e-02		124.258		1.518e-02		22.054
8		0.00		7.20		5.311e-02		124.650		1.657e-02		20.679
8		0.00		7.60		5.592e-02		126.482		1.750e-02		19.865
8		0.00		8.00		5.724e-02		121.798		1.938e-02		25.933
8		0.00		8.40		5.974e-02		124.262		1.892e-02		23.613
8		0.00		8.80		6.009e-02		123.719		2.069e-02		23.843
8		0.00		9.20		6.040e-02		124.784		2.180e-02		26.050
8		0.00		9.60		5.687e-02		121.767		2.220e-02		32.876
8		0.00		10.00		5.319e-02		125.581		2.051e-02		32.098
8		0.00		9.60		5.396e-02		121.184		2.076e-02		30.639
8		0.00		9.20		5.415e-02		119.465		2.026e-02		37.138
8		0.00		8.80		5.323e-02		119.081		2.014e-02		38.088
8		0.00		8.40		5.181e-02		124.349		1.863e-02		27.883
8		0.00		8.00		4.858e-02		120.262		1.762e-02		30.264
8		0.00		7.60		4.790e-02		122.746		1.637e-02		23.705
8		0.00		7.20		4.678e-02		126.176		1.449e-02		21.043
8		0.00		6.80		4.426e-02		126.645		1.267e-02		20.482
8		0.00		6.40		4.186e-02		125.974		1.219e-02		20.170
8		0.00		6.00		4.004e-02		126.498		1.038e-02		18.788
8		0.00		5.60		3.626e-02		126.906		9.495e-03		20.088
8		0.00		5.20		3.284e-02		125.728		8.162e-03		19.279
8		0.00		4.80		2.986e-02		127.052		6.838e-03		17.292
8		0.00		4.40		2.547e-02		124.824		6.462e-03		19.962
8		0.00		4.00		2.283e-02		129.204		4.804e-03		16.630
8		0.00		3.60		1.893e-02		128.795		4.239e-03		16.252
8		0.00		3.20		1.541e-02		130.437		3.464e-03		16.804
8		0.00		2.80		1.137e-02		127.838		3.060e-03		22.422
8		0.00		2.40		7.516e-03		121.832		2.085e-03		32.489
8		0.00		2.00		3.642e-03		99.399		1.424e-03		61.732
8		0.00		1.60		2.122e-03		4.760		9.885e-04		64.735
8		0.00		1.20		4.351e-03		-55.923		2.036e-03		37.746
8		0.00		0.80		8.539e-03		-50.485		2.916e-03		23.733
8		0.00		0.40		1.292e-02		-56.260		3.877e-03		20.020
8		0.00		0.00		1.679e-02		-54.016		4.644e-03		18.924
8		0.00		-0.40		2.052e-02		-55.432		5.420e-03		17.621
8		0.00		-0.80		2.399e-02		-55.753		6.243e-03		17.722
8		0.00		-1.20		2.843e-02		-55.483		6.991e-03		16.131
8		0.00		-1.60		3.164e-02		-54.587		7.721e-03		18.138
8		0.00		-2.00		3.568e-02		-53.508		8.542e-03		16.037
8		0.00		-2.40		3.824e-02		-54.470		9.666e-03		19.431
8		0.00		-2.80		4.234e-02		-55.785		1.104e-02		18.222
8		0.00		-3.20		4.488e-02		-57.537		1.217e-02		18.459
8		0.00		-3.60		4.822e-02		-58.027		1.305e-02		17.403
8		0.00		-4.00		5.207e-02		-56.414		1.272e-02		16.814
8		0.00		-4.40		5.416e-02		-56.242		1.391e-02		16.955
8		0.00		-4.80		5.485e-02		-51.131		1.537e-02		17.966
8		0.00		-5.20		5.469e-02		-49.835		1.626e-02		21.895
8		0.00		-5.60		5.674e-02		-53.778		1.905e-02		24.834
8		0.00		-6.00		6.187e-02		-53.103		2.033e-02		21.841
8		0.00		-6.40		6.545e-02		-53.999		2.128e-02		20.407
8		0.00		-6.80		6.673e-02		-52.193		2.173e-02		20.668
8		0.00		-7.20		6.565e-02		-51.344		2.010e-02		22.246
8		0.00		-7.60		6.830e-02		-49.650		2.118e-02		18.689
8		0.00		-8.00		6.651e-02		-50.540		2.170e-02		20.908
8		0.00		-8.40		6.470e-02		-48.477		2.216e-02		22.580
8		0.00		-8.80		5.950e-02		-41.612		2.148e-02		25.792
8		0.00		-9.20		5.755e-02		-41.206		1.987e-02		23.674
8		0.00		-9.60		5.542e-02		-43.649		1.872e-02		19.836
8		0.00		-10.00		4.937e-02		-47.879		1.726e-02		19.356
8		0.00		-9.60		5.727e-02		-47.512		1.830e-02		18.021
8		0.00		-9.20		6.089e-02		-48.767		2.005e-02		20.137
8		0.00		-8.80		6.279e-02		-48.576		2.017e-02		22.103
8		0.00		-8.40		6.571e-02		-48.769		1.916e-02		20.694
8		0.00		-8.00		6.522e-02		-49.499		2.029e-02		20.112
8		0.00		-7.60		6.266e-02		-47.027		1.941e-02		27.143
8		0.00		-7.20		5.820e-02		-47.740		1.860e-02		23.091
8		0.00		-6.80		5.937e-02		-49.768		1.845e-02		17.589
8		0.00		-6.40		5.546e-02		-53.874		1.796e-02		22.486
8		0.00		-6.00		5.347e-02		-53.235		1.601e-02		20.867
8		0.00		-5.60		5.090e-02		-54.163		1.497e-02		21.008
8		0.00		-5.20		4.773e-02		-54.338		1.351e-02		19.079
8		0.00		-4.80		4.328e-02		-54.948		1.168e-02		20.429
8		0.00		-4.40		3.974e-02		-55.911		1.067e-02		19.334
8		0.00		-4.00		3.569e-02		-55.183		9.227e-03		18.371
8		0.00		-3.60		3.203e-02		-53.780		8.455e-03		17.359
8		0.00		-3.20		2.881e-02		-52.754		7.323e-03		16.968
8		0.00		-2.80		2.532e-02		-51.559		5.813e-03		17.544
8		0.00		-2.40		2.155e-02		-50.675		4.704e-03		18.620
8		0.00		-2.00		1.762e-02		-49.699		3.893e-03		16.766
8		0.00		-1.60		1.353e-02		-44.193		3.100e-03		17.468
8		0.00		-1.20		9.406e-03		-41.815		2.064e-03		20.607
8		0.00		-0.80		5.565e-03		-35.806		1.406e-03		22.159
8		0.00		-0.40		2.278e-03		-2.228		9.918e-04		47.838
