# Date of analysis: 2024-03-08 10;59
# Segment other properties: height: -78.34559650110167, diff height: 522.643972259613, deflection: 33.42305789655782, deflection error: 2.3356058129710617, adhesion: 35.327213993933235, phase offset: 0
# 
# Loop index	Read Volt (V)	Write Volt (V)	Amplitude (a.u)	Phase (deg)	Sigma Amp (a.u)	Sigma Pha (deg)	
1		0.00		0.00		1.456e-02		-44.178		2.791e-03		9.714
1		0.00		0.40		9.809e-03		-48.321		2.476e-03		13.377
1		0.00		0.80		5.408e-03		-43.211		1.491e-03		21.520
1		0.00		1.20		2.171e-03		2.568		8.871e-04		51.053
1		0.00		1.60		4.402e-03		112.115		1.232e-03		23.777
1		0.00		2.00		9.027e-03		126.089		1.806e-03		15.245
1		0.00		2.40		1.312e-02		129.160		2.795e-03		13.672
1		0.00		2.80		1.740e-02		129.691		3.740e-03		10.240
1		0.00		3.20		2.178e-02		128.910		4.084e-03		9.735
1		0.00		3.60		2.626e-02		130.403		4.252e-03		8.204
1		0.00		4.00		3.039e-02		130.426		5.087e-03		7.645
1		0.00		4.40		3.272e-02		130.857		6.138e-03		10.738
1		0.00		4.80		3.602e-02		129.788		8.024e-03		12.153
1		0.00		5.20		3.934e-02		129.719		9.265e-03		11.096
1		0.00		5.60		4.295e-02		131.505		8.772e-03		7.030
1		0.00		6.00		4.569e-02		131.596		7.980e-03		6.380
1		0.00		6.40		4.832e-02		133.284		9.071e-03		7.195
1		0.00		6.80		4.944e-02		131.821		1.167e-02		14.709
1		0.00		7.20		5.245e-02		130.279		1.310e-02		13.570
1		0.00		7.60		5.374e-02		131.728		1.457e-02		9.015
1		0.00		8.00		5.677e-02		132.363		1.262e-02		8.176
1		0.00		8.40		5.619e-02		133.036		1.276e-02		14.729
1		0.00		8.80		5.542e-02		130.515		1.563e-02		19.141
1		0.00		9.20		5.608e-02		124.507		1.811e-02		29.799
1		0.00		9.60		5.815e-02		127.530		1.936e-02		24.004
1		0.00		10.00		6.006e-02		132.443		1.722e-02		9.304
1		0.00		9.60		5.835e-02		131.969		1.452e-02		10.826
1		0.00		9.20		5.733e-02		132.883		1.219e-02		12.931
1		0.00		8.80		5.691e-02		131.563		1.404e-02		13.751
1		0.00		8.40		5.480e-02		132.270		1.300e-02		12.222
1		0.00		8.00		5.371e-02		132.276		1.262e-02		11.626
1		0.00		7.60		5.104e-02		130.370		1.283e-02		10.924
1		0.00		7.20		4.864e-02		132.162		1.057e-02		7.465
1		0.00		6.80		4.619e-02		132.505		8.452e-03		7.037
1		0.00		6.40		4.302e-02		132.537		7.193e-03		6.484
1		0.00		6.00		3.762e-02		132.494		7.683e-03		10.493
1		0.00		5.60		3.390e-02		131.813		7.261e-03		12.338
1		0.00		5.20		2.997e-02		131.284		6.847e-03		15.150
1		0.00		4.80		2.626e-02		131.076		5.483e-03		9.210
1		0.00		4.40		2.341e-02		131.226		4.132e-03		9.280
1		0.00		4.00		1.888e-02		133.885		3.077e-03		10.143
1		0.00		3.60		1.479e-02		135.229		2.566e-03		10.182
1		0.00		3.20		1.024e-02		130.801		2.379e-03		14.498
1		0.00		2.80		6.605e-03		129.636		1.699e-03		21.094
1		0.00		2.40		2.434e-03		92.009		1.100e-03		62.423
1		0.00		2.00		2.933e-03		-35.302		1.109e-03		43.120
1		0.00		1.60		7.252e-03		-50.180		1.680e-03		16.551
1		0.00		1.20		1.171e-02		-48.187		2.442e-03		11.630
1		0.00		0.80		1.666e-02		-48.437		3.510e-03		10.036
1		0.00		0.40		2.094e-02		-49.760		4.539e-03		10.065
1		0.00		0.00		2.482e-02		-48.385		5.349e-03		9.700
1		0.00		-0.40		2.985e-02		-51.113		5.922e-03		9.438
1		0.00		-0.80		3.508e-02		-50.795		5.807e-03		7.767
1		0.00		-1.20		3.926e-02		-52.438		6.365e-03		8.032
1		0.00		-1.60		4.203e-02		-50.405		7.431e-03		7.644
1		0.00		-2.00		4.651e-02		-51.366		9.239e-03		8.872
1		0.00		-2.40		4.960e-02		-52.499		1.149e-02		9.913
1		0.00		-2.80		5.277e-02		-53.353		1.212e-02		8.121
1		0.00		-3.20		5.736e-02		-53.689		1.195e-02		8.725
1		0.00		-3.60		5.728e-02		-52.658		1.110e-02		11.513
1		0.00		-4.00		5.954e-02		-51.073		1.203e-02		12.542
1		0.00		-4.40		6.104e-02		-53.106		1.672e-02		12.445
1		0.00		-4.80		6.014e-02		-50.265		1.680e-02		13.175
1		0.00		-5.20		6.445e-02		-48.665		1.726e-02		12.771
1		0.00		-5.60		6.403e-02		-46.251		1.590e-02		15.906
1		0.00		-6.00		6.281e-02		-49.207		1.639e-02		21.614
1		0.00		-6.40		6.523e-02		-41.822		1.673e-02		19.084
1		0.00		-6.80		6.706e-02		-41.712		2.081e-02		17.921
1		0.00		-7.20		6.475e-02		-43.094		1.988e-02		25.151
1		0.00		-7.60		6.840e-02		-41.804		1.971e-02		23.008
1		0.00		-8.00		7.016e-02		-46.992		2.037e-02		25.104
1		0.00		-8.40		6.649e-02		-38.917		1.755e-02		28.284
1		0.00		-8.80		6.614e-02		-35.134		1.632e-02		21.973
1		0.00		-9.20		6.786e-02		-37.668		1.814e-02		19.232
1		0.00		-9.60		6.214e-02		-33.623		1.785e-02		19.052
1		0.00		-10.00		5.981e-02		-39.197		1.588e-02		17.615
1		0.00		-9.60		6.504e-02		-40.379		1.662e-02		13.805
1		0.00		-9.20		6.597e-02		-39.044		1.722e-02		18.768
1		0.00		-8.80		6.700e-02		-35.307		1.612e-02		17.685
1		0.00		-8.40		6.767e-02		-38.923		1.668e-02		17.568
1		0.00		-8.00		6.888e-02		-41.139		1.872e-02		17.928
1		0.00		-7.60		6.964e-02		-47.369		1.949e-02		20.011
1		0.00		-7.20		6.723e-02		-44.882		1.701e-02		16.093
1		0.00		-6.80		6.531e-02		-46.788		1.480e-02		14.499
1		0.00		-6.40		6.120e-02		-48.357		1.317e-02		15.369
1		0.00		-6.00		6.133e-02		-48.352		1.303e-02		13.178
1		0.00		-5.60		5.767e-02		-50.903		1.479e-02		17.280
1		0.00		-5.20		5.778e-02		-49.504		1.541e-02		9.975
1		0.00		-4.80		5.453e-02		-50.440		1.307e-02		8.622
1		0.00		-4.40		5.226e-02		-52.137		9.555e-03		8.142
1		0.00		-4.00		4.840e-02		-52.103		7.457e-03		5.080
1		0.00		-3.60		4.367e-02		-50.740		7.890e-03		7.817
1		0.00		-3.20		3.907e-02		-50.531		8.136e-03		10.307
1		0.00		-2.80		3.484e-02		-50.824		7.670e-03		8.786
1		0.00		-2.40		3.130e-02		-49.822		5.881e-03		8.399
1		0.00		-2.00		2.721e-02		-49.959		4.334e-03		8.394
1		0.00		-1.60		2.285e-02		-48.083		3.585e-03		7.361
1		0.00		-1.20		1.788e-02		-44.231		3.222e-03		10.681
1		0.00		-0.80		1.326e-02		-43.531		2.757e-03		10.266
1		0.00		-0.40		8.604e-03		-45.168		1.919e-03		13.896
2		0.00		0.00		4.000e-03		-25.380		1.270e-03		30.193
2		0.00		0.40		2.223e-03		48.359		8.240e-04		53.395
2		0.00		0.80		5.878e-03		123.676		1.500e-03		18.464
2		0.00		1.20		1.007e-02		125.402		2.236e-03		14.122
2		0.00		1.60		1.399e-02		126.831		3.455e-03		14.418
2		0.00		2.00		1.819e-02		126.820		4.375e-03		8.652
2		0.00		2.40		2.269e-02		129.719		4.749e-03		8.476
2		0.00		2.80		2.606e-02		129.612		5.425e-03		8.926
2		0.00		3.20		2.962e-02		129.263		6.579e-03		9.638
2		0.00		3.60		3.178e-02		128.063		8.373e-03		14.958
2		0.00		4.00		3.471e-02		129.893		8.850e-03		14.243
2		0.00		4.40		3.820e-02		130.502		8.635e-03		7.434
2		0.00		4.80		4.133e-02		130.007		8.249e-03		7.700
2		0.00		5.20		4.347e-02		131.255		9.076e-03		7.684
2		0.00		5.60		4.570e-02		129.151		1.089e-02		12.423
2		0.00		6.00		4.895e-02		130.257		1.217e-02		13.288
2		0.00		6.40		5.222e-02		131.647		1.250e-02		7.175
2		0.00		6.80		5.501e-02		132.055		1.090e-02		8.033
2		0.00		7.20		5.636e-02		131.692		1.228e-02		11.452
2		0.00		7.60		5.690e-02		129.797		1.523e-02		21.008
2		0.00		8.00		5.879e-02		129.515		1.561e-02		19.134
2		0.00		8.40		6.148e-02		131.393		1.525e-02		17.769
2		0.00		8.80		6.213e-02		133.844		1.332e-02		11.662
2		0.00		9.20		6.353e-02		130.973		1.460e-02		18.512
2		0.00		9.60		6.260e-02		127.060		1.827e-02		22.968
2		0.00		10.00		6.065e-02		133.434		1.664e-02		15.616
2		0.00		9.60		6.203e-02		127.509		1.809e-02		29.532
2		0.00		9.20		6.096e-02		132.441		1.508e-02		8.254
2		0.00		8.80		5.729e-02		134.364		1.132e-02		10.025
2		0.00		8.40		5.482e-02		132.263		1.339e-02		15.660
2		0.00		8.00		5.249e-02		130.838		1.422e-02		16.935
2		0.00		7.60		5.083e-02		130.052		1.379e-02		14.682
2		0.00		7.20		4.846e-02		132.098		1.247e-02		7.938
2		0.00		6.80		4.648e-02		131.808		9.437e-03		8.045
2		0.00		6.40		4.342e-02		132.292		7.394e-03		6.747
2		0.00		6.00		3.970e-02		133.963		7.980e-03		8.636
2		0.00		5.60		3.611e-02		131.632		8.058e-03		12.123
2		0.00		5.20		3.237e-02		130.230		7.706e-03		14.001
2		0.00		4.80		2.913e-02		133.592		6.245e-03		8.862
2		0.00		4.40		2.555e-02		133.126		4.473e-03		10.077
2		0.00		4.00		2.139e-02		134.730		3.734e-03		9.732
2		0.00		3.60		1.719e-02		133.357		3.062e-03		9.799
2		0.00		3.20		1.256e-02		130.297		2.832e-03		17.286
2		0.00		2.80		8.113e-03		129.767		2.096e-03		15.281
2		0.00		2.40		4.112e-03		115.471		1.232e-03		37.568
2		0.00		2.00		1.978e-03		-14.785		7.914e-04		60.086
2		0.00		1.60		5.864e-03		-51.985		1.530e-03		17.411
2		0.00		1.20		1.045e-02		-49.493		2.827e-03		12.764
2		0.00		0.80		1.398e-02		-46.862		3.704e-03		11.002
2		0.00		0.40		1.882e-02		-49.372		4.480e-03		11.418
2		0.00		0.00		2.426e-02		-49.797		4.532e-03		8.129
2		0.00		-0.40		2.846e-02		-52.187		5.042e-03		9.004
2		0.00		-0.80		3.310e-02		-51.508		6.584e-03		8.743
2		0.00		-1.20		3.616e-02		-52.223		8.275e-03		9.806
2		0.00		-1.60		3.972e-02		-51.937		9.458e-03		8.236
2		0.00		-2.00		4.376e-02		-52.807		9.531e-03		8.925
2		0.00		-2.40		4.840e-02		-53.886		9.054e-03		8.228
2		0.00		-2.80		5.206e-02		-52.042		8.690e-03		6.853
2		0.00		-3.20		5.582e-02		-52.666		1.081e-02		8.842
2		0.00		-3.60		5.735e-02		-51.547		1.266e-02		7.951
2		0.00		-4.00		6.071e-02		-52.540		1.328e-02		7.970
2		0.00		-4.40		6.260e-02		-50.921		1.103e-02		8.360
2		0.00		-4.80		6.281e-02		-50.150		1.141e-02		11.643
2		0.00		-5.20		6.501e-02		-47.651		1.352e-02		12.264
2		0.00		-5.60		6.526e-02		-46.096		1.733e-02		19.579
2		0.00		-6.00		6.552e-02		-44.369		1.697e-02		14.057
2		0.00		-6.40		6.556e-02		-45.701		1.649e-02		20.722
2		0.00		-6.80		6.487e-02		-38.728		1.520e-02		21.363
2		0.00		-7.20		6.879e-02		-37.887		1.569e-02		19.615
2		0.00		-7.60		6.766e-02		-41.767		1.832e-02		22.117
2		0.00		-8.00		6.697e-02		-41.437		1.998e-02		29.332
2		0.00		-8.40		7.207e-02		-43.379		2.025e-02		19.651
2		0.00		-8.80		6.837e-02		-33.778		1.921e-02		21.255
2		0.00		-9.20		6.533e-02		-41.315		1.647e-02		19.904
2		0.00		-9.60		6.080e-02		-41.956		1.810e-02		21.497
2		0.00		-10.00		5.663e-02		-43.243		1.662e-02		16.446
2		0.00		-9.60		6.071e-02		-37.424		1.887e-02		23.869
2		0.00		-9.20		6.427e-02		-38.723		1.715e-02		16.127
2		0.00		-8.80		6.737e-02		-36.965		1.730e-02		19.402
2		0.00		-8.40		6.695e-02		-45.235		1.524e-02		22.042
2		0.00		-8.00		6.882e-02		-45.134		1.634e-02		19.248
2		0.00		-7.60		6.750e-02		-43.128		1.857e-02		16.947
2		0.00		-7.20		6.713e-02		-45.905		1.712e-02		14.452
2		0.00		-6.80		6.768e-02		-44.352		1.403e-02		9.202
2		0.00		-6.40		6.499e-02		-45.615		1.151e-02		10.089
2		0.00		-6.00		6.121e-02		-48.185		1.190e-02		11.985
2		0.00		-5.60		5.960e-02		-48.980		1.278e-02		14.400
2		0.00		-5.20		5.867e-02		-49.008		1.313e-02		11.397
2		0.00		-4.80		5.473e-02		-49.004		1.218e-02		8.139
2		0.00		-4.40		5.190e-02		-52.460		1.016e-02		7.205
2		0.00		-4.00		4.832e-02		-52.906		8.156e-03		6.294
2		0.00		-3.60		4.366e-02		-52.003		7.373e-03		8.343
2		0.00		-3.20		3.951e-02		-50.401		7.202e-03		7.020
2		0.00		-2.80		3.417e-02		-50.163		7.230e-03		10.825
2		0.00		-2.40		2.977e-02		-48.824		6.932e-03		10.001
2		0.00		-2.00		2.497e-02		-48.050		5.623e-03		9.590
2		0.00		-1.60		2.127e-02		-48.837		3.619e-03		9.168
2		0.00		-1.20		1.647e-02		-44.824		2.631e-03		9.833
2		0.00		-0.80		1.201e-02		-43.641		2.134e-03		11.211
2		0.00		-0.40		7.432e-03		-38.665		1.597e-03		16.278
3		0.00		0.00		3.239e-03		-45.926		1.224e-03		29.810
3		0.00		0.40		2.701e-03		77.444		9.604e-04		40.186
3		0.00		0.80		6.516e-03		123.142		1.541e-03		15.974
3		0.00		1.20		1.133e-02		128.105		2.239e-03		9.774
3		0.00		1.60		1.575e-02		130.019		2.606e-03		8.923
3		0.00		2.00		1.976e-02		128.963		3.466e-03		8.451
3		0.00		2.40		2.389e-02		130.404		4.418e-03		10.819
3		0.00		2.80		2.723e-02		130.676		5.667e-03		12.505
3		0.00		3.20		3.091e-02		130.179		6.752e-03		10.870
3		0.00		3.60		3.421e-02		129.416		7.445e-03		9.841
3		0.00		4.00		3.779e-02		130.327		6.654e-03		7.032
3		0.00		4.40		4.166e-02		131.539		6.889e-03		5.834
3		0.00		4.80		4.357e-02		131.603		7.653e-03		6.070
3		0.00		5.20		4.515e-02		131.942		8.626e-03		7.874
3		0.00		5.60		4.735e-02		130.996		1.145e-02		13.685
3		0.00		6.00		4.951e-02		129.860		1.309e-02		13.745
3		0.00		6.40		5.159e-02		130.260		1.417e-02		11.060
3		0.00		6.80		5.491e-02		131.483		1.355e-02		7.782
3		0.00		7.20		5.732e-02		131.228		1.285e-02		9.099
3		0.00		7.60		5.798e-02		133.724		1.058e-02		7.286
3		0.00		8.00		5.758e-02		130.348		1.450e-02		16.201
3		0.00		8.40		5.986e-02		132.249		1.601e-02		15.689
3		0.00		8.80		6.133e-02		131.304		1.736e-02		21.097
3		0.00		9.20		6.161e-02		129.390		1.622e-02		23.795
3		0.00		9.60		6.524e-02		134.904		1.653e-02		10.026
3		0.00		10.00		6.234e-02		133.837		1.441e-02		10.667
3		0.00		9.60		6.250e-02		134.011		1.344e-02		11.293
3		0.00		9.20		6.076e-02		133.164		1.494e-02		16.595
3		0.00		8.80		5.888e-02		130.030		1.510e-02		19.582
3		0.00		8.40		5.803e-02		131.639		1.451e-02		15.157
3		0.00		8.00		5.555e-02		130.071		1.390e-02		18.007
3		0.00		7.60		5.307e-02		132.816		1.327e-02		10.596
3		0.00		7.20		5.138e-02		131.439		1.079e-02		7.980
3		0.00		6.80		4.751e-02		132.295		9.496e-03		8.613
3		0.00		6.40		4.362e-02		132.732		8.715e-03		7.498
3		0.00		6.00		3.978e-02		131.212		8.997e-03		10.202
3		0.00		5.60		3.600e-02		130.513		9.146e-03		15.856
3		0.00		5.20		3.251e-02		130.115		8.805e-03		15.408
3		0.00		4.80		2.889e-02		131.673		7.505e-03		8.976
3		0.00		4.40		2.536e-02		132.802		5.366e-03		10.406
3		0.00		4.00		2.230e-02		130.865		4.375e-03		8.528
3		0.00		3.60		1.774e-02		132.248		3.491e-03		10.196
3		0.00		3.20		1.376e-02		132.098		3.223e-03		14.872
3		0.00		2.80		9.824e-03		134.873		2.335e-03		17.372
3		0.00		2.40		5.723e-03		128.106		1.530e-03		26.836
3		0.00		2.00		1.735e-03		50.610		7.982e-04		69.098
3		0.00		1.60		3.891e-03		-62.746		1.215e-03		20.734
3		0.00		1.20		7.883e-03		-49.262		1.757e-03		13.860
3		0.00		0.80		1.248e-02		-48.933		2.480e-03		12.229
3		0.00		0.40		1.709e-02		-46.220		3.848e-03		10.984
3		0.00		0.00		2.117e-02		-49.982		4.679e-03		8.234
3		0.00		-0.40		2.550e-02		-50.489		4.931e-03		9.634
3		0.00		-0.80		3.033e-02		-52.219		4.877e-03		7.827
3		0.00		-1.20		3.452e-02		-50.697		5.911e-03		7.892
3		0.00		-1.60		3.763e-02		-50.615		7.372e-03		8.445
3		0.00		-2.00		4.095e-02		-51.415		9.583e-03		9.700
3		0.00		-2.40		4.505e-02		-52.168		1.078e-02		8.612
3		0.00		-2.80		4.963e-02		-51.747		8.694e-03		6.144
3		0.00		-3.20		5.238e-02		-52.808		8.917e-03		7.612
3		0.00		-3.60		5.553e-02		-51.495		1.013e-02		8.611
3		0.00		-4.00		5.698e-02		-53.344		1.319e-02		14.205
3		0.00		-4.40		5.904e-02		-53.016		1.531e-02		12.939
3		0.00		-4.80		6.343e-02		-50.090		1.476e-02		8.342
3		0.00		-5.20		6.141e-02		-48.954		1.167e-02		12.205
3		0.00		-5.60		6.384e-02		-47.916		1.180e-02		12.577
3		0.00		-6.00		6.517e-02		-43.695		1.441e-02		10.750
3		0.00		-6.40		6.656e-02		-43.418		1.812e-02		12.180
3		0.00		-6.80		6.788e-02		-47.900		2.002e-02		16.902
3		0.00		-7.20		7.013e-02		-40.814		1.748e-02		17.974
3		0.00		-7.60		7.089e-02		-38.860		1.773e-02		18.786
3		0.00		-8.00		6.945e-02		-41.830		1.675e-02		21.794
3		0.00		-8.40		6.566e-02		-31.614		1.621e-02		17.634
3		0.00		-8.80		6.508e-02		-36.515		1.829e-02		20.842
3		0.00		-9.20		6.772e-02		-44.500		2.035e-02		20.648
3		0.00		-9.60		6.431e-02		-41.025		1.769e-02		17.215
3		0.00		-10.00		5.806e-02		-41.919		1.314e-02		11.457
3		0.00		-9.60		6.031e-02		-41.833		1.828e-02		19.206
3		0.00		-9.20		6.332e-02		-36.312		1.883e-02		18.311
3		0.00		-8.80		6.576e-02		-43.213		2.029e-02		20.952
3		0.00		-8.40		6.294e-02		-35.679		1.853e-02		19.691
3		0.00		-8.00		6.820e-02		-42.029		1.816e-02		17.907
3		0.00		-7.60		6.705e-02		-44.949		1.795e-02		19.925
3		0.00		-7.20		6.542e-02		-43.656		1.392e-02		14.339
3		0.00		-6.80		6.027e-02		-46.441		1.557e-02		19.166
3		0.00		-6.40		6.257e-02		-49.533		1.624e-02		14.458
3		0.00		-6.00		6.016e-02		-49.736		1.547e-02		14.392
3		0.00		-5.60		5.916e-02		-48.658		1.429e-02		10.043
3		0.00		-5.20		5.808e-02		-51.032		1.220e-02		7.392
3		0.00		-4.80		5.517e-02		-50.315		9.069e-03		5.675
3		0.00		-4.40		4.937e-02		-52.171		8.510e-03		7.861
3		0.00		-4.00		4.570e-02		-51.872		8.171e-03		8.969
3		0.00		-3.60		4.181e-02		-51.264		8.559e-03		10.181
3		0.00		-3.20		3.707e-02		-50.775		8.208e-03		9.911
3		0.00		-2.80		3.347e-02		-50.855		6.279e-03		8.520
3		0.00		-2.40		2.955e-02		-48.777		4.444e-03		6.525
3		0.00		-2.00		2.520e-02		-48.384		3.582e-03		7.762
3		0.00		-1.60		2.041e-02		-46.171		3.340e-03		7.494
3		0.00		-1.20		1.609e-02		-48.192		3.263e-03		12.181
3		0.00		-0.80		1.141e-02		-43.565		2.751e-03		13.592
3		0.00		-0.40		7.126e-03		-40.011		1.616e-03		14.458
4		0.00		0.00		3.234e-03		-22.598		1.194e-03		29.024
4		0.00		0.40		2.475e-03		70.555		1.070e-03		58.305
4		0.00		0.80		6.260e-03		121.794		1.411e-03		14.920
4		0.00		1.20		1.076e-02		124.966		2.267e-03		13.185
4		0.00		1.60		1.474e-02		127.597		3.705e-03		12.824
4		0.00		2.00		1.919e-02		127.821		4.112e-03		9.727
4		0.00		2.40		2.354e-02		128.128		4.328e-03		8.329
4		0.00		2.80		2.753e-02		130.608		4.318e-03		7.047
4		0.00		3.20		3.126e-02		131.679		5.923e-03		7.047
4		0.00		3.60		3.390e-02		130.560		7.774e-03		12.308
4		0.00		4.00		3.714e-02		128.718		8.888e-03		10.601
4		0.00		4.40		4.073e-02		131.259		8.146e-03		6.514
4		0.00		4.80		4.441e-02		131.508		7.601e-03		6.321
4		0.00		5.20		4.536e-02		132.009		8.751e-03		8.503
4		0.00		5.60		4.789e-02		131.158		1.125e-02		13.561
4		0.00		6.00		5.085e-02		130.569		1.258e-02		11.110
4		0.00		6.40		5.351e-02		130.792		1.175e-02		9.221
4		0.00		6.80		5.548e-02		131.846		1.143e-02		10.053
4		0.00		7.20		5.677e-02		131.705		1.312e-02		12.257
4		0.00		7.60		5.674e-02		129.528		1.633e-02		22.551
4		0.00		8.00		5.990e-02		127.177		1.780e-02		33.443
4		0.00		8.40		6.085e-02		134.245		1.495e-02		9.967
4		0.00		8.80		6.306e-02		131.947		1.430e-02		11.377
4		0.00		9.20		6.006e-02		128.616		1.862e-02		26.978
4		0.00		9.60		6.223e-02		129.369		2.053e-02		19.713
4		0.00		10.00		5.908e-02		128.412		1.873e-02		23.886
4		0.00		9.60		6.222e-02		132.442		1.672e-02		10.176
4		0.00		9.20		6.145e-02		130.289		1.610e-02		14.065
4		0.00		8.80		5.975e-02		130.881		1.530e-02		14.602
4		0.00		8.40		5.788e-02		130.614		1.557e-02		18.407
4		0.00		8.00		5.589e-02		130.171		1.434e-02		21.870
4		0.00		7.60		5.419e-02		132.280		1.148e-02		7.371
4		0.00		7.20		5.122e-02		132.782		9.088e-03		7.474
4		0.00		6.80		4.806e-02		133.577		8.744e-03		6.305
4		0.00		6.40		4.498e-02		131.677		9.736e-03		11.017
4		0.00		6.00		4.117e-02		131.091		9.906e-03		13.415
4		0.00		5.60		3.819e-02		132.414		8.626e-03		7.852
4		0.00		5.20		3.483e-02		133.060		6.444e-03		8.255
4		0.00		4.80		3.146e-02		134.007		5.494e-03		7.493
4		0.00		4.40		2.755e-02		133.288		5.046e-03		9.782
4		0.00		4.00		2.307e-02		131.445		4.837e-03		14.138
4		0.00		3.60		1.921e-02		133.088		3.997e-03		9.487
4		0.00		3.20		1.570e-02		134.900		2.583e-03		9.322
4		0.00		2.80		1.105e-02		131.364		1.874e-03		10.187
4		0.00		2.40		6.599e-03		130.923		1.674e-03		24.564
4		0.00		2.00		2.704e-03		90.455		1.102e-03		53.102
4		0.00		1.60		3.139e-03		-49.711		1.257e-03		32.762
4		0.00		1.20		7.263e-03		-45.092		1.882e-03		17.168
4		0.00		0.80		1.213e-02		-50.723		2.483e-03		11.926
4		0.00		0.40		1.734e-02		-49.040		2.744e-03		9.034
4		0.00		0.00		2.179e-02		-48.885		3.738e-03		9.030
4		0.00		-0.40		2.604e-02		-48.340		4.946e-03		8.834
4		0.00		-0.80		3.003e-02		-50.436		5.817e-03		8.396
4		0.00		-1.20		3.492e-02		-49.441		6.308e-03		8.035
4		0.00		-1.60		3.958e-02		-52.671		6.151e-03		8.043
4		0.00		-2.00		4.294e-02		-50.826		6.600e-03		6.521
4		0.00		-2.40		4.602e-02		-50.606		8.662e-03		7.988
4		0.00		-2.80		4.951e-02		-51.496		1.028e-02		9.906
4		0.00		-3.20		5.284e-02		-52.657		1.186e-02		7.487
4		0.00		-3.60		5.711e-02		-53.143		1.090e-02		8.183
4		0.00		-4.00		5.807e-02		-51.745		9.787e-03		8.915
4		0.00		-4.40		6.261e-02		-50.205		1.152e-02		5.076
4		0.00		-4.80		6.181e-02		-50.344		1.555e-02		9.783
4		0.00		-5.20		6.223e-02		-46.410		1.628e-02		13.933
4		0.00		-5.60		6.418e-02		-45.271		1.522e-02		12.191
4		0.00		-6.00		6.604e-02		-43.970		1.549e-02		12.855
4		0.00		-6.40		6.371e-02		-45.967		1.560e-02		20.131
4		0.00		-6.80		6.341e-02		-43.660		1.956e-02		18.959
4		0.00		-7.20		6.513e-02		-40.788		1.756e-02		19.405
4		0.00		-7.60		6.801e-02		-38.274		1.649e-02		16.761
4		0.00		-8.00		6.955e-02		-43.220		1.750e-02		18.458
4		0.00		-8.40		7.027e-02		-44.106		1.696e-02		19.854
4		0.00		-8.80		6.353e-02		-43.047		2.068e-02		24.002
4		0.00		-9.20		6.569e-02		-37.835		1.922e-02		17.925
4		0.00		-9.60		6.273e-02		-39.551		1.588e-02		13.220
4		0.00		-10.00		5.926e-02		-39.879		1.311e-02		9.611
4		0.00		-9.60		6.318e-02		-43.088		1.634e-02		15.083
4		0.00		-9.20		6.640e-02		-36.849		1.944e-02		15.026
4		0.00		-8.80		6.635e-02		-36.978		1.825e-02		20.435
4		0.00		-8.40		6.864e-02		-44.980		1.833e-02		21.882
4		0.00		-8.00		7.061e-02		-40.883		1.544e-02		16.331
4		0.00		-7.60		6.848e-02		-46.931		1.636e-02		19.497
4		0.00		-7.20		6.797e-02		-46.875		1.654e-02		17.499
4		0.00		-6.80		6.522e-02		-40.424		1.765e-02		18.929
4		0.00		-6.40		6.589e-02		-46.828		1.603e-02		8.357
4		0.00		-6.00		6.406e-02		-47.837		1.198e-02		7.404
4		0.00		-5.60		6.002e-02		-48.610		1.048e-02		9.581
4		0.00		-5.20		5.687e-02		-50.101		1.182e-02		11.475
4		0.00		-4.80		5.359e-02		-50.589		1.203e-02		9.029
4		0.00		-4.40		4.980e-02		-51.572		1.135e-02		8.321
4		0.00		-4.00		4.785e-02		-52.497		7.286e-03		6.454
4		0.00		-3.60		4.347e-02		-50.930		6.541e-03		6.335
4		0.00		-3.20		3.878e-02		-49.851		7.194e-03		6.964
4		0.00		-2.80		3.459e-02		-50.847		7.467e-03		8.874
4		0.00		-2.40		3.071e-02		-48.055		5.428e-03		7.901
4		0.00		-2.00		2.697e-02		-47.633		3.936e-03		7.153
4		0.00		-1.60		2.207e-02		-46.644		2.909e-03		9.003
4		0.00		-1.20		1.737e-02		-48.496		3.075e-03		10.523
4		0.00		-0.80		1.230e-02		-45.581		2.361e-03		10.552
4		0.00		-0.40		7.811e-03		-39.417		1.472e-03		16.305
5		0.00		0.00		3.373e-03		-34.283		1.267e-03		30.971
5		0.00		0.40		2.569e-03		79.385		1.074e-03		47.091
5		0.00		0.80		6.363e-03		124.313		1.539e-03		16.906
5		0.00		1.20		1.058e-02		121.259		2.422e-03		15.012
5		0.00		1.60		1.531e-02		127.232		2.587e-03		9.513
5		0.00		2.00		2.000e-02		128.910		2.873e-03		8.178
5		0.00		2.40		2.395e-02		130.104		4.458e-03		8.953
5		0.00		2.80		2.739e-02		128.803		6.196e-03		12.977
5		0.00		3.20		3.017e-02		130.062		6.720e-03		8.733
5		0.00		3.60		3.429e-02		129.649		6.598e-03		7.645
5		0.00		4.00		3.736e-02		129.534		7.065e-03		8.066
5		0.00		4.40		3.968e-02		132.043		7.979e-03		9.034
5		0.00		4.80		4.137e-02		129.851		1.053e-02		12.678
5		0.00		5.20		4.430e-02		130.090		1.186e-02		10.008
5		0.00		5.60		4.775e-02		131.923		1.015e-02		6.962
5		0.00		6.00		4.959e-02		130.720		1.037e-02		9.618
5		0.00		6.40		5.099e-02		130.539		1.194e-02		12.537
5		0.00		6.80		5.381e-02		132.473		1.297e-02		9.774
5		0.00		7.20		5.784e-02		131.168		1.430e-02		10.559
5		0.00		7.60		5.988e-02		132.364		1.224e-02		7.584
5		0.00		8.00		5.880e-02		133.487		1.188e-02		10.332
5		0.00		8.40		6.011e-02		131.200		1.555e-02		18.700
5		0.00		8.80		6.336e-02		132.649		1.673e-02		18.669
5		0.00		9.20		6.417e-02		126.389		1.787e-02		32.833
5		0.00		9.60		6.660e-02		131.377		1.587e-02		11.042
5		0.00		10.00		6.067e-02		133.646		1.360e-02		12.927
5		0.00		9.60		6.309e-02		130.808		1.614e-02		15.873
5		0.00		9.20		6.254e-02		131.680		1.616e-02		14.019
5		0.00		8.80		6.032e-02		128.920		1.618e-02		20.953
5		0.00		8.40		5.980e-02		132.364		1.480e-02		8.836
5		0.00		8.00		5.635e-02		133.427		1.064e-02		6.362
5		0.00		7.60		5.280e-02		131.645		1.169e-02		10.309
5		0.00		7.20		4.990e-02		131.658		1.234e-02		13.098
5		0.00		6.80		4.663e-02		130.531		1.245e-02		13.504
5		0.00		6.40		4.405e-02		131.657		9.875e-03		8.099
5		0.00		6.00		4.121e-02		132.838		7.188e-03		6.600
5		0.00		5.60		3.753e-02		132.891		7.104e-03		8.201
5		0.00		5.20		3.309e-02		132.849		7.761e-03		11.745
5		0.00		4.80		2.988e-02		131.311		7.405e-03		10.514
5		0.00		4.40		2.686e-02		131.021		5.106e-03		7.180
5		0.00		4.00		2.334e-02		133.771		3.548e-03		6.894
5		0.00		3.60		1.925e-02		134.346		3.486e-03		9.042
5		0.00		3.20		1.475e-02		133.301		3.128e-03		16.615
5		0.00		2.80		1.078e-02		132.955		2.465e-03		9.448
5		0.00		2.40		6.522e-03		129.751		1.450e-03		13.896
5		0.00		2.00		2.335e-03		64.138		9.247e-04		73.419
5		0.00		1.60		3.383e-03		-47.311		1.228e-03		33.363
5		0.00		1.20		7.494e-03		-51.450		2.123e-03		18.969
5		0.00		0.80		1.218e-02		-51.392		2.729e-03		11.011
5		0.00		0.40		1.673e-02		-51.084		2.677e-03		9.037
5		0.00		0.00		2.104e-02		-48.479		3.427e-03		8.416
5		0.00		-0.40		2.458e-02		-49.591		5.671e-03		12.064
5		0.00		-0.80		2.848e-02		-50.094		6.883e-03		9.454
5		0.00		-1.20		3.340e-02		-51.929		6.082e-03		8.223
5		0.00		-1.60		3.731e-02		-51.238		6.834e-03		9.349
5		0.00		-2.00		4.053e-02		-52.079		8.772e-03		9.899
5		0.00		-2.40		4.338e-02		-52.354		1.072e-02		10.669
5		0.00		-2.80		4.770e-02		-53.622		1.104e-02		8.019
5		0.00		-3.20		5.174e-02		-53.267		9.769e-03		8.744
5		0.00		-3.60		5.363e-02		-52.607		1.038e-02		8.537
5		0.00		-4.00		5.630e-02		-53.212		1.356e-02		12.914
5		0.00		-4.40		5.980e-02		-50.931		1.425e-02		8.738
5		0.00		-4.80		6.262e-02		-50.521		1.117e-02		9.617
5		0.00		-5.20		6.277e-02		-47.448		1.116e-02		10.432
5		0.00		-5.60		6.560e-02		-46.062		1.430e-02		11.743
5		0.00		-6.00		6.553e-02		-47.269		1.631e-02		14.320
5		0.00		-6.40		6.753e-02		-45.054		1.504e-02		12.370
5		0.00		-6.80		6.720e-02		-49.949		1.689e-02		21.835
5		0.00		-7.20		6.828e-02		-39.174		1.606e-02		17.030
5		0.00		-7.60		6.938e-02		-42.828		2.014e-02		18.751
5		0.00		-8.00		6.560e-02		-40.455		1.814e-02		22.777
5		0.00		-8.40		7.041e-02		-38.600		1.580e-02		18.561
5		0.00		-8.80		6.662e-02		-44.481		1.797e-02		23.613
5		0.00		-9.20		6.521e-02		-38.732		2.026e-02		19.969
5		0.00		-9.60		6.265e-02		-40.210		1.925e-02		16.468
5		0.00		-10.00		5.778e-02		-39.982		1.707e-02		19.177
5		0.00		-9.60		6.071e-02		-39.201		1.592e-02		12.534
5		0.00		-9.20		6.605e-02		-39.861		1.697e-02		14.508
5		0.00		-8.80		6.560e-02		-48.155		2.029e-02		19.497
5		0.00		-8.40		6.853e-02		-40.949		2.028e-02		16.760
5		0.00		-8.00		6.943e-02		-45.728		1.769e-02		16.285
5		0.00		-7.60		6.804e-02		-42.810		1.621e-02		15.515
5		0.00		-7.20		6.432e-02		-48.512		1.541e-02		17.775
5		0.00		-6.80		6.567e-02		-48.229		1.651e-02		15.196
5		0.00		-6.40		6.423e-02		-46.190		1.698e-02		15.442
5		0.00		-6.00		6.447e-02		-47.276		1.278e-02		6.348
5		0.00		-5.60		5.896e-02		-49.804		1.076e-02		9.776
5		0.00		-5.20		5.611e-02		-49.974		1.132e-02		9.257
5		0.00		-4.80		5.377e-02		-50.457		1.211e-02		8.750
5		0.00		-4.40		5.009e-02		-52.123		1.116e-02		7.330
5		0.00		-4.00		4.727e-02		-51.338		7.962e-03		5.738
5		0.00		-3.60		4.282e-02		-50.651		7.230e-03		6.454
5		0.00		-3.20		3.779e-02		-50.201		7.921e-03		10.011
5		0.00		-2.80		3.349e-02		-49.998		7.588e-03		9.584
5		0.00		-2.40		2.979e-02		-49.846		4.802e-03		6.684
5		0.00		-2.00		2.527e-02		-49.311		4.187e-03		7.602
5		0.00		-1.60		2.106e-02		-50.026		4.668e-03		11.955
5		0.00		-1.20		1.599e-02		-47.456		3.758e-03		9.999
5		0.00		-0.80		1.212e-02		-45.154		2.360e-03		10.522
5		0.00		-0.40		7.889e-03		-38.560		1.594e-03		13.230
6		0.00		0.00		3.527e-03		-27.302		1.142e-03		25.710
6		0.00		0.40		2.202e-03		67.942		1.014e-03		59.310
6		0.00		0.80		5.946e-03		119.223		1.514e-03		13.916
6		0.00		1.20		1.028e-02		127.306		2.166e-03		11.301
6		0.00		1.60		1.386e-02		124.559		3.472e-03		14.425
6		0.00		2.00		1.811e-02		128.634		4.192e-03		11.570
6		0.00		2.40		2.309e-02		127.092		3.931e-03		7.849
6		0.00		2.80		2.641e-02		131.072		4.552e-03		8.190
6		0.00		3.20		2.983e-02		130.063		6.283e-03		11.916
6		0.00		3.60		3.329e-02		130.621		7.419e-03		8.807
6		0.00		4.00		3.772e-02		130.615		5.981e-03		6.233
6		0.00		4.40		4.019e-02		132.439		7.048e-03		7.805
6		0.00		4.80		4.279e-02		130.408		9.457e-03		11.699
6		0.00		5.20		4.581e-02		131.981		1.021e-02		7.125
6		0.00		5.60		4.948e-02		131.771		8.113e-03		5.041
6		0.00		6.00		5.073e-02		133.229		9.713e-03		10.194
6		0.00		6.40		5.307e-02		131.707		1.220e-02		12.829
6		0.00		6.80		5.483e-02		132.103		1.247e-02		7.323
6		0.00		7.20		5.689e-02		134.307		9.322e-03		6.636
6		0.00		7.60		5.734e-02		131.646		1.325e-02		12.608
6		0.00		8.00		6.029e-02		129.054		1.701e-02		18.002
6		0.00		8.40		6.328e-02		133.270		1.529e-02		8.054
6		0.00		8.80		6.211e-02		132.157		1.433e-02		13.585
6		0.00		9.20		6.140e-02		128.343		1.821e-02		23.108
6		0.00		9.60		6.231e-02		129.928		1.830e-02		21.389
6		0.00		10.00		6.187e-02		134.064		1.514e-02		8.722
6		0.00		9.60		5.977e-02		130.609		1.570e-02		16.275
6		0.00		9.20		6.197e-02		127.262		1.845e-02		19.477
6		0.00		8.80		6.099e-02		131.467		1.671e-02		15.463
6		0.00		8.40		5.866e-02		134.394		1.102e-02		6.701
6		0.00		8.00		5.516e-02		134.775		1.082e-02		8.031
6		0.00		7.60		5.291e-02		131.011		1.293e-02		18.866
6		0.00		7.20		5.087e-02		132.296		1.160e-02		8.509
6		0.00		6.80		4.855e-02		133.285		8.478e-03		5.946
6		0.00		6.40		4.431e-02		132.657		9.072e-03		9.180
6		0.00		6.00		4.125e-02		132.086		9.530e-03		11.358
6		0.00		5.60		3.809e-02		131.935		7.959e-03		6.646
6		0.00		5.20		3.497e-02		132.697		5.779e-03		8.161
6		0.00		4.80		3.076e-02		133.468		5.730e-03		9.396
6		0.00		4.40		2.665e-02		130.582		6.084e-03		14.594
6		0.00		4.00		2.322e-02		133.436		4.485e-03		7.324
6		0.00		3.60		1.946e-02		131.369		3.332e-03		9.580
6		0.00		3.20		1.461e-02		134.431		2.875e-03		12.410
6		0.00		2.80		1.070e-02		128.650		2.646e-03		15.133
6		0.00		2.40		6.417e-03		135.075		1.520e-03		14.669
6		0.00		2.00		2.446e-03		70.876		9.693e-04		70.055
6		0.00		1.60		2.942e-03		-41.298		1.264e-03		40.971
6		0.00		1.20		7.025e-03		-52.085		2.017e-03		16.057
6		0.00		0.80		1.179e-02		-49.637		2.490e-03		11.972
6		0.00		0.40		1.632e-02		-47.190		3.007e-03		8.834
6		0.00		0.00		2.005e-02		-49.463		4.527e-03		9.540
6		0.00		-0.40		2.397e-02		-50.298		5.648e-03		10.828
6		0.00		-0.80		2.966e-02		-51.130		4.699e-03		6.837
6		0.00		-1.20		3.430e-02		-50.467		4.984e-03		6.152
6		0.00		-1.60		3.701e-02		-50.705		6.820e-03		9.755
6		0.00		-2.00		4.038e-02		-51.308		8.716e-03		8.811
6		0.00		-2.40		4.484e-02		-51.930		7.479e-03		6.931
6		0.00		-2.80		4.853e-02		-51.740		7.842e-03		6.194
6		0.00		-3.20		5.030e-02		-51.731		1.050e-02		9.737
6		0.00		-3.60		5.469e-02		-52.659		1.246e-02		6.848
6		0.00		-4.00		5.781e-02		-52.136		1.076e-02		7.443
6		0.00		-4.40		5.889e-02		-52.092		1.143e-02		10.811
6		0.00		-4.80		6.131e-02		-51.668		1.431e-02		15.184
6		0.00		-5.20		6.479e-02		-49.483		1.633e-02		10.392
6		0.00		-5.60		6.337e-02		-48.749		1.400e-02		12.013
6		0.00		-6.00		6.315e-02		-44.380		1.166e-02		12.936
6		0.00		-6.40		6.723e-02		-44.825		1.817e-02		11.865
6		0.00		-6.80		6.437e-02		-44.277		1.855e-02		13.998
6		0.00		-7.20		6.973e-02		-38.687		1.666e-02		14.862
6		0.00		-7.60		6.922e-02		-42.620		1.874e-02		21.327
6		0.00		-8.00		6.440e-02		-40.028		2.057e-02		21.548
6		0.00		-8.40		6.732e-02		-38.542		1.730e-02		15.954
6		0.00		-8.80		6.948e-02		-35.990		1.724e-02		14.078
6		0.00		-9.20		6.739e-02		-38.993		2.030e-02		17.052
6		0.00		-9.60		6.248e-02		-38.921		1.853e-02		16.177
6		0.00		-10.00		6.064e-02		-41.832		1.517e-02		7.865
6		0.00		-9.60		6.336e-02		-44.729		1.609e-02		12.590
6		0.00		-9.20		6.589e-02		-40.471		1.900e-02		16.108
6		0.00		-8.80		6.787e-02		-42.565		1.812e-02		18.547
6		0.00		-8.40		6.990e-02		-42.738		1.694e-02		15.956
6		0.00		-8.00		6.950e-02		-39.014		1.447e-02		16.841
6		0.00		-7.60		6.944e-02		-45.383		1.865e-02		16.348
6		0.00		-7.20		6.720e-02		-44.322		1.750e-02		13.059
6		0.00		-6.80		6.619e-02		-44.841		1.450e-02		10.716
6		0.00		-6.40		6.498e-02		-47.767		1.324e-02		10.045
6		0.00		-6.00		6.239e-02		-48.397		1.332e-02		13.635
6		0.00		-5.60		5.865e-02		-48.648		1.480e-02		11.962
6		0.00		-5.20		5.774e-02		-49.706		1.155e-02		7.482
6		0.00		-4.80		5.475e-02		-49.877		8.888e-03		4.953
6		0.00		-4.40		4.971e-02		-51.502		1.140e-02		8.200
6		0.00		-4.00		4.554e-02		-50.991		1.138e-02		8.877
6		0.00		-3.60		4.249e-02		-53.092		8.495e-03		7.210
6		0.00		-3.20		3.871e-02		-51.789		6.751e-03		6.563
6		0.00		-2.80		3.380e-02		-49.814		7.126e-03		10.654
6		0.00		-2.40		2.871e-02		-49.551		6.942e-03		9.177
6		0.00		-2.00		2.568e-02		-49.377		4.527e-03		7.465
6		0.00		-1.60		2.106e-02		-47.772		3.802e-03		8.613
6		0.00		-1.20		1.646e-02		-49.271		3.595e-03		12.593
6		0.00		-0.80		1.247e-02		-42.614		2.588e-03		11.090
6		0.00		-0.40		8.518e-03		-42.908		1.684e-03		13.111
7		0.00		0.00		4.101e-03		-35.624		1.326e-03		25.825
7		0.00		0.40		2.286e-03		58.312		1.041e-03		54.368
7		0.00		0.80		5.552e-03		123.068		1.528e-03		17.764
7		0.00		1.20		9.898e-03		127.254		1.776e-03		12.152
7		0.00		1.60		1.386e-02		130.586		2.532e-03		13.807
7		0.00		2.00		1.760e-02		129.164		3.717e-03		9.951
7		0.00		2.40		2.225e-02		128.746		3.167e-03		7.358
7		0.00		2.80		2.665e-02		130.889		4.392e-03		7.596
7		0.00		3.20		2.913e-02		130.528		6.146e-03		11.563
7		0.00		3.60		3.270e-02		130.047		6.383e-03		8.038
7		0.00		4.00		3.608e-02		130.887		6.043e-03		7.827
7		0.00		4.40		3.852e-02		131.264		8.271e-03		9.350
7		0.00		4.80		4.126e-02		131.471		9.872e-03		8.342
7		0.00		5.20		4.442e-02		130.403		8.195e-03		6.456
7		0.00		5.60		4.712e-02		132.716		8.023e-03		6.302
7		0.00		6.00		4.840e-02		130.582		1.151e-02		13.663
7		0.00		6.40		5.132e-02		131.624		1.261e-02		8.559
7		0.00		6.80		5.513e-02		132.177		9.245e-03		6.496
7		0.00		7.20		5.542e-02		132.260		1.185e-02		9.791
7		0.00		7.60		5.791e-02		131.462		1.577e-02		13.803
7		0.00		8.00		6.009e-02		133.116		1.344e-02		9.857
7		0.00		8.40		6.025e-02		132.318		1.346e-02		13.946
7		0.00		8.80		5.993e-02		131.898		1.506e-02		19.495
7		0.00		9.20		6.417e-02		132.783		1.606e-02		17.026
7		0.00		9.60		6.364e-02		133.105		1.350e-02		10.983
7		0.00		10.00		6.040e-02		133.717		1.504e-02		14.205
7		0.00		9.60		6.322e-02		130.185		1.702e-02		19.311
7		0.00		9.20		6.228e-02		132.865		1.477e-02		9.739
7		0.00		8.80		5.972e-02		134.552		1.133e-02		9.790
7		0.00		8.40		5.782e-02		130.701		1.486e-02		16.825
7		0.00		8.00		5.598e-02		130.217		1.470e-02		19.191
7		0.00		7.60		5.459e-02		132.608		1.186e-02		7.409
7		0.00		7.20		5.038e-02		133.636		9.188e-03		6.029
7		0.00		6.80		4.672e-02		132.988		1.076e-02		10.447
7		0.00		6.40		4.307e-02		130.358		1.087e-02		11.560
7		0.00		6.00		4.075e-02		132.152		8.189e-03		8.895
7		0.00		5.60		3.703e-02		132.814		8.038e-03		9.157
7		0.00		5.20		3.303e-02		131.403		7.937e-03		12.986
7		0.00		4.80		2.958e-02		131.069		7.409e-03		10.310
7		0.00		4.40		2.667e-02		133.482		5.039e-03		8.524
7		0.00		4.00		2.259e-02		132.675		4.435e-03		10.022
7		0.00		3.60		1.796e-02		132.027		4.538e-03		18.760
7		0.00		3.20		1.469e-02		131.795		2.920e-03		9.382
7		0.00		2.80		1.048e-02		131.604		2.058e-03		12.189
7		0.00		2.40		6.180e-03		128.803		1.480e-03		31.720
7		0.00		2.00		2.336e-03		69.562		1.032e-03		62.341
7		0.00		1.60		3.231e-03		-46.743		1.225e-03		39.856
7		0.00		1.20		7.339e-03		-54.445		1.899e-03		15.853
7		0.00		0.80		1.171e-02		-47.887		2.599e-03		11.882
7		0.00		0.40		1.602e-02		-49.610		3.395e-03		9.301
7		0.00		0.00		2.085e-02		-49.240		3.368e-03		7.931
7		0.00		-0.40		2.520e-02		-50.374		4.277e-03		6.876
7		0.00		-0.80		2.853e-02		-50.367		6.029e-03		8.800
7		0.00		-1.20		3.274e-02		-50.736		5.608e-03		7.592
7		0.00		-1.60		3.749e-02		-49.472		5.776e-03		6.645
7		0.00		-2.00		4.044e-02		-50.018		7.981e-03		10.268
7		0.00		-2.40		4.482e-02		-52.473		9.524e-03		6.989
7		0.00		-2.80		4.848e-02		-51.097		7.510e-03		6.501
7		0.00		-3.20		5.072e-02		-50.697		8.414e-03		7.332
7		0.00		-3.60		5.378e-02		-52.492		1.283e-02		10.773
7		0.00		-4.00		5.673e-02		-53.365		1.280e-02		8.367
7		0.00		-4.40		5.963e-02		-51.961		9.935e-03		8.295
7		0.00		-4.80		6.172e-02		-50.389		1.297e-02		12.431
7		0.00		-5.20		6.306e-02		-48.993		1.573e-02		11.355
7		0.00		-5.60		6.694e-02		-47.084		1.430e-02		7.509
7		0.00		-6.00		6.310e-02		-49.253		1.482e-02		18.935
7		0.00		-6.40		6.863e-02		-47.349		1.722e-02		14.248
7		0.00		-6.80		6.770e-02		-41.518		1.716e-02		12.296
7		0.00		-7.20		7.336e-02		-44.022		1.588e-02		14.349
7		0.00		-7.60		7.172e-02		-43.846		1.743e-02		18.428
7		0.00		-8.00		7.025e-02		-36.855		1.979e-02		15.795
7		0.00		-8.40		6.964e-02		-47.568		1.802e-02		19.307
7		0.00		-8.80		6.998e-02		-43.110		1.684e-02		20.089
7		0.00		-9.20		6.612e-02		-38.586		1.689e-02		17.121
7		0.00		-9.60		6.177e-02		-39.243		1.806e-02		23.855
7		0.00		-10.00		5.864e-02		-41.595		1.474e-02		13.398
7		0.00		-9.60		6.352e-02		-42.394		1.583e-02		14.198
7		0.00		-9.20		6.460e-02		-35.574		1.719e-02		16.551
7		0.00		-8.80		6.613e-02		-36.111		1.827e-02		18.869
7		0.00		-8.40		7.137e-02		-45.145		1.701e-02		15.073
7		0.00		-8.00		6.798e-02		-43.831		1.838e-02		20.761
7		0.00		-7.60		6.596e-02		-41.968		1.720e-02		18.357
7		0.00		-7.20		6.596e-02		-44.995		1.902e-02		17.080
7		0.00		-6.80		6.598e-02		-44.435		1.631e-02		9.281
7		0.00		-6.40		6.458e-02		-48.238		1.356e-02		11.706
7		0.00		-6.00		5.973e-02		-49.734		1.456e-02		15.839
7		0.00		-5.60		5.851e-02		-48.789		1.489e-02		12.175
7		0.00		-5.20		5.767e-02		-50.070		1.433e-02		7.310
7		0.00		-4.80		5.360e-02		-50.439		9.276e-03		6.188
7		0.00		-4.40		4.992e-02		-51.551		8.550e-03		7.405
7		0.00		-4.00		4.614e-02		-51.491		9.341e-03		7.895
7		0.00		-3.60		4.169e-02		-50.935		9.383e-03		8.356
7		0.00		-3.20		3.896e-02		-51.290		6.674e-03		7.274
7		0.00		-2.80		3.572e-02		-49.824		5.315e-03		6.538
7		0.00		-2.40		3.121e-02		-47.116		5.009e-03		7.323
7		0.00		-2.00		2.633e-02		-48.724		5.029e-03		11.384
7		0.00		-1.60		2.215e-02		-46.623		3.901e-03		8.126
7		0.00		-1.20		1.785e-02		-49.357		2.402e-03		8.302
7		0.00		-0.80		1.354e-02		-44.992		1.990e-03		10.702
7		0.00		-0.40		8.490e-03		-36.731		1.850e-03		15.571
8		0.00		0.00		4.201e-03		-39.436		1.346e-03		20.517
8		0.00		0.40		1.869e-03		20.100		8.607e-04		56.732
8		0.00		0.80		4.574e-03		116.475		1.274e-03		16.929
8		0.00		1.20		9.079e-03		127.349		1.883e-03		12.434
8		0.00		1.60		1.319e-02		127.167		3.048e-03		11.973
8		0.00		2.00		1.756e-02		127.679		3.437e-03		9.135
8		0.00		2.40		2.165e-02		128.942		3.435e-03		10.045
8		0.00		2.80		2.550e-02		130.837		4.601e-03		8.580
8		0.00		3.20		2.781e-02		129.674		6.736e-03		13.080
8		0.00		3.60		3.178e-02		130.491		7.450e-03		8.593
8		0.00		4.00		3.570e-02		130.164		5.982e-03		7.720
8		0.00		4.40		3.779e-02		132.478		7.219e-03		7.445
8		0.00		4.80		3.986e-02		131.187		9.685e-03		11.597
8		0.00		5.20		4.347e-02		130.822		9.880e-03		7.300
8		0.00		5.60		4.675e-02		131.740		7.991e-03		5.924
8		0.00		6.00		4.836e-02		132.938		8.977e-03		7.150
8		0.00		6.40		5.065e-02		130.360		1.182e-02		14.876
8		0.00		6.80		5.348e-02		131.684		1.303e-02		9.826
8		0.00		7.20		5.621e-02		133.269		1.003e-02		6.686
8		0.00		7.60		5.701e-02		133.405		1.182e-02		9.060
8		0.00		8.00		5.959e-02		130.679		1.587e-02		17.306
8		0.00		8.40		6.110e-02		134.176		1.501e-02		11.595
8		0.00		8.80		6.153e-02		133.888		1.283e-02		11.582
8		0.00		9.20		6.154e-02		129.658		1.615e-02		17.803
8		0.00		9.60		6.256e-02		128.393		1.851e-02		27.468
8		0.00		10.00		6.162e-02		132.922		1.724e-02		15.852
8		0.00		9.60		6.192e-02		132.568		1.410e-02		10.267
8		0.00		9.20		5.860e-02		128.641		1.680e-02		19.888
8		0.00		8.80		5.796e-02		127.462		1.690e-02		25.011
8		0.00		8.40		5.699e-02		131.986		1.565e-02		12.092
8		0.00		8.00		5.451e-02		133.346		1.107e-02		6.574
8		0.00		7.60		5.127e-02		132.474		1.175e-02		11.246
8		0.00		7.20		4.879e-02		130.498		1.281e-02		16.986
8		0.00		6.80		4.660e-02		131.241		1.207e-02		10.725
8		0.00		6.40		4.371e-02		132.144		8.471e-03		6.650
8		0.00		6.00		4.064e-02		133.443		7.831e-03		8.143
8		0.00		5.60		3.694e-02		132.795		8.087e-03		11.897
8		0.00		5.20		3.381e-02		131.636		7.598e-03		9.026
8		0.00		4.80		3.112e-02		133.274		4.965e-03		7.001
8		0.00		4.40		2.703e-02		133.893		4.158e-03		7.928
8		0.00		4.00		2.270e-02		133.007		4.324e-03		12.919
8		0.00		3.60		1.899e-02		133.915		3.889e-03		9.496
8		0.00		3.20		1.444e-02		132.000		2.121e-03		8.520
8		0.00		2.80		1.079e-02		131.048		1.746e-03		9.254
8		0.00		2.40		6.025e-03		132.205		1.368e-03		20.096
8		0.00		2.00		2.561e-03		78.766		1.087e-03		71.192
8		0.00		1.60		2.657e-03		-59.198		1.023e-03		36.304
8		0.00		1.20		7.460e-03		-54.854		1.917e-03		14.376
8		0.00		0.80		1.133e-02		-53.829		2.800e-03		13.084
8		0.00		0.40		1.583e-02		-46.784		3.661e-03		10.357
8		0.00		0.00		2.051e-02		-48.516		3.376e-03		7.858
8		0.00		-0.40		2.514e-02		-48.539		3.890e-03		8.234
8		0.00		-0.80		2.918e-02		-50.292		5.530e-03		7.772
8		0.00		-1.20		3.260e-02		-50.172		7.199e-03		8.780
8		0.00		-1.60		3.801e-02		-51.818		6.212e-03		7.193
8		0.00		-2.00		4.214e-02		-50.949		6.183e-03		6.024
8		0.00		-2.40		4.449e-02		-50.649		8.723e-03		8.836
8		0.00		-2.80		4.787e-02		-51.340		1.060e-02		8.741
8		0.00		-3.20		5.237e-02		-52.735		9.581e-03		6.920
8		0.00		-3.60		5.475e-02		-52.051		7.778e-03		5.340
8		0.00		-4.00		5.728e-02		-52.928		1.187e-02		11.223
8		0.00		-4.40		5.933e-02		-50.767		1.372e-02		9.627
8		0.00		-4.80		6.421e-02		-50.645		1.249e-02		7.069
8		0.00		-5.20		6.297e-02		-48.770		1.152e-02		11.257
8		0.00		-5.60		6.484e-02		-48.645		1.507e-02		16.965
8		0.00		-6.00		6.475e-02		-42.954		1.652e-02		13.486
8		0.00		-6.40		6.995e-02		-42.753		1.600e-02		12.270
8		0.00		-6.80		6.547e-02		-40.421		1.419e-02		18.454
8		0.00		-7.20		7.062e-02		-44.447		1.648e-02		18.752
8		0.00		-7.60		6.758e-02		-38.452		1.935e-02		18.583
8		0.00		-8.00		6.947e-02		-40.960		1.899e-02		19.210
8		0.00		-8.40		6.948e-02		-42.056		1.850e-02		20.449
8		0.00		-8.80		6.739e-02		-38.194		1.902e-02		17.121
8		0.00		-9.20		6.564e-02		-41.885		2.161e-02		19.976
8		0.00		-9.60		6.345e-02		-40.648		1.964e-02		19.776
8		0.00		-10.00		5.710e-02		-40.706		1.418e-02		9.033
8		0.00		-9.60		6.066e-02		-41.253		1.833e-02		13.582
8		0.00		-9.20		6.220e-02		-43.597		2.000e-02		21.480
8		0.00		-8.80		6.308e-02		-36.848		1.750e-02		17.615
8		0.00		-8.40		6.746e-02		-42.169		1.683e-02		14.223
8		0.00		-8.00		6.752e-02		-44.727		1.668e-02		15.321
8		0.00		-7.60		6.825e-02		-43.487		2.003e-02		14.891
8		0.00		-7.20		6.715e-02		-44.542		1.634e-02		10.370
8		0.00		-6.80		6.762e-02		-43.775		1.228e-02		7.751
8		0.00		-6.40		6.354e-02		-47.314		1.263e-02		12.413
8		0.00		-6.00		6.040e-02		-48.734		1.352e-02		11.064
8		0.00		-5.60		6.093e-02		-49.466		1.417e-02		9.948
8		0.00		-5.20		5.764e-02		-49.978		1.157e-02		7.754
8		0.00		-4.80		5.413e-02		-49.590		8.398e-03		6.002
8		0.00		-4.40		4.960e-02		-51.729		9.099e-03		10.071
8		0.00		-4.00		4.602e-02		-49.816		9.755e-03		8.074
8		0.00		-3.60		4.271e-02		-51.486		7.775e-03		7.060
8		0.00		-3.20		3.913e-02		-50.306		5.362e-03		6.467
8		0.00		-2.80		3.453e-02		-50.076		5.517e-03		5.701
8		0.00		-2.40		2.924e-02		-49.822		6.145e-03		8.558
8		0.00		-2.00		2.535e-02		-49.469		4.852e-03		8.374
8		0.00		-1.60		2.139e-02		-48.679		3.189e-03		7.712
8		0.00		-1.20		1.718e-02		-47.914		2.931e-03		8.909
8		0.00		-0.80		1.236e-02		-44.890		2.539e-03		9.176
8		0.00		-0.40		7.724e-03		-41.917		1.686e-03		13.493
