# Date of analysis: 2024-03-08 10;58
# Segment other properties: height: -38.336650058405695, diff height: 534.4669750371096, deflection: 34.052803843302485, deflection error: 4.747857807321258, adhesion: 28.85452728981618, phase offset: 0
# 
# Loop index	Read Volt (V)	Write Volt (V)	Amplitude (a.u)	Phase (deg)	Sigma Amp (a.u)	Sigma Pha (deg)	
1		0.00		0.00		3.777e-02		-44.610		1.516e-02		29.826
1		0.00		0.40		2.932e-02		-43.549		1.252e-02		32.588
1		0.00		0.80		2.195e-02		-48.148		9.948e-03		25.280
1		0.00		1.20		1.563e-02		-52.665		7.612e-03		33.054
1		0.00		1.60		9.946e-03		-63.935		5.006e-03		34.565
1		0.00		2.00		5.005e-03		-71.720		2.323e-03		51.571
1		0.00		2.40		3.379e-03		14.057		2.345e-03		81.898
1		0.00		2.80		6.784e-03		91.106		2.441e-03		45.844
1		0.00		3.20		1.110e-02		97.535		3.704e-03		52.020
1		0.00		3.60		1.434e-02		112.257		4.912e-03		49.685
1		0.00		4.00		1.754e-02		106.378		5.558e-03		48.847
1		0.00		4.40		2.058e-02		113.829		6.934e-03		43.184
1		0.00		4.80		2.334e-02		116.970		8.041e-03		40.874
1		0.00		5.20		2.464e-02		111.799		8.349e-03		43.281
1		0.00		5.60		2.505e-02		111.545		9.021e-03		46.672
1		0.00		6.00		2.682e-02		115.825		9.722e-03		39.653
1		0.00		6.40		2.681e-02		111.426		9.950e-03		42.480
1		0.00		6.80		2.842e-02		112.160		1.060e-02		40.976
1		0.00		7.20		3.170e-02		115.218		1.161e-02		40.639
1		0.00		7.60		3.320e-02		108.489		1.285e-02		47.055
1		0.00		8.00		3.287e-02		108.581		1.334e-02		46.510
1		0.00		8.40		3.444e-02		107.729		1.519e-02		50.504
1		0.00		8.80		3.833e-02		116.369		1.650e-02		54.628
1		0.00		9.20		3.636e-02		117.193		1.616e-02		54.193
1		0.00		9.60		3.460e-02		110.490		1.503e-02		55.273
1		0.00		10.00		3.416e-02		109.410		1.475e-02		58.929
1		0.00		9.60		3.394e-02		112.742		1.408e-02		53.710
1		0.00		9.20		3.412e-02		118.563		1.383e-02		52.319
1		0.00		8.80		3.400e-02		116.216		1.346e-02		52.618
1		0.00		8.40		3.140e-02		124.592		1.196e-02		49.015
1		0.00		8.00		3.059e-02		117.793		1.249e-02		49.982
1		0.00		7.60		3.157e-02		120.918		1.215e-02		53.743
1		0.00		7.20		3.128e-02		124.249		1.176e-02		45.610
1		0.00		6.80		2.943e-02		124.054		1.122e-02		46.725
1		0.00		6.40		2.720e-02		121.077		1.048e-02		47.483
1		0.00		6.00		2.528e-02		121.034		9.221e-03		49.498
1		0.00		5.60		2.345e-02		119.142		8.460e-03		48.576
1		0.00		5.20		1.909e-02		116.461		6.653e-03		55.015
1		0.00		4.80		1.598e-02		118.615		5.420e-03		51.327
1		0.00		4.40		1.188e-02		114.190		4.345e-03		52.658
1		0.00		4.00		7.186e-03		83.839		2.896e-03		88.965
1		0.00		3.60		4.728e-03		33.068		1.879e-03		101.493
1		0.00		3.20		4.597e-03		-88.497		2.318e-03		70.901
1		0.00		2.80		7.301e-03		-98.313		2.990e-03		25.674
1		0.00		2.40		1.215e-02		-74.392		4.551e-03		20.326
1		0.00		2.00		1.867e-02		-61.088		6.493e-03		17.433
1		0.00		1.60		2.433e-02		-57.222		8.298e-03		15.474
1		0.00		1.20		3.059e-02		-54.584		9.859e-03		15.749
1		0.00		0.80		3.639e-02		-53.191		1.126e-02		14.875
1		0.00		0.40		4.164e-02		-49.389		1.214e-02		14.200
1		0.00		0.00		4.625e-02		-49.684		1.358e-02		15.578
1		0.00		-0.40		4.973e-02		-48.154		1.407e-02		14.943
1		0.00		-0.80		4.993e-02		-48.889		1.449e-02		16.292
1		0.00		-1.20		5.415e-02		-48.756		1.567e-02		15.082
1		0.00		-1.60		5.538e-02		-48.275		1.637e-02		16.912
1		0.00		-2.00		5.386e-02		-48.222		1.642e-02		18.667
1		0.00		-2.40		5.567e-02		-44.038		1.660e-02		18.891
1		0.00		-2.80		5.622e-02		-49.604		1.746e-02		21.727
1		0.00		-3.20		5.328e-02		-48.447		1.753e-02		25.678
1		0.00		-3.60		5.688e-02		-45.703		1.928e-02		22.652
1		0.00		-4.00		5.444e-02		-50.466		2.013e-02		31.534
1		0.00		-4.40		5.748e-02		-49.767		2.150e-02		27.750
1		0.00		-4.80		5.952e-02		-47.804		2.283e-02		22.935
1		0.00		-5.20		5.968e-02		-43.909		2.435e-02		28.032
1		0.00		-5.60		5.659e-02		-49.373		2.408e-02		30.861
1		0.00		-6.00		5.698e-02		-50.976		2.556e-02		37.531
1		0.00		-6.40		5.646e-02		-44.667		2.613e-02		40.272
1		0.00		-6.80		5.766e-02		-50.293		2.482e-02		36.901
1		0.00		-7.20		5.276e-02		-53.253		2.497e-02		42.662
1		0.00		-7.60		5.860e-02		-41.141		2.445e-02		39.041
1		0.00		-8.00		5.702e-02		-45.459		2.484e-02		42.340
1		0.00		-8.40		5.915e-02		-44.249		2.538e-02		36.841
1		0.00		-8.80		5.805e-02		-39.401		2.393e-02		36.335
1		0.00		-9.20		5.446e-02		-31.233		2.305e-02		35.051
1		0.00		-9.60		4.895e-02		-39.826		2.309e-02		42.103
1		0.00		-10.00		5.059e-02		-29.295		2.112e-02		35.118
1		0.00		-9.60		4.865e-02		-35.905		2.397e-02		43.283
1		0.00		-9.20		5.058e-02		-31.416		2.376e-02		38.682
1		0.00		-8.80		4.818e-02		-40.948		2.453e-02		45.045
1		0.00		-8.40		5.926e-02		-32.511		2.649e-02		35.458
1		0.00		-8.00		5.562e-02		-32.492		2.266e-02		31.489
1		0.00		-7.60		5.266e-02		-41.411		2.261e-02		40.109
1		0.00		-7.20		5.425e-02		-32.411		2.221e-02		35.408
1		0.00		-6.80		5.524e-02		-44.721		2.114e-02		27.539
1		0.00		-6.40		5.353e-02		-31.710		2.076e-02		25.705
1		0.00		-6.00		5.580e-02		-39.905		2.112e-02		21.483
1		0.00		-5.60		5.224e-02		-51.608		2.163e-02		26.697
1		0.00		-5.20		5.291e-02		-46.283		2.132e-02		25.318
1		0.00		-4.80		5.087e-02		-44.536		1.812e-02		19.007
1		0.00		-4.40		5.039e-02		-46.431		1.653e-02		18.555
1		0.00		-4.00		5.056e-02		-45.571		1.480e-02		12.714
1		0.00		-3.60		4.687e-02		-46.453		1.437e-02		12.502
1		0.00		-3.20		4.468e-02		-48.214		1.402e-02		12.519
1		0.00		-2.80		4.102e-02		-50.662		1.398e-02		13.989
1		0.00		-2.40		3.746e-02		-50.446		1.268e-02		12.613
1		0.00		-2.00		3.389e-02		-50.429		1.160e-02		13.082
1		0.00		-1.60		2.887e-02		-51.085		1.016e-02		13.023
1		0.00		-1.20		2.372e-02		-51.419		8.945e-03		13.263
1		0.00		-0.80		1.850e-02		-51.044		7.282e-03		14.758
1		0.00		-0.40		1.300e-02		-52.389		5.187e-03		15.850
2		0.00		0.00		7.506e-03		-60.340		3.101e-03		28.451
2		0.00		0.40		2.917e-03		-61.701		1.577e-03		65.480
2		0.00		0.80		4.942e-03		76.317		2.105e-03		77.582
2		0.00		1.20		9.863e-03		113.129		3.572e-03		51.966
2		0.00		1.60		1.439e-02		122.571		5.045e-03		47.164
2		0.00		2.00		1.799e-02		132.312		6.230e-03		31.451
2		0.00		2.40		2.068e-02		127.352		7.262e-03		35.029
2		0.00		2.80		2.354e-02		123.039		8.298e-03		38.946
2		0.00		3.20		2.476e-02		121.190		8.968e-03		38.108
2		0.00		3.60		2.517e-02		117.523		8.848e-03		44.889
2		0.00		4.00		2.604e-02		116.556		8.687e-03		52.239
2		0.00		4.40		2.867e-02		120.577		9.272e-03		49.774
2		0.00		4.80		2.914e-02		124.883		9.630e-03		50.149
2		0.00		5.20		3.221e-02		126.065		9.896e-03		50.924
2		0.00		5.60		3.382e-02		124.477		1.067e-02		44.609
2		0.00		6.00		3.757e-02		135.343		1.116e-02		31.598
2		0.00		6.40		3.873e-02		130.779		1.195e-02		36.765
2		0.00		6.80		4.054e-02		134.968		1.309e-02		29.027
2		0.00		7.20		4.220e-02		136.102		1.480e-02		29.507
2		0.00		7.60		3.842e-02		111.172		1.558e-02		45.101
2		0.00		8.00		4.021e-02		119.940		1.661e-02		43.919
2		0.00		8.40		4.093e-02		114.246		1.699e-02		48.146
2		0.00		8.80		4.087e-02		100.237		1.936e-02		53.245
2		0.00		9.20		4.678e-02		109.889		1.861e-02		59.403
2		0.00		9.60		4.546e-02		111.286		1.803e-02		61.653
2		0.00		10.00		4.369e-02		117.607		1.869e-02		54.625
2		0.00		9.60		4.157e-02		119.276		1.681e-02		52.527
2		0.00		9.20		4.226e-02		115.231		1.694e-02		66.212
2		0.00		8.80		3.719e-02		119.723		1.473e-02		49.279
2		0.00		8.40		3.604e-02		124.319		1.408e-02		48.859
2		0.00		8.00		3.462e-02		127.949		1.235e-02		45.278
2		0.00		7.60		3.481e-02		125.106		1.130e-02		47.563
2		0.00		7.20		3.656e-02		120.256		1.187e-02		45.292
2		0.00		6.80		3.426e-02		125.732		1.144e-02		44.740
2		0.00		6.40		3.394e-02		133.655		1.153e-02		33.316
2		0.00		6.00		3.014e-02		135.000		1.117e-02		34.585
2		0.00		5.60		2.857e-02		133.539		1.045e-02		35.194
2		0.00		5.20		2.330e-02		121.526		8.551e-03		46.134
2		0.00		4.80		1.905e-02		120.147		7.228e-03		48.801
2		0.00		4.40		1.415e-02		105.912		5.209e-03		64.747
2		0.00		4.00		9.783e-03		75.760		3.855e-03		97.260
2		0.00		3.60		6.116e-03		39.990		2.398e-03		102.532
2		0.00		3.20		4.888e-03		-86.806		2.418e-03		69.815
2		0.00		2.80		6.856e-03		-87.277		2.883e-03		52.582
2		0.00		2.40		1.215e-02		-75.978		4.673e-03		26.052
2		0.00		2.00		1.755e-02		-65.767		6.700e-03		18.568
2		0.00		1.60		2.317e-02		-58.781		8.863e-03		16.659
2		0.00		1.20		2.924e-02		-56.774		1.038e-02		14.590
2		0.00		0.80		3.472e-02		-53.147		1.177e-02		13.716
2		0.00		0.40		4.043e-02		-50.907		1.347e-02		15.541
2		0.00		0.00		4.454e-02		-48.770		1.439e-02		15.291
2		0.00		-0.40		4.790e-02		-48.340		1.477e-02		15.383
2		0.00		-0.80		4.958e-02		-50.505		1.500e-02		17.438
2		0.00		-1.20		5.045e-02		-49.157		1.517e-02		17.548
2		0.00		-1.60		5.099e-02		-47.471		1.709e-02		18.592
2		0.00		-2.00		5.111e-02		-51.496		1.841e-02		23.668
2		0.00		-2.40		4.931e-02		-48.809		1.667e-02		22.286
2		0.00		-2.80		5.203e-02		-51.759		2.060e-02		24.332
2		0.00		-3.20		4.878e-02		-62.169		2.162e-02		34.376
2		0.00		-3.60		5.307e-02		-58.332		2.606e-02		41.266
2		0.00		-4.00		5.551e-02		-44.412		2.198e-02		29.483
2		0.00		-4.40		5.745e-02		-46.262		2.157e-02		28.910
2		0.00		-4.80		5.773e-02		-36.141		2.400e-02		41.708
2		0.00		-5.20		5.456e-02		-48.271		2.628e-02		41.687
2		0.00		-5.60		5.785e-02		-39.049		2.573e-02		38.083
2		0.00		-6.00		5.908e-02		-32.865		2.376e-02		31.654
2		0.00		-6.40		5.921e-02		-37.210		2.359e-02		30.377
2		0.00		-6.80		5.649e-02		-53.309		2.464e-02		37.925
2		0.00		-7.20		6.320e-02		-35.546		2.290e-02		32.004
2		0.00		-7.60		5.780e-02		-52.092		2.431e-02		39.724
2		0.00		-8.00		6.061e-02		-31.564		2.275e-02		33.904
2		0.00		-8.40		5.828e-02		-49.296		2.328e-02		38.467
2		0.00		-8.80		6.104e-02		-43.366		2.397e-02		33.225
2		0.00		-9.20		5.312e-02		-41.084		2.471e-02		37.617
2		0.00		-9.60		4.526e-02		-39.795		2.152e-02		37.422
2		0.00		-10.00		3.857e-02		-50.834		1.956e-02		42.590
2		0.00		-9.60		3.853e-02		-44.138		2.172e-02		54.059
2		0.00		-9.20		4.879e-02		-35.706		2.306e-02		46.328
2		0.00		-8.80		5.880e-02		-33.015		2.583e-02		34.698
2		0.00		-8.40		6.006e-02		-26.614		2.728e-02		46.623
2		0.00		-8.00		5.820e-02		-30.929		2.399e-02		33.948
2		0.00		-7.60		6.024e-02		-33.402		2.402e-02		39.000
2		0.00		-7.20		5.688e-02		-35.729		2.499e-02		35.202
2		0.00		-6.80		5.140e-02		-47.708		2.264e-02		37.014
2		0.00		-6.40		5.540e-02		-34.612		2.359e-02		34.738
2		0.00		-6.00		5.441e-02		-47.515		2.087e-02		33.547
2		0.00		-5.60		5.437e-02		-43.307		2.042e-02		25.069
2		0.00		-5.20		5.349e-02		-45.217		1.839e-02		23.017
2		0.00		-4.80		5.521e-02		-38.845		1.847e-02		16.185
2		0.00		-4.40		4.853e-02		-43.203		1.632e-02		19.132
2		0.00		-4.00		4.543e-02		-46.392		1.605e-02		18.296
2		0.00		-3.60		4.773e-02		-55.449		1.849e-02		17.488
2		0.00		-3.20		4.648e-02		-53.928		1.790e-02		20.919
2		0.00		-2.80		4.408e-02		-50.467		1.730e-02		18.048
2		0.00		-2.40		4.144e-02		-51.153		1.670e-02		26.162
2		0.00		-2.00		3.723e-02		-50.868		1.490e-02		24.965
2		0.00		-1.60		3.375e-02		-51.826		1.303e-02		23.133
2		0.00		-1.20		2.836e-02		-49.512		1.041e-02		17.874
2		0.00		-0.80		2.372e-02		-53.016		8.230e-03		13.935
2		0.00		-0.40		1.922e-02		-57.206		6.383e-03		14.136
3		0.00		0.00		1.302e-02		-57.188		3.848e-03		15.673
3		0.00		0.40		7.497e-03		-77.967		2.064e-03		21.457
3		0.00		0.80		3.236e-03		-87.466		1.294e-03		49.030
3		0.00		1.20		4.833e-03		75.418		2.035e-03		91.553
3		0.00		1.60		9.476e-03		109.429		3.229e-03		65.458
3		0.00		2.00		1.472e-02		120.889		4.898e-03		50.348
3		0.00		2.40		2.009e-02		122.629		6.763e-03		39.780
3		0.00		2.80		2.504e-02		126.714		8.711e-03		36.437
3		0.00		3.20		2.866e-02		127.541		1.032e-02		41.980
3		0.00		3.60		2.907e-02		130.249		1.065e-02		38.732
3		0.00		4.00		3.054e-02		135.455		1.146e-02		30.366
3		0.00		4.40		2.953e-02		128.376		1.121e-02		36.202
3		0.00		4.80		3.149e-02		124.703		1.233e-02		44.448
3		0.00		5.20		3.074e-02		124.574		1.144e-02		47.643
3		0.00		5.60		3.306e-02		127.494		1.141e-02		41.625
3		0.00		6.00		3.703e-02		123.353		1.253e-02		43.162
3		0.00		6.40		3.860e-02		135.947		1.291e-02		33.369
3		0.00		6.80		4.072e-02		133.620		1.359e-02		30.593
3		0.00		7.20		4.187e-02		126.997		1.557e-02		41.280
3		0.00		7.60		4.229e-02		115.843		1.735e-02		44.042
3		0.00		8.00		4.300e-02		107.971		1.786e-02		56.032
3		0.00		8.40		4.371e-02		102.219		1.738e-02		63.714
3		0.00		8.80		4.733e-02		111.042		1.965e-02		57.785
3		0.00		9.20		4.738e-02		108.155		2.019e-02		66.609
3		0.00		9.60		4.674e-02		108.849		1.967e-02		64.188
3		0.00		10.00		4.630e-02		119.925		1.861e-02		57.343
3		0.00		9.60		4.143e-02		102.661		1.741e-02		80.088
3		0.00		9.20		4.175e-02		107.816		1.573e-02		74.006
3		0.00		8.80		4.173e-02		121.175		1.476e-02		56.870
3		0.00		8.40		3.955e-02		126.547		1.498e-02		41.901
3		0.00		8.00		4.005e-02		128.541		1.572e-02		38.620
3		0.00		7.60		3.805e-02		127.999		1.498e-02		33.413
3		0.00		7.20		3.504e-02		111.871		1.557e-02		40.509
3		0.00		6.80		3.748e-02		118.557		1.382e-02		43.769
3		0.00		6.40		3.817e-02		124.500		1.434e-02		42.554
3		0.00		6.00		3.341e-02		136.095		1.277e-02		34.119
3		0.00		5.60		2.932e-02		135.088		1.111e-02		33.068
3		0.00		5.20		2.574e-02		128.451		9.412e-03		41.366
3		0.00		4.80		2.103e-02		117.026		7.289e-03		57.059
3		0.00		4.40		1.621e-02		120.600		5.450e-03		58.630
3		0.00		4.00		1.131e-02		101.827		3.691e-03		80.448
3		0.00		3.60		5.898e-03		4.030		2.463e-03		111.696
3		0.00		3.20		5.629e-03		-113.176		2.164e-03		21.533
3		0.00		2.80		1.067e-02		-75.114		3.557e-03		17.958
3		0.00		2.40		1.582e-02		-66.147		6.587e-03		17.034
3		0.00		2.00		1.981e-02		-62.887		8.334e-03		18.968
3		0.00		1.60		2.651e-02		-58.227		1.081e-02		20.028
3		0.00		1.20		3.317e-02		-54.967		1.362e-02		16.689
3		0.00		0.80		3.915e-02		-53.134		1.503e-02		13.518
3		0.00		0.40		4.330e-02		-53.321		1.604e-02		13.654
3		0.00		0.00		4.837e-02		-50.288		1.607e-02		13.121
3		0.00		-0.40		4.958e-02		-48.399		1.473e-02		14.694
3		0.00		-0.80		4.930e-02		-48.695		1.517e-02		18.436
3		0.00		-1.20		4.924e-02		-49.413		1.608e-02		21.348
3		0.00		-1.60		5.151e-02		-46.882		1.813e-02		18.591
3		0.00		-2.00		5.363e-02		-54.317		2.290e-02		30.231
3		0.00		-2.40		5.578e-02		-49.593		2.217e-02		30.372
3		0.00		-2.80		5.520e-02		-38.823		2.416e-02		33.947
3		0.00		-3.20		5.879e-02		-45.030		2.384e-02		26.225
3		0.00		-3.60		5.470e-02		-55.020		2.361e-02		30.727
3		0.00		-4.00		5.972e-02		-39.004		2.182e-02		27.493
3		0.00		-4.40		5.664e-02		-38.277		2.061e-02		28.833
3		0.00		-4.80		5.620e-02		-28.139		2.108e-02		26.580
3		0.00		-5.20		5.189e-02		-34.354		2.127e-02		34.359
3		0.00		-5.60		4.781e-02		-70.809		2.552e-02		49.900
3		0.00		-6.00		5.484e-02		-33.371		2.485e-02		35.617
3		0.00		-6.40		5.615e-02		-51.285		2.495e-02		41.428
3		0.00		-6.80		6.026e-02		-35.911		2.497e-02		35.062
3		0.00		-7.20		5.990e-02		-30.355		2.337e-02		31.529
3		0.00		-7.60		5.427e-02		-40.472		2.503e-02		47.806
3		0.00		-8.00		5.968e-02		-25.070		2.393e-02		35.356
3		0.00		-8.40		5.889e-02		-40.591		2.317e-02		38.351
3		0.00		-8.80		5.654e-02		-35.445		2.423e-02		40.740
3		0.00		-9.20		5.625e-02		-35.579		2.600e-02		38.927
3		0.00		-9.60		4.938e-02		-35.901		2.185e-02		37.859
3		0.00		-10.00		4.642e-02		-36.673		2.246e-02		30.464
3		0.00		-9.60		5.419e-02		-32.043		2.341e-02		35.479
3		0.00		-9.20		5.394e-02		-27.492		2.371e-02		34.878
3		0.00		-8.80		5.698e-02		-29.969		1.997e-02		34.373
3		0.00		-8.40		5.532e-02		-32.120		2.093e-02		36.873
3		0.00		-8.00		5.376e-02		-44.456		2.474e-02		39.860
3		0.00		-7.60		4.989e-02		-55.604		2.627e-02		50.292
3		0.00		-7.20		5.641e-02		-49.723		2.635e-02		43.773
3		0.00		-6.80		5.646e-02		-35.022		2.451e-02		36.943
3		0.00		-6.40		5.370e-02		-35.468		2.139e-02		28.744
3		0.00		-6.00		5.189e-02		-33.077		1.956e-02		28.924
3		0.00		-5.60		5.195e-02		-27.515		1.815e-02		24.364
3		0.00		-5.20		4.986e-02		-45.910		1.718e-02		29.934
3		0.00		-4.80		4.938e-02		-53.605		2.215e-02		34.147
3		0.00		-4.40		5.274e-02		-45.740		2.096e-02		29.202
3		0.00		-4.00		4.929e-02		-44.695		1.908e-02		20.088
3		0.00		-3.60		4.910e-02		-48.951		1.912e-02		17.498
3		0.00		-3.20		4.658e-02		-48.962		1.717e-02		17.600
3		0.00		-2.80		4.309e-02		-48.350		1.406e-02		15.350
3		0.00		-2.40		4.143e-02		-48.222		1.308e-02		14.281
3		0.00		-2.00		3.745e-02		-49.410		1.267e-02		15.532
3		0.00		-1.60		3.267e-02		-52.040		1.240e-02		18.686
3		0.00		-1.20		2.866e-02		-52.854		1.186e-02		25.705
3		0.00		-0.80		2.399e-02		-53.280		9.830e-03		20.166
3		0.00		-0.40		1.957e-02		-56.356		7.707e-03		16.621
4		0.00		0.00		1.496e-02		-59.222		4.828e-03		15.008
4		0.00		0.40		9.571e-03		-73.122		3.026e-03		17.817
4		0.00		0.80		4.576e-03		-94.254		1.531e-03		25.082
4		0.00		1.20		3.875e-03		21.696		1.642e-03		104.427
4		0.00		1.60		8.411e-03		104.168		2.966e-03		57.718
4		0.00		2.00		1.395e-02		112.219		4.401e-03		50.701
4		0.00		2.40		1.846e-02		125.679		6.318e-03		40.146
4		0.00		2.80		2.293e-02		130.469		8.158e-03		34.126
4		0.00		3.20		2.635e-02		124.878		9.040e-03		41.134
4		0.00		3.60		3.022e-02		127.816		9.327e-03		44.832
4		0.00		4.00		3.256e-02		131.739		9.345e-03		37.675
4		0.00		4.40		3.275e-02		134.327		1.036e-02		29.857
4		0.00		4.80		3.247e-02		129.560		1.106e-02		38.086
4		0.00		5.20		3.439e-02		129.321		1.236e-02		33.044
4		0.00		5.60		3.850e-02		122.675		1.346e-02		45.554
4		0.00		6.00		3.868e-02		123.417		1.498e-02		44.055
4		0.00		6.40		4.033e-02		123.191		1.649e-02		44.036
4		0.00		6.80		4.030e-02		113.134		1.630e-02		60.372
4		0.00		7.20		4.070e-02		120.452		1.432e-02		45.922
4		0.00		7.60		4.314e-02		120.648		1.439e-02		56.669
4		0.00		8.00		4.404e-02		134.006		1.565e-02		35.551
4		0.00		8.40		4.119e-02		104.507		1.787e-02		54.898
4		0.00		8.80		4.067e-02		103.119		1.771e-02		59.082
4		0.00		9.20		4.871e-02		113.314		1.955e-02		51.602
4		0.00		9.60		4.572e-02		95.353		1.961e-02		77.299
4		0.00		10.00		4.424e-02		103.263		1.821e-02		78.571
4		0.00		9.60		4.183e-02		81.168		1.562e-02		96.506
4		0.00		9.20		4.390e-02		112.628		1.427e-02		64.453
4		0.00		8.80		4.372e-02		127.326		1.440e-02		49.227
4		0.00		8.40		4.316e-02		130.085		1.466e-02		49.163
4		0.00		8.00		4.009e-02		127.991		1.527e-02		39.863
4		0.00		7.60		3.951e-02		117.076		1.482e-02		40.061
4		0.00		7.20		3.794e-02		125.270		1.438e-02		44.138
4		0.00		6.80		3.836e-02		127.349		1.510e-02		43.775
4		0.00		6.40		3.731e-02		123.785		1.521e-02		48.427
4		0.00		6.00		3.196e-02		120.321		1.252e-02		52.411
4		0.00		5.60		2.902e-02		130.632		9.704e-03		39.432
4		0.00		5.20		2.430e-02		134.616		8.125e-03		39.365
4		0.00		4.80		2.054e-02		127.619		7.302e-03		49.054
4		0.00		4.40		1.563e-02		107.662		5.729e-03		70.341
4		0.00		4.00		1.222e-02		85.989		4.376e-03		89.764
4		0.00		3.60		7.112e-03		36.093		2.703e-03		106.019
4		0.00		3.20		4.847e-03		-65.165		2.163e-03		98.368
4		0.00		2.80		8.171e-03		-108.324		2.930e-03		23.458
4		0.00		2.40		1.376e-02		-79.249		4.455e-03		18.879
4		0.00		2.00		1.941e-02		-65.200		5.989e-03		15.056
4		0.00		1.60		2.395e-02		-58.660		7.752e-03		14.350
4		0.00		1.20		3.018e-02		-56.033		1.170e-02		15.510
4		0.00		0.80		3.582e-02		-53.574		1.458e-02		16.808
4		0.00		0.40		4.084e-02		-52.963		1.701e-02		19.352
4		0.00		0.00		4.643e-02		-45.206		1.874e-02		30.845
4		0.00		-0.40		4.797e-02		-51.377		2.006e-02		20.064
4		0.00		-0.80		5.146e-02		-50.870		2.118e-02		16.779
4		0.00		-1.20		5.243e-02		-51.484		2.179e-02		19.080
4		0.00		-1.60		5.163e-02		-41.691		1.771e-02		18.645
4		0.00		-2.00		5.072e-02		-51.446		1.763e-02		23.037
4		0.00		-2.40		5.171e-02		-48.533		2.174e-02		24.392
4		0.00		-2.80		5.042e-02		-53.046		2.331e-02		27.154
4		0.00		-3.20		5.281e-02		-48.219		2.194e-02		31.782
4		0.00		-3.60		5.337e-02		-42.965		2.142e-02		32.043
4		0.00		-4.00		5.501e-02		-34.809		2.337e-02		28.124
4		0.00		-4.40		5.359e-02		-41.380		2.146e-02		33.002
4		0.00		-4.80		5.727e-02		-40.556		2.218e-02		28.649
4		0.00		-5.20		5.520e-02		-37.339		2.206e-02		34.196
4		0.00		-5.60		5.123e-02		-43.048		2.078e-02		42.425
4		0.00		-6.00		5.244e-02		-46.675		2.375e-02		40.449
4		0.00		-6.40		5.136e-02		-54.437		2.249e-02		40.460
4		0.00		-6.80		5.580e-02		-50.327		2.534e-02		38.227
4		0.00		-7.20		5.656e-02		-37.492		2.581e-02		44.240
4		0.00		-7.60		5.624e-02		-27.646		2.318e-02		39.905
4		0.00		-8.00		5.827e-02		-31.455		2.542e-02		34.488
4		0.00		-8.40		6.107e-02		-44.088		2.612e-02		34.662
4		0.00		-8.80		5.533e-02		-27.588		2.217e-02		33.815
4		0.00		-9.20		5.700e-02		-40.701		2.423e-02		28.644
4		0.00		-9.60		4.516e-02		-44.814		2.175e-02		36.910
4		0.00		-10.00		3.650e-02		-50.110		1.821e-02		42.096
4		0.00		-9.60		4.697e-02		-41.429		2.209e-02		41.565
4		0.00		-9.20		5.307e-02		-31.468		2.510e-02		31.784
4		0.00		-8.80		5.177e-02		-26.166		2.417e-02		34.990
4		0.00		-8.40		5.108e-02		-29.096		2.300e-02		36.419
4		0.00		-8.00		5.276e-02		-36.493		2.374e-02		40.280
4		0.00		-7.60		5.802e-02		-31.999		2.424e-02		32.518
4		0.00		-7.20		5.874e-02		-34.141		2.260e-02		27.976
4		0.00		-6.80		5.591e-02		-29.020		2.167e-02		28.739
4		0.00		-6.40		5.044e-02		-36.023		2.042e-02		33.707
4		0.00		-6.00		4.748e-02		-49.492		2.019e-02		33.437
4		0.00		-5.60		5.099e-02		-51.003		2.381e-02		29.897
4		0.00		-5.20		5.220e-02		-45.748		2.317e-02		27.384
4		0.00		-4.80		4.886e-02		-41.011		2.105e-02		21.418
4		0.00		-4.40		4.934e-02		-44.505		2.130e-02		21.688
4		0.00		-4.00		4.835e-02		-46.213		2.103e-02		18.627
4		0.00		-3.60		4.383e-02		-50.424		1.851e-02		20.599
4		0.00		-3.20		4.150e-02		-49.906		1.611e-02		17.334
4		0.00		-2.80		4.134e-02		-49.401		1.491e-02		14.139
4		0.00		-2.40		3.839e-02		-48.528		1.335e-02		12.515
4		0.00		-2.00		3.556e-02		-48.934		1.277e-02		10.419
4		0.00		-1.60		3.065e-02		-52.835		1.189e-02		14.414
4		0.00		-1.20		2.605e-02		-52.081		1.031e-02		16.852
4		0.00		-0.80		2.142e-02		-54.710		8.394e-03		15.579
4		0.00		-0.40		1.690e-02		-55.306		6.426e-03		19.181
5		0.00		0.00		1.144e-02		-63.989		4.038e-03		17.992
5		0.00		0.40		6.807e-03		-92.316		2.460e-03		25.883
5		0.00		0.80		3.031e-03		-75.771		1.478e-03		77.040
5		0.00		1.20		6.007e-03		87.034		2.002e-03		79.616
5		0.00		1.60		1.060e-02		126.811		3.482e-03		43.345
5		0.00		2.00		1.538e-02		134.110		5.244e-03		31.205
5		0.00		2.40		1.881e-02		132.665		6.844e-03		29.063
5		0.00		2.80		2.280e-02		124.444		8.846e-03		36.603
5		0.00		3.20		2.432e-02		121.278		9.458e-03		37.610
5		0.00		3.60		2.811e-02		120.284		1.088e-02		41.661
5		0.00		4.00		2.848e-02		114.818		1.087e-02		44.963
5		0.00		4.40		3.094e-02		125.229		1.181e-02		43.024
5		0.00		4.80		3.294e-02		133.350		1.267e-02		36.948
5		0.00		5.20		3.146e-02		132.075		1.161e-02		45.114
5		0.00		5.60		3.208e-02		121.396		1.226e-02		55.591
5		0.00		6.00		3.669e-02		122.555		1.398e-02		50.254
5		0.00		6.40		3.784e-02		119.149		1.389e-02		50.034
5		0.00		6.80		3.782e-02		130.982		1.232e-02		41.977
5		0.00		7.20		3.833e-02		121.391		1.252e-02		52.586
5		0.00		7.60		4.227e-02		120.657		1.452e-02		43.260
5		0.00		8.00		4.185e-02		120.933		1.598e-02		43.249
5		0.00		8.40		3.859e-02		101.739		1.925e-02		52.802
5		0.00		8.80		4.187e-02		110.344		1.747e-02		49.482
5		0.00		9.20		3.959e-02		95.396		2.019e-02		58.151
5		0.00		9.60		3.843e-02		86.548		2.125e-02		59.084
5		0.00		10.00		4.140e-02		106.852		1.898e-02		57.472
5		0.00		9.60		3.944e-02		95.664		1.786e-02		69.232
5		0.00		9.20		4.071e-02		115.661		1.813e-02		47.198
5		0.00		8.80		4.106e-02		113.941		1.752e-02		58.518
5		0.00		8.40		3.963e-02		101.658		1.695e-02		73.771
5		0.00		8.00		3.853e-02		86.853		1.538e-02		90.805
5		0.00		7.60		3.895e-02		109.962		1.488e-02		64.196
5		0.00		7.20		3.830e-02		121.575		1.388e-02		47.813
5		0.00		6.80		3.692e-02		121.084		1.255e-02		49.194
5		0.00		6.40		3.642e-02		130.787		1.197e-02		40.543
5		0.00		6.00		3.546e-02		129.747		1.260e-02		45.965
5		0.00		5.60		3.087e-02		130.967		1.104e-02		43.174
5		0.00		5.20		2.708e-02		125.156		9.568e-03		45.912
5		0.00		4.80		2.322e-02		120.966		8.330e-03		51.605
5		0.00		4.40		1.860e-02		107.228		6.430e-03		58.091
5		0.00		4.00		1.318e-02		87.104		4.619e-03		78.097
5		0.00		3.60		8.457e-03		50.445		3.018e-03		104.148
5		0.00		3.20		4.451e-03		-73.891		1.887e-03		87.862
5		0.00		2.80		7.167e-03		-98.585		2.929e-03		40.752
5		0.00		2.40		1.179e-02		-80.217		4.505e-03		19.483
5		0.00		2.00		1.873e-02		-69.420		6.959e-03		16.780
5		0.00		1.60		2.437e-02		-61.937		8.764e-03		14.836
5		0.00		1.20		2.951e-02		-58.961		1.061e-02		15.595
5		0.00		0.80		3.498e-02		-55.847		1.282e-02		15.587
5		0.00		0.40		4.004e-02		-52.663		1.371e-02		14.390
5		0.00		0.00		4.492e-02		-49.620		1.478e-02		12.692
5		0.00		-0.40		4.692e-02		-48.292		1.605e-02		14.616
5		0.00		-0.80		4.594e-02		-47.374		1.498e-02		18.234
5		0.00		-1.20		4.422e-02		-50.601		1.526e-02		19.328
5		0.00		-1.60		4.560e-02		-54.644		1.870e-02		23.300
5		0.00		-2.00		4.882e-02		-52.256		2.082e-02		27.806
5		0.00		-2.40		5.233e-02		-51.201		2.320e-02		30.245
5		0.00		-2.80		5.327e-02		-52.156		2.183e-02		33.453
5		0.00		-3.20		5.775e-02		-46.642		2.356e-02		32.854
5		0.00		-3.60		5.276e-02		-37.286		2.151e-02		33.954
5		0.00		-4.00		5.312e-02		-36.066		2.164e-02		29.817
5		0.00		-4.40		5.300e-02		-29.329		2.214e-02		32.973
5		0.00		-4.80		5.499e-02		-38.998		2.389e-02		31.426
5		0.00		-5.20		5.368e-02		-47.151		2.439e-02		38.081
5		0.00		-5.60		5.624e-02		-44.444		2.574e-02		37.465
5		0.00		-6.00		5.743e-02		-38.031		2.340e-02		36.014
5		0.00		-6.40		5.701e-02		-26.619		2.495e-02		32.456
5		0.00		-6.80		5.542e-02		-36.229		2.275e-02		36.798
5		0.00		-7.20		5.563e-02		-32.500		2.272e-02		40.086
5		0.00		-7.60		5.656e-02		-40.861		2.388e-02		39.385
5		0.00		-8.00		5.233e-02		-50.849		2.415e-02		46.180
5		0.00		-8.40		4.876e-02		-34.722		2.312e-02		39.681
5		0.00		-8.80		4.821e-02		-40.723		2.373e-02		46.059
5		0.00		-9.20		5.044e-02		-41.791		2.429e-02		43.813
5		0.00		-9.60		4.762e-02		-40.875		2.271e-02		41.187
5		0.00		-10.00		4.187e-02		-49.511		1.992e-02		40.071
5		0.00		-9.60		4.202e-02		-54.752		2.277e-02		51.579
5		0.00		-9.20		5.038e-02		-31.208		2.379e-02		37.486
5		0.00		-8.80		5.537e-02		-25.278		2.543e-02		38.346
5		0.00		-8.40		5.367e-02		-25.920		2.568e-02		32.510
5		0.00		-8.00		5.627e-02		-33.833		2.688e-02		36.807
5		0.00		-7.60		5.388e-02		-36.126		2.476e-02		38.157
5		0.00		-7.20		5.587e-02		-27.496		2.349e-02		29.036
5		0.00		-6.80		5.618e-02		-32.966		2.434e-02		28.891
5		0.00		-6.40		5.316e-02		-36.788		2.263e-02		31.540
5		0.00		-6.00		5.355e-02		-37.938		2.429e-02		27.575
5		0.00		-5.60		5.318e-02		-39.088		2.221e-02		27.703
5		0.00		-5.20		5.358e-02		-40.564		2.290e-02		26.590
5		0.00		-4.80		4.986e-02		-44.094		1.934e-02		23.774
5		0.00		-4.40		5.003e-02		-45.624		1.991e-02		22.281
5		0.00		-4.00		4.882e-02		-47.792		1.797e-02		21.729
5		0.00		-3.60		4.875e-02		-44.838		1.644e-02		14.837
5		0.00		-3.20		4.605e-02		-47.891		1.511e-02		16.334
5		0.00		-2.80		4.342e-02		-45.999		1.366e-02		14.634
5		0.00		-2.40		4.238e-02		-47.774		1.335e-02		13.878
5		0.00		-2.00		3.831e-02		-49.519		1.171e-02		13.263
5		0.00		-1.60		3.393e-02		-50.804		1.045e-02		13.765
5		0.00		-1.20		2.945e-02		-51.655		9.234e-03		13.909
5		0.00		-0.80		2.481e-02		-50.783		7.659e-03		12.450
5		0.00		-0.40		1.992e-02		-55.194		6.072e-03		13.498
6		0.00		0.00		1.443e-02		-57.929		4.805e-03		15.371
6		0.00		0.40		9.362e-03		-67.340		3.214e-03		15.345
6		0.00		0.80		4.214e-03		-89.145		1.712e-03		24.018
6		0.00		1.20		4.397e-03		45.697		1.727e-03		109.328
6		0.00		1.60		9.567e-03		110.822		3.548e-03		65.400
6		0.00		2.00		1.428e-02		110.854		5.242e-03		62.356
6		0.00		2.40		2.024e-02		117.702		7.264e-03		54.977
6		0.00		2.80		2.473e-02		119.333		9.205e-03		46.172
6		0.00		3.20		2.833e-02		122.652		1.025e-02		43.300
6		0.00		3.60		3.089e-02		128.907		1.140e-02		37.808
6		0.00		4.00		3.273e-02		128.149		1.228e-02		35.903
6		0.00		4.40		3.531e-02		124.909		1.342e-02		36.190
6		0.00		4.80		3.800e-02		121.773		1.339e-02		39.761
6		0.00		5.20		3.540e-02		121.859		1.301e-02		38.948
6		0.00		5.60		3.703e-02		117.111		1.366e-02		43.260
6		0.00		6.00		3.388e-02		107.452		1.614e-02		49.654
6		0.00		6.40		4.065e-02		119.480		1.569e-02		46.436
6		0.00		6.80		3.595e-02		101.464		1.761e-02		54.103
6		0.00		7.20		4.140e-02		108.935		1.780e-02		52.553
6		0.00		7.60		4.341e-02		102.349		2.021e-02		60.549
6		0.00		8.00		4.048e-02		109.574		1.721e-02		55.076
6		0.00		8.40		4.239e-02		98.557		2.015e-02		61.811
6		0.00		8.80		4.400e-02		103.393		1.972e-02		45.457
6		0.00		9.20		4.269e-02		99.787		1.945e-02		48.488
6		0.00		9.60		4.306e-02		96.492		1.968e-02		60.733
6		0.00		10.00		4.180e-02		102.516		1.972e-02		52.769
6		0.00		9.60		4.068e-02		102.329		1.929e-02		54.934
6		0.00		9.20		4.019e-02		105.114		1.781e-02		52.097
6		0.00		8.80		3.632e-02		98.282		1.656e-02		53.206
6		0.00		8.40		3.958e-02		110.146		1.641e-02		48.556
6		0.00		8.00		3.466e-02		106.069		1.718e-02		48.732
6		0.00		7.60		3.637e-02		128.337		1.416e-02		42.996
6		0.00		7.20		3.715e-02		124.283		1.573e-02		36.575
6		0.00		6.80		3.554e-02		132.823		1.344e-02		34.443
6		0.00		6.40		3.449e-02		131.517		1.251e-02		35.047
6		0.00		6.00		3.502e-02		132.027		1.206e-02		37.983
6		0.00		5.60		3.301e-02		129.732		1.147e-02		36.131
6		0.00		5.20		2.892e-02		131.434		9.974e-03		36.978
6		0.00		4.80		2.507e-02		125.271		8.768e-03		54.406
6		0.00		4.40		1.901e-02		124.098		6.334e-03		55.249
6		0.00		4.00		1.435e-02		111.186		5.060e-03		72.257
6		0.00		3.60		9.259e-03		86.556		3.135e-03		92.916
6		0.00		3.20		5.901e-03		8.453		2.459e-03		112.090
6		0.00		2.80		5.667e-03		-119.575		2.112e-03		34.538
6		0.00		2.40		1.041e-02		-90.490		3.788e-03		21.747
6		0.00		2.00		1.562e-02		-72.616		6.393e-03		19.141
6		0.00		1.60		2.062e-02		-66.897		8.591e-03		19.045
6		0.00		1.20		2.636e-02		-58.138		1.073e-02		16.642
6		0.00		0.80		3.281e-02		-56.206		1.346e-02		17.361
6		0.00		0.40		3.744e-02		-54.225		1.520e-02		17.258
6		0.00		0.00		4.192e-02		-53.609		1.666e-02		17.200
6		0.00		-0.40		4.613e-02		-52.903		1.754e-02		13.942
6		0.00		-0.80		4.475e-02		-50.525		1.471e-02		15.626
6		0.00		-1.20		4.749e-02		-50.394		1.573e-02		22.278
6		0.00		-1.60		5.361e-02		-47.248		1.822e-02		18.251
6		0.00		-2.00		5.268e-02		-46.524		1.783e-02		21.185
6		0.00		-2.40		5.198e-02		-40.731		1.872e-02		20.088
6		0.00		-2.80		5.252e-02		-44.870		2.010e-02		24.526
6		0.00		-3.20		4.743e-02		-56.616		2.194e-02		34.923
6		0.00		-3.60		5.663e-02		-44.316		2.365e-02		28.312
6		0.00		-4.00		5.126e-02		-37.694		2.211e-02		25.728
6		0.00		-4.40		5.615e-02		-43.540		2.404e-02		26.575
6		0.00		-4.80		5.662e-02		-48.700		2.599e-02		38.416
6		0.00		-5.20		5.154e-02		-48.208		2.327e-02		33.668
6		0.00		-5.60		5.394e-02		-53.213		2.637e-02		38.002
6		0.00		-6.00		5.181e-02		-33.837		2.174e-02		31.089
6		0.00		-6.40		5.317e-02		-30.704		2.106e-02		35.620
6		0.00		-6.80		5.898e-02		-33.819		2.161e-02		33.748
6		0.00		-7.20		5.789e-02		-32.917		2.492e-02		35.647
6		0.00		-7.60		5.536e-02		-41.569		2.231e-02		42.724
6		0.00		-8.00		5.980e-02		-35.813		2.504e-02		34.149
6		0.00		-8.40		5.534e-02		-50.633		2.459e-02		38.496
6		0.00		-8.80		5.065e-02		-34.356		2.401e-02		43.481
6		0.00		-9.20		5.319e-02		-23.516		2.495e-02		47.176
6		0.00		-9.60		4.620e-02		-40.096		2.278e-02		46.111
6		0.00		-10.00		3.941e-02		-43.916		1.872e-02		43.679
6		0.00		-9.60		4.281e-02		-39.562		2.028e-02		39.548
6		0.00		-9.20		5.037e-02		-39.254		2.380e-02		42.557
6		0.00		-8.80		5.589e-02		-42.935		2.281e-02		35.624
6		0.00		-8.40		5.914e-02		-29.898		2.314e-02		33.284
6		0.00		-8.00		5.896e-02		-42.603		2.725e-02		36.527
6		0.00		-7.60		5.617e-02		-31.840		2.531e-02		34.182
6		0.00		-7.20		5.349e-02		-32.269		2.399e-02		40.101
6		0.00		-6.80		5.027e-02		-39.645		2.344e-02		47.708
6		0.00		-6.40		5.306e-02		-52.074		2.649e-02		41.826
6		0.00		-6.00		5.269e-02		-48.824		2.268e-02		34.908
6		0.00		-5.60		4.894e-02		-46.841		2.154e-02		35.591
6		0.00		-5.20		4.605e-02		-43.138		1.887e-02		32.337
6		0.00		-4.80		4.932e-02		-46.078		1.782e-02		27.174
6		0.00		-4.40		4.944e-02		-43.524		1.579e-02		19.890
6		0.00		-4.00		4.800e-02		-46.970		1.765e-02		18.356
6		0.00		-3.60		4.688e-02		-47.888		1.852e-02		20.063
6		0.00		-3.20		4.590e-02		-50.212		1.738e-02		17.379
6		0.00		-2.80		4.431e-02		-48.307		1.747e-02		18.866
6		0.00		-2.40		4.065e-02		-48.104		1.617e-02		16.955
6		0.00		-2.00		3.699e-02		-49.596		1.463e-02		21.870
6		0.00		-1.60		3.174e-02		-50.574		1.313e-02		18.998
6		0.00		-1.20		2.777e-02		-49.789		1.065e-02		15.098
6		0.00		-0.80		2.331e-02		-51.428		8.007e-03		14.486
6		0.00		-0.40		1.814e-02		-53.065		5.821e-03		13.236
7		0.00		0.00		1.265e-02		-59.551		3.911e-03		15.404
7		0.00		0.40		6.263e-03		-83.982		2.063e-03		22.126
7		0.00		0.80		3.117e-03		-58.348		1.526e-03		84.523
7		0.00		1.20		6.056e-03		91.074		2.532e-03		82.918
7		0.00		1.60		1.170e-02		105.371		4.506e-03		65.232
7		0.00		2.00		1.722e-02		104.310		6.105e-03		58.940
7		0.00		2.40		2.186e-02		114.710		7.807e-03		40.805
7		0.00		2.80		2.626e-02		118.277		9.934e-03		40.207
7		0.00		3.20		3.039e-02		126.560		1.037e-02		35.365
7		0.00		3.60		3.403e-02		133.399		1.075e-02		27.867
7		0.00		4.00		3.587e-02		124.978		1.119e-02		47.895
7		0.00		4.40		3.520e-02		123.184		1.272e-02		47.847
7		0.00		4.80		3.751e-02		134.150		1.328e-02		28.798
7		0.00		5.20		3.870e-02		130.287		1.449e-02		34.578
7		0.00		5.60		4.117e-02		131.568		1.480e-02		39.589
7		0.00		6.00		3.977e-02		115.811		1.492e-02		48.696
7		0.00		6.40		3.248e-02		101.947		1.630e-02		52.941
7		0.00		6.80		3.389e-02		106.646		1.644e-02		51.156
7		0.00		7.20		4.321e-02		122.562		1.621e-02		39.124
7		0.00		7.60		4.465e-02		130.832		1.729e-02		41.226
7		0.00		8.00		4.348e-02		94.563		1.805e-02		76.612
7		0.00		8.40		4.525e-02		95.317		1.986e-02		81.145
7		0.00		8.80		4.706e-02		102.892		2.238e-02		69.033
7		0.00		9.20		4.342e-02		96.480		2.034e-02		55.627
7		0.00		9.60		3.851e-02		79.251		2.200e-02		63.004
7		0.00		10.00		3.434e-02		80.194		1.887e-02		54.454
7		0.00		9.60		4.317e-02		104.153		2.061e-02		47.886
7		0.00		9.20		4.398e-02		108.788		1.601e-02		72.288
7		0.00		8.80		4.154e-02		77.054		1.806e-02		93.402
7		0.00		8.40		4.257e-02		101.680		1.684e-02		83.140
7		0.00		8.00		4.264e-02		117.132		1.794e-02		66.335
7		0.00		7.60		3.986e-02		98.917		1.916e-02		57.398
7		0.00		7.20		3.404e-02		100.932		1.670e-02		61.273
7		0.00		6.80		3.442e-02		123.717		1.245e-02		43.447
7		0.00		6.40		3.912e-02		119.046		1.246e-02		50.336
7		0.00		6.00		3.912e-02		121.915		1.344e-02		54.142
7		0.00		5.60		3.315e-02		123.130		1.246e-02		48.821
7		0.00		5.20		3.059e-02		125.854		1.189e-02		44.589
7		0.00		4.80		2.694e-02		119.924		1.075e-02		54.599
7		0.00		4.40		2.068e-02		98.838		8.078e-03		67.108
7		0.00		4.00		1.457e-02		102.886		5.801e-03		71.737
7		0.00		3.60		1.021e-02		76.789		3.735e-03		90.743
7		0.00		3.20		5.734e-03		-37.595		2.045e-03		117.932
7		0.00		2.80		6.431e-03		-117.756		2.147e-03		28.348
7		0.00		2.40		1.165e-02		-82.886		4.494e-03		18.384
7		0.00		2.00		1.653e-02		-68.180		7.256e-03		23.717
7		0.00		1.60		2.134e-02		-62.789		9.761e-03		26.450
7		0.00		1.20		2.716e-02		-59.117		1.184e-02		23.197
7		0.00		0.80		3.321e-02		-54.612		1.292e-02		17.555
7		0.00		0.40		3.962e-02		-51.083		1.325e-02		14.512
7		0.00		0.00		4.274e-02		-49.941		1.357e-02		13.929
7		0.00		-0.40		4.537e-02		-50.906		1.709e-02		18.614
7		0.00		-0.80		4.714e-02		-49.975		1.820e-02		22.910
7		0.00		-1.20		5.169e-02		-45.794		2.028e-02		22.140
7		0.00		-1.60		5.266e-02		-45.073		2.203e-02		22.212
7		0.00		-2.00		5.049e-02		-51.313		2.137e-02		25.487
7		0.00		-2.40		4.745e-02		-54.886		2.120e-02		27.696
7		0.00		-2.80		5.122e-02		-52.915		1.843e-02		32.382
7		0.00		-3.20		5.374e-02		-37.431		2.164e-02		25.868
7		0.00		-3.60		5.428e-02		-39.311		2.113e-02		27.606
7		0.00		-4.00		5.514e-02		-46.141		2.207e-02		28.339
7		0.00		-4.40		5.218e-02		-32.122		2.089e-02		32.679
7		0.00		-4.80		5.609e-02		-33.886		2.507e-02		34.576
7		0.00		-5.20		5.360e-02		-27.277		2.622e-02		47.699
7		0.00		-5.60		5.826e-02		-44.927		2.570e-02		36.308
7		0.00		-6.00		5.215e-02		-52.583		2.591e-02		41.506
7		0.00		-6.40		5.329e-02		-48.017		2.372e-02		35.351
7		0.00		-6.80		5.180e-02		-23.537		2.226e-02		35.760
7		0.00		-7.20		5.630e-02		-38.397		2.214e-02		40.061
7		0.00		-7.60		5.846e-02		-30.022		2.318e-02		33.950
7		0.00		-8.00		6.183e-02		-36.448		2.562e-02		34.620
7		0.00		-8.40		5.599e-02		-30.971		2.440e-02		38.510
7		0.00		-8.80		5.520e-02		-34.100		2.438e-02		38.503
7		0.00		-9.20		5.345e-02		-28.545		2.447e-02		29.499
7		0.00		-9.60		4.336e-02		-39.918		2.317e-02		49.998
7		0.00		-10.00		3.876e-02		-47.892		1.965e-02		48.000
7		0.00		-9.60		4.634e-02		-44.835		2.206e-02		36.048
7		0.00		-9.20		5.287e-02		-33.899		2.327e-02		41.628
7		0.00		-8.80		5.502e-02		-39.218		2.396e-02		41.870
7		0.00		-8.40		5.748e-02		-36.849		2.503e-02		36.138
7		0.00		-8.00		5.563e-02		-35.251		2.411e-02		36.949
7		0.00		-7.60		5.790e-02		-36.408		2.696e-02		37.723
7		0.00		-7.20		5.591e-02		-24.507		2.455e-02		39.194
7		0.00		-6.80		5.209e-02		-37.746		2.626e-02		46.751
7		0.00		-6.40		5.174e-02		-49.246		2.498e-02		43.342
7		0.00		-6.00		4.776e-02		-48.704		2.233e-02		36.617
7		0.00		-5.60		4.855e-02		-37.814		1.987e-02		29.501
7		0.00		-5.20		4.842e-02		-37.711		1.739e-02		27.609
7		0.00		-4.80		4.944e-02		-41.033		2.041e-02		22.620
7		0.00		-4.40		4.959e-02		-47.225		1.992e-02		24.420
7		0.00		-4.00		4.807e-02		-44.552		1.833e-02		20.522
7		0.00		-3.60		4.550e-02		-47.744		1.876e-02		20.009
7		0.00		-3.20		4.543e-02		-44.017		1.823e-02		20.788
7		0.00		-2.80		4.149e-02		-48.215		1.744e-02		24.410
7		0.00		-2.40		3.860e-02		-49.353		1.571e-02		19.917
7		0.00		-2.00		3.622e-02		-48.737		1.318e-02		14.481
7		0.00		-1.60		3.231e-02		-47.747		1.079e-02		13.965
7		0.00		-1.20		2.859e-02		-49.798		8.891e-03		13.900
7		0.00		-0.80		2.391e-02		-52.285		7.426e-03		13.488
7		0.00		-0.40		1.801e-02		-55.122		6.285e-03		14.205
8		0.00		0.00		1.224e-02		-62.759		4.519e-03		18.442
8		0.00		0.40		6.067e-03		-75.331		2.223e-03		34.175
8		0.00		0.80		2.920e-03		-57.285		1.360e-03		76.804
8		0.00		1.20		6.525e-03		75.187		2.185e-03		95.303
8		0.00		1.60		1.197e-02		115.451		4.734e-03		56.979
8		0.00		2.00		1.773e-02		128.581		6.559e-03		32.888
8		0.00		2.40		2.264e-02		134.098		7.760e-03		28.351
8		0.00		2.80		2.415e-02		135.127		8.236e-03		33.046
8		0.00		3.20		2.792e-02		124.538		1.058e-02		34.880
8		0.00		3.60		3.266e-02		131.492		1.225e-02		30.461
8		0.00		4.00		3.716e-02		129.569		1.423e-02		40.585
8		0.00		4.40		3.955e-02		122.315		1.380e-02		46.184
8		0.00		4.80		3.857e-02		113.221		1.563e-02		44.744
8		0.00		5.20		4.230e-02		123.316		1.689e-02		37.620
8		0.00		5.60		4.392e-02		134.319		1.542e-02		32.471
8		0.00		6.00		3.980e-02		121.877		1.349e-02		58.542
8		0.00		6.40		4.028e-02		111.340		1.609e-02		47.730
8		0.00		6.80		4.106e-02		115.040		1.680e-02		60.352
8		0.00		7.20		4.430e-02		112.545		1.804e-02		67.096
8		0.00		7.60		4.289e-02		112.093		1.903e-02		63.510
8		0.00		8.00		4.668e-02		109.032		2.069e-02		50.924
8		0.00		8.40		4.645e-02		100.130		2.249e-02		59.715
8		0.00		8.80		4.092e-02		96.140		2.229e-02		55.568
8		0.00		9.20		3.763e-02		97.460		2.059e-02		44.617
8		0.00		9.60		4.543e-02		104.693		1.933e-02		63.456
8		0.00		10.00		4.252e-02		107.045		1.807e-02		54.229
8		0.00		9.60		4.307e-02		102.613		1.667e-02		76.086
8		0.00		9.20		4.057e-02		81.954		1.684e-02		91.374
8		0.00		8.80		4.265e-02		94.632		1.769e-02		85.010
8		0.00		8.40		4.122e-02		115.602		1.639e-02		60.065
8		0.00		8.00		4.411e-02		109.110		1.735e-02		58.774
8		0.00		7.60		4.089e-02		104.230		1.721e-02		51.009
8		0.00		7.20		3.567e-02		113.182		1.407e-02		48.287
8		0.00		6.80		3.704e-02		129.290		1.392e-02		34.880
8		0.00		6.40		3.667e-02		128.274		1.280e-02		44.935
8		0.00		6.00		3.491e-02		115.665		1.181e-02		61.032
8		0.00		5.60		2.778e-02		124.631		9.786e-03		58.653
8		0.00		5.20		2.961e-02		122.137		1.137e-02		52.327
8		0.00		4.80		2.640e-02		125.534		9.672e-03		46.382
8		0.00		4.40		2.298e-02		120.623		7.845e-03		54.215
8		0.00		4.00		1.766e-02		105.496		6.089e-03		63.983
8		0.00		3.60		1.212e-02		86.062		4.330e-03		84.811
8		0.00		3.20		6.072e-03		14.554		2.293e-03		111.592
8		0.00		2.80		6.219e-03		-110.606		2.270e-03		20.874
8		0.00		2.40		1.105e-02		-82.096		3.497e-03		15.726
8		0.00		2.00		1.674e-02		-69.837		5.110e-03		14.149
8		0.00		1.60		2.269e-02		-61.822		7.583e-03		15.618
8		0.00		1.20		2.830e-02		-59.438		9.810e-03		13.907
8		0.00		0.80		3.272e-02		-57.164		1.262e-02		15.389
8		0.00		0.40		3.921e-02		-54.987		1.564e-02		19.404
8		0.00		0.00		4.426e-02		-51.575		1.791e-02		20.889
8		0.00		-0.40		4.793e-02		-49.963		1.951e-02		20.431
8		0.00		-0.80		4.919e-02		-49.368		1.934e-02		26.932
8		0.00		-1.20		4.848e-02		-55.165		2.083e-02		22.774
8		0.00		-1.60		4.629e-02		-48.995		1.591e-02		19.732
8		0.00		-2.00		4.933e-02		-47.346		1.827e-02		27.452
8		0.00		-2.40		5.311e-02		-41.451		1.970e-02		23.862
8		0.00		-2.80		5.447e-02		-49.972		2.176e-02		24.228
8		0.00		-3.20		5.424e-02		-44.852		2.331e-02		30.573
8		0.00		-3.60		5.688e-02		-39.490		2.304e-02		27.580
8		0.00		-4.00		5.367e-02		-49.614		2.472e-02		35.301
8		0.00		-4.40		5.537e-02		-40.839		2.614e-02		38.698
8		0.00		-4.80		5.539e-02		-44.337		2.619e-02		44.148
8		0.00		-5.20		5.158e-02		-48.281		2.566e-02		46.537
8		0.00		-5.60		5.349e-02		-40.283		2.394e-02		35.828
8		0.00		-6.00		4.924e-02		-31.070		2.026e-02		35.545
8		0.00		-6.40		5.495e-02		-33.744		2.218e-02		34.738
8		0.00		-6.80		5.775e-02		-37.759		2.392e-02		35.297
8		0.00		-7.20		5.522e-02		-28.552		2.291e-02		35.486
8		0.00		-7.60		5.872e-02		-37.119		2.425e-02		39.757
8		0.00		-8.00		5.610e-02		-40.191		2.497e-02		41.080
8		0.00		-8.40		5.573e-02		-31.963		2.601e-02		44.676
8		0.00		-8.80		5.227e-02		-45.511		2.676e-02		50.612
8		0.00		-9.20		5.289e-02		-24.828		2.450e-02		36.423
8		0.00		-9.60		5.003e-02		-31.170		2.231e-02		38.846
8		0.00		-10.00		3.831e-02		-41.461		1.831e-02		45.034
8		0.00		-9.60		4.836e-02		-44.071		2.182e-02		36.832
8		0.00		-9.20		5.185e-02		-34.363		2.379e-02		35.757
8		0.00		-8.80		5.717e-02		-21.418		2.193e-02		30.369
8		0.00		-8.40		5.772e-02		-27.825		2.359e-02		36.216
8		0.00		-8.00		5.865e-02		-31.962		2.440e-02		33.767
8		0.00		-7.60		5.274e-02		-29.371		2.230e-02		39.011
8		0.00		-7.20		6.014e-02		-31.913		2.421e-02		32.873
8		0.00		-6.80		5.487e-02		-36.744		2.549e-02		36.440
8		0.00		-6.40		5.239e-02		-42.707		2.444e-02		41.038
8		0.00		-6.00		4.876e-02		-45.431		2.547e-02		41.256
8		0.00		-5.60		4.585e-02		-63.396		2.392e-02		36.815
8		0.00		-5.20		4.804e-02		-39.239		1.666e-02		22.910
8		0.00		-4.80		4.798e-02		-37.283		1.625e-02		26.050
8		0.00		-4.40		4.741e-02		-41.029		1.501e-02		21.191
8		0.00		-4.00		4.939e-02		-47.925		1.837e-02		20.061
8		0.00		-3.60		4.904e-02		-49.459		1.804e-02		16.959
8		0.00		-3.20		4.679e-02		-51.707		1.796e-02		20.348
8		0.00		-2.80		4.509e-02		-47.483		1.737e-02		16.641
8		0.00		-2.40		4.042e-02		-50.011		1.614e-02		20.504
8		0.00		-2.00		3.622e-02		-50.405		1.405e-02		19.181
8		0.00		-1.60		3.203e-02		-50.745		1.227e-02		14.818
8		0.00		-1.20		2.760e-02		-51.442		9.964e-03		12.047
8		0.00		-0.80		2.335e-02		-54.690		7.305e-03		11.289
8		0.00		-0.40		1.815e-02		-53.014		5.541e-03		12.843
