# Date of analysis: 2024-03-08 10;59
# Segment other properties: height: -68.9771664131138, diff height: 522.9925637403002, deflection: 33.338981044447706, deflection error: 2.5164268980979236, adhesion: 38.79094942269901, phase offset: 0
# 
# Loop index	Read Volt (V)	Write Volt (V)	Amplitude (a.u)	Phase (deg)	Sigma Amp (a.u)	Sigma Pha (deg)	
1		0.00		0.00		5.833e-03		19.944		4.202e-03		45.851
1		0.00		0.40		8.611e-03		-44.841		2.094e-03		13.999
1		0.00		0.80		4.412e-03		-38.039		1.307e-03		20.960
1		0.00		1.20		1.945e-03		35.630		8.852e-04		65.867
1		0.00		1.60		5.534e-03		123.252		1.612e-03		16.110
1		0.00		2.00		1.004e-02		130.930		1.821e-03		12.185
1		0.00		2.40		1.395e-02		130.793		2.454e-03		11.060
1		0.00		2.80		1.815e-02		131.325		3.799e-03		10.502
1		0.00		3.20		2.195e-02		130.530		5.184e-03		13.049
1		0.00		3.60		2.505e-02		127.908		6.555e-03		16.396
1		0.00		4.00		2.904e-02		128.956		7.442e-03		9.895
1		0.00		4.40		3.309e-02		131.181		6.689e-03		9.047
1		0.00		4.80		3.783e-02		130.990		6.591e-03		7.987
1		0.00		5.20		4.056e-02		132.142		7.315e-03		7.791
1		0.00		5.60		4.290e-02		132.091		8.580e-03		9.329
1		0.00		6.00		4.453e-02		131.186		1.035e-02		14.699
1		0.00		6.40		4.681e-02		130.152		1.172e-02		14.824
1		0.00		6.80		4.953e-02		130.501		1.273e-02		13.819
1		0.00		7.20		5.235e-02		129.982		1.369e-02		10.360
1		0.00		7.60		5.646e-02		132.371		1.370e-02		7.953
1		0.00		8.00		5.900e-02		133.444		1.200e-02		7.593
1		0.00		8.40		5.973e-02		132.820		1.238e-02		10.397
1		0.00		8.80		6.060e-02		130.662		1.621e-02		15.052
1		0.00		9.20		6.008e-02		126.183		1.936e-02		22.560
1		0.00		9.60		5.893e-02		129.109		2.001e-02		15.381
1		0.00		10.00		5.790e-02		128.395		1.962e-02		21.301
1		0.00		9.60		5.969e-02		126.733		2.030e-02		14.861
1		0.00		9.20		5.859e-02		129.943		1.721e-02		10.535
1		0.00		8.80		5.922e-02		132.113		1.497e-02		8.023
1		0.00		8.40		5.528e-02		132.569		1.235e-02		9.780
1		0.00		8.00		5.158e-02		130.422		1.286e-02		13.110
1		0.00		7.60		4.910e-02		130.820		1.218e-02		13.006
1		0.00		7.20		4.664e-02		131.231		1.168e-02		14.216
1		0.00		6.80		4.362e-02		129.286		1.120e-02		18.952
1		0.00		6.40		4.088e-02		129.701		1.042e-02		15.812
1		0.00		6.00		3.769e-02		131.052		9.338e-03		9.748
1		0.00		5.60		3.517e-02		130.736		7.524e-03		8.992
1		0.00		5.20		3.180e-02		131.671		5.630e-03		8.715
1		0.00		4.80		2.817e-02		133.264		4.775e-03		8.716
1		0.00		4.40		2.404e-02		134.022		4.111e-03		8.810
1		0.00		4.00		1.995e-02		134.032		3.707e-03		9.615
1		0.00		3.60		1.552e-02		132.102		3.433e-03		12.354
1		0.00		3.20		1.131e-02		133.368		2.618e-03		17.146
1		0.00		2.80		6.632e-03		128.550		1.659e-03		17.148
1		0.00		2.40		2.745e-03		96.660		1.052e-03		53.297
1		0.00		2.00		2.941e-03		-50.268		1.106e-03		34.266
1		0.00		1.60		7.896e-03		-55.772		1.946e-03		13.217
1		0.00		1.20		1.217e-02		-50.979		2.320e-03		11.266
1		0.00		0.80		1.681e-02		-50.168		3.046e-03		9.693
1		0.00		0.40		2.076e-02		-49.964		4.471e-03		9.769
1		0.00		0.00		2.479e-02		-50.995		5.935e-03		11.324
1		0.00		-0.40		2.921e-02		-52.712		7.372e-03		9.115
1		0.00		-0.80		3.392e-02		-51.449		7.489e-03		9.071
1		0.00		-1.20		3.967e-02		-53.153		7.120e-03		7.073
1		0.00		-1.60		4.341e-02		-51.894		7.052e-03		6.745
1		0.00		-2.00		4.711e-02		-51.410		7.913e-03		6.370
1		0.00		-2.40		4.984e-02		-52.368		1.058e-02		11.125
1		0.00		-2.80		5.275e-02		-52.178		1.293e-02		10.121
1		0.00		-3.20		5.539e-02		-54.652		1.494e-02		13.923
1		0.00		-3.60		5.945e-02		-53.322		1.517e-02		10.093
1		0.00		-4.00		6.166e-02		-53.226		1.267e-02		10.759
1		0.00		-4.40		6.301e-02		-52.965		1.191e-02		11.522
1		0.00		-4.80		6.230e-02		-51.727		1.368e-02		17.737
1		0.00		-5.20		6.464e-02		-47.045		1.483e-02		12.136
1		0.00		-5.60		6.274e-02		-42.951		1.808e-02		18.469
1		0.00		-6.00		6.191e-02		-43.689		1.969e-02		20.829
1		0.00		-6.40		6.635e-02		-43.870		2.141e-02		17.097
1		0.00		-6.80		6.537e-02		-40.146		1.830e-02		20.051
1		0.00		-7.20		7.001e-02		-39.301		1.935e-02		21.065
1		0.00		-7.60		6.642e-02		-40.532		1.744e-02		22.311
1		0.00		-8.00		6.829e-02		-39.241		1.994e-02		21.180
1		0.00		-8.40		6.599e-02		-44.944		2.176e-02		23.728
1		0.00		-8.80		6.247e-02		-35.053		1.979e-02		19.838
1		0.00		-9.20		6.299e-02		-37.675		2.058e-02		21.729
1		0.00		-9.60		6.076e-02		-40.114		1.685e-02		12.499
1		0.00		-10.00		5.735e-02		-43.327		1.366e-02		8.857
1		0.00		-9.60		5.994e-02		-42.613		1.656e-02		12.074
1		0.00		-9.20		6.269e-02		-42.369		1.743e-02		14.756
1		0.00		-8.80		6.134e-02		-36.911		1.777e-02		17.132
1		0.00		-8.40		6.691e-02		-44.006		2.008e-02		21.776
1		0.00		-8.00		6.598e-02		-44.711		1.589e-02		12.521
1		0.00		-7.60		6.790e-02		-43.647		1.437e-02		13.037
1		0.00		-7.20		6.362e-02		-50.188		1.482e-02		15.168
1		0.00		-6.80		6.198e-02		-49.711		1.517e-02		16.221
1		0.00		-6.40		5.936e-02		-48.929		1.518e-02		12.685
1		0.00		-6.00		5.790e-02		-49.240		1.581e-02		12.007
1		0.00		-5.60		5.428e-02		-50.537		1.475e-02		10.764
1		0.00		-5.20		5.229e-02		-50.322		1.043e-02		7.749
1		0.00		-4.80		4.831e-02		-50.393		8.483e-03		7.226
1		0.00		-4.40		4.274e-02		-50.521		8.417e-03		8.603
1		0.00		-4.00		3.833e-02		-50.490		9.164e-03		11.648
1		0.00		-3.60		3.330e-02		-52.301		8.747e-03		9.735
1		0.00		-3.20		3.004e-02		-50.782		6.664e-03		9.164
1		0.00		-2.80		2.689e-02		-50.213		4.178e-03		7.561
1		0.00		-2.40		2.211e-02		-47.097		3.667e-03		8.069
1		0.00		-2.00		1.773e-02		-48.743		3.331e-03		8.295
1		0.00		-1.60		1.227e-02		-41.061		2.578e-03		11.086
1		0.00		-1.20		7.936e-03		-44.213		1.890e-03		15.845
1		0.00		-0.80		3.871e-03		-37.756		1.246e-03		25.864
1		0.00		-0.40		2.067e-03		58.965		8.954e-04		63.732
2		0.00		0.00		5.685e-03		115.334		1.281e-03		13.951
2		0.00		0.40		1.017e-02		121.510		2.305e-03		14.232
2		0.00		0.80		1.395e-02		126.413		3.346e-03		13.433
2		0.00		1.20		1.894e-02		126.103		3.850e-03		7.783
2		0.00		1.60		2.318e-02		128.206		3.580e-03		6.525
2		0.00		2.00		2.677e-02		130.169		4.285e-03		7.378
2		0.00		2.40		2.999e-02		129.628		6.344e-03		11.712
2		0.00		2.80		3.316e-02		128.824		8.518e-03		11.890
2		0.00		3.20		3.675e-02		129.291		8.920e-03		8.179
2		0.00		3.60		3.969e-02		130.878		7.433e-03		6.868
2		0.00		4.00		4.187e-02		131.577		8.853e-03		7.977
2		0.00		4.40		4.320e-02		130.340		1.174e-02		13.646
2		0.00		4.80		4.571e-02		128.561		1.337e-02		13.776
2		0.00		5.20		4.856e-02		130.187		1.268e-02		9.981
2		0.00		5.60		5.261e-02		132.253		1.037e-02		6.932
2		0.00		6.00		5.277e-02		131.359		1.277e-02		12.054
2		0.00		6.40		5.365e-02		126.976		1.574e-02		22.638
2		0.00		6.80		5.690e-02		131.792		1.698e-02		11.056
2		0.00		7.20		6.201e-02		132.896		1.367e-02		7.840
2		0.00		7.60		6.078e-02		130.678		1.380e-02		14.881
2		0.00		8.00		6.460e-02		132.582		1.594e-02		12.464
2		0.00		8.40		6.384e-02		133.885		1.861e-02		14.985
2		0.00		8.80		6.407e-02		128.386		1.847e-02		18.988
2		0.00		9.20		6.442e-02		133.454		1.493e-02		25.654
2		0.00		9.60		6.545e-02		132.532		1.754e-02		19.670
2		0.00		10.00		6.369e-02		134.350		1.719e-02		13.850
2		0.00		9.60		6.179e-02		131.247		1.823e-02		21.655
2		0.00		9.20		6.263e-02		130.689		1.696e-02		13.176
2		0.00		8.80		6.478e-02		133.523		1.272e-02		7.588
2		0.00		8.40		5.972e-02		132.367		1.424e-02		12.387
2		0.00		8.00		5.474e-02		130.558		1.489e-02		16.686
2		0.00		7.60		5.277e-02		129.602		1.626e-02		14.629
2		0.00		7.20		5.147e-02		130.607		1.347e-02		9.341
2		0.00		6.80		4.894e-02		132.300		9.439e-03		6.624
2		0.00		6.40		4.584e-02		133.441		8.786e-03		7.168
2		0.00		6.00		4.091e-02		131.618		1.014e-02		13.592
2		0.00		5.60		3.679e-02		130.079		1.014e-02		12.833
2		0.00		5.20		3.455e-02		130.636		7.386e-03		9.423
2		0.00		4.80		3.122e-02		133.640		5.124e-03		7.436
2		0.00		4.40		2.705e-02		134.306		5.461e-03		9.378
2		0.00		4.00		2.253e-02		131.884		5.621e-03		15.133
2		0.00		3.60		1.873e-02		133.396		3.978e-03		8.732
2		0.00		3.20		1.518e-02		132.902		2.404e-03		8.515
2		0.00		2.80		1.050e-02		132.425		2.011e-03		11.420
2		0.00		2.40		5.240e-03		135.104		1.482e-03		21.406
2		0.00		2.00		1.941e-03		41.288		8.262e-04		73.473
2		0.00		1.60		4.294e-03		-58.382		1.433e-03		23.557
2		0.00		1.20		9.376e-03		-52.454		1.676e-03		11.296
2		0.00		0.80		1.368e-02		-49.602		2.640e-03		10.767
2		0.00		0.40		1.772e-02		-49.956		4.056e-03		11.263
2		0.00		0.00		2.248e-02		-51.275		4.561e-03		8.433
2		0.00		-0.40		2.768e-02		-50.999		4.153e-03		6.880
2		0.00		-0.80		3.190e-02		-49.910		6.273e-03		8.157
2		0.00		-1.20		3.523e-02		-53.128		8.406e-03		13.162
2		0.00		-1.60		3.836e-02		-52.774		9.967e-03		8.298
2		0.00		-2.00		4.437e-02		-52.838		8.257e-03		6.443
2		0.00		-2.40		4.740e-02		-52.421		8.549e-03		7.422
2		0.00		-2.80		5.065e-02		-52.581		1.203e-02		10.346
2		0.00		-3.20		5.184e-02		-53.926		1.494e-02		12.032
2		0.00		-3.60		5.599e-02		-54.581		1.325e-02		8.962
2		0.00		-4.00		5.799e-02		-54.163		1.169e-02		10.039
2		0.00		-4.40		6.076e-02		-53.636		1.518e-02		15.204
2		0.00		-4.80		6.004e-02		-49.492		1.742e-02		13.949
2		0.00		-5.20		6.465e-02		-52.435		1.647e-02		14.457
2		0.00		-5.60		6.666e-02		-48.753		1.384e-02		15.109
2		0.00		-6.00		6.701e-02		-44.687		1.493e-02		12.978
2		0.00		-6.40		6.423e-02		-43.438		1.753e-02		15.088
2		0.00		-6.80		6.559e-02		-47.741		1.869e-02		19.181
2		0.00		-7.20		6.961e-02		-43.746		1.838e-02		21.829
2		0.00		-7.60		7.866e-02		-46.973		1.915e-02		17.086
2		0.00		-8.00		7.154e-02		-41.431		2.087e-02		22.494
2		0.00		-8.40		7.057e-02		-44.055		2.181e-02		18.950
2		0.00		-8.80		7.236e-02		-40.798		1.833e-02		16.916
2		0.00		-9.20		6.643e-02		-40.319		1.897e-02		16.345
2		0.00		-9.60		6.267e-02		-42.372		1.959e-02		13.534
2		0.00		-10.00		5.647e-02		-44.017		1.836e-02		20.656
2		0.00		-9.60		6.116e-02		-42.188		1.731e-02		9.122
2		0.00		-9.20		6.703e-02		-44.647		1.835e-02		13.412
2		0.00		-8.80		6.922e-02		-43.818		1.941e-02		13.605
2		0.00		-8.40		6.370e-02		-42.585		1.939e-02		21.611
2		0.00		-8.00		6.171e-02		-43.272		1.747e-02		16.347
2		0.00		-7.60		6.935e-02		-47.157		1.529e-02		13.497
2		0.00		-7.20		6.496e-02		-49.545		1.539e-02		14.934
2		0.00		-6.80		6.126e-02		-46.310		1.491e-02		10.626
2		0.00		-6.40		5.966e-02		-48.225		1.676e-02		11.870
2		0.00		-6.00		6.016e-02		-47.660		1.323e-02		7.561
2		0.00		-5.60		5.789e-02		-49.041		9.162e-03		5.765
2		0.00		-5.20		5.239e-02		-48.254		9.470e-03		6.691
2		0.00		-4.80		4.727e-02		-49.500		1.071e-02		9.718
2		0.00		-4.40		4.309e-02		-51.613		1.018e-02		9.644
2		0.00		-4.00		4.001e-02		-50.461		7.241e-03		7.319
2		0.00		-3.60		3.577e-02		-50.523		5.261e-03		6.138
2		0.00		-3.20		3.080e-02		-49.419		5.458e-03		8.897
2		0.00		-2.80		2.580e-02		-48.815		5.617e-03		9.552
2		0.00		-2.40		2.176e-02		-48.136		4.572e-03		8.623
2		0.00		-2.00		1.788e-02		-45.846		2.975e-03		8.333
2		0.00		-1.60		1.318e-02		-43.342		2.062e-03		9.837
2		0.00		-1.20		8.351e-03		-40.971		2.032e-03		12.570
2		0.00		-0.80		3.787e-03		-40.534		1.344e-03		31.247
2		0.00		-0.40		1.908e-03		54.751		8.655e-04		59.291
3		0.00		0.00		5.843e-03		118.768		1.515e-03		16.548
3		0.00		0.40		1.021e-02		124.862		1.827e-03		10.495
3		0.00		0.80		1.431e-02		128.476		3.220e-03		11.265
3		0.00		1.20		1.836e-02		127.531		4.554e-03		13.160
3		0.00		1.60		2.197e-02		127.179		5.292e-03		9.058
3		0.00		2.00		2.628e-02		129.858		4.794e-03		6.961
3		0.00		2.40		3.097e-02		131.063		5.191e-03		7.191
3		0.00		2.80		3.413e-02		131.715		6.422e-03		8.368
3		0.00		3.20		3.690e-02		130.258		8.499e-03		11.525
3		0.00		3.60		3.971e-02		130.247		9.837e-03		9.736
3		0.00		4.00		4.386e-02		130.520		8.468e-03		7.469
3		0.00		4.40		4.738e-02		132.570		7.567e-03		5.801
3		0.00		4.80		4.948e-02		132.827		8.825e-03		7.281
3		0.00		5.20		5.033e-02		130.905		1.191e-02		15.391
3		0.00		5.60		5.227e-02		130.512		1.344e-02		14.547
3		0.00		6.00		5.555e-02		131.268		1.304e-02		8.880
3		0.00		6.40		5.841e-02		134.534		1.033e-02		6.219
3		0.00		6.80		5.923e-02		133.655		1.153e-02		9.273
3		0.00		7.20		6.005e-02		129.488		1.629e-02		17.375
3		0.00		7.60		5.949e-02		129.262		1.821e-02		22.036
3		0.00		8.00		6.346e-02		132.063		1.917e-02		10.605
3		0.00		8.40		6.413e-02		135.507		1.570e-02		11.675
3		0.00		8.80		6.628e-02		128.953		1.736e-02		19.727
3		0.00		9.20		6.837e-02		132.352		1.974e-02		14.293
3		0.00		9.60		6.459e-02		127.729		2.134e-02		25.604
3		0.00		10.00		6.156e-02		133.552		2.044e-02		11.796
3		0.00		9.60		6.244e-02		132.397		1.788e-02		12.832
3		0.00		9.20		6.629e-02		133.039		1.547e-02		11.991
3		0.00		8.80		6.185e-02		129.999		1.579e-02		16.197
3		0.00		8.40		6.067e-02		130.649		1.585e-02		14.903
3		0.00		8.00		5.731e-02		130.827		1.590e-02		18.966
3		0.00		7.60		5.494e-02		131.101		1.524e-02		13.598
3		0.00		7.20		5.378e-02		132.606		1.225e-02		7.479
3		0.00		6.80		5.126e-02		132.978		9.336e-03		5.858
3		0.00		6.40		4.660e-02		134.445		8.412e-03		7.736
3		0.00		6.00		4.314e-02		131.294		9.953e-03		13.095
3		0.00		5.60		3.862e-02		129.830		1.008e-02		15.060
3		0.00		5.20		3.465e-02		130.917		8.969e-03		11.413
3		0.00		4.80		3.263e-02		133.274		6.258e-03		8.381
3		0.00		4.40		2.868e-02		133.499		4.951e-03		7.272
3		0.00		4.00		2.386e-02		134.784		4.830e-03		8.685
3		0.00		3.60		1.941e-02		131.621		5.033e-03		14.331
3		0.00		3.20		1.542e-02		130.264		4.070e-03		14.640
3		0.00		2.80		1.117e-02		130.536		2.454e-03		10.443
3		0.00		2.40		7.330e-03		132.664		1.569e-03		12.788
3		0.00		2.00		2.824e-03		98.315		1.203e-03		52.152
3		0.00		1.60		3.020e-03		-52.095		1.208e-03		35.262
3		0.00		1.20		6.860e-03		-57.435		1.955e-03		19.698
3		0.00		0.80		1.209e-02		-56.813		3.074e-03		9.856
3		0.00		0.40		1.709e-02		-51.152		3.297e-03		9.905
3		0.00		0.00		2.244e-02		-51.799		3.619e-03		8.462
3		0.00		-0.40		2.671e-02		-48.732		4.930e-03		8.225
3		0.00		-0.80		3.078e-02		-49.855		6.587e-03		9.399
3		0.00		-1.20		3.489e-02		-51.976		7.400e-03		8.689
3		0.00		-1.60		4.026e-02		-52.701		6.482e-03		6.338
3		0.00		-2.00		4.414e-02		-51.663		6.736e-03		6.949
3		0.00		-2.40		4.801e-02		-50.490		7.952e-03		6.933
3		0.00		-2.80		4.998e-02		-52.034		1.082e-02		11.198
3		0.00		-3.20		5.313e-02		-53.353		1.406e-02		11.167
3		0.00		-3.60		5.714e-02		-53.910		1.288e-02		8.955
3		0.00		-4.00		6.211e-02		-52.272		9.926e-03		5.992
3		0.00		-4.40		6.229e-02		-50.822		1.153e-02		8.634
3		0.00		-4.80		6.218e-02		-49.843		1.557e-02		12.610
3		0.00		-5.20		6.374e-02		-47.263		1.931e-02		13.490
3		0.00		-5.60		6.332e-02		-48.636		1.798e-02		14.826
3		0.00		-6.00		6.953e-02		-45.587		1.568e-02		14.090
3		0.00		-6.40		6.822e-02		-43.488		1.580e-02		16.771
3		0.00		-6.80		6.523e-02		-45.028		1.808e-02		20.036
3		0.00		-7.20		6.538e-02		-39.561		1.932e-02		23.186
3		0.00		-7.60		6.742e-02		-45.201		2.153e-02		21.267
3		0.00		-8.00		7.206e-02		-40.103		1.816e-02		17.563
3		0.00		-8.40		6.598e-02		-42.039		1.526e-02		23.000
3		0.00		-8.80		6.913e-02		-36.627		1.701e-02		13.135
3		0.00		-9.20		6.752e-02		-43.682		2.033e-02		20.638
3		0.00		-9.60		6.182e-02		-39.656		1.918e-02		20.228
3		0.00		-10.00		5.795e-02		-43.310		1.567e-02		9.515
3		0.00		-9.60		6.298e-02		-41.614		1.574e-02		10.709
3		0.00		-9.20		6.454e-02		-38.327		1.629e-02		13.649
3		0.00		-8.80		6.989e-02		-43.001		1.853e-02		12.480
3		0.00		-8.40		6.404e-02		-41.700		1.800e-02		23.428
3		0.00		-8.00		6.586e-02		-42.062		1.796e-02		16.045
3		0.00		-7.60		6.646e-02		-44.467		1.640e-02		11.911
3		0.00		-7.20		6.632e-02		-48.170		1.385e-02		14.678
3		0.00		-6.80		6.425e-02		-46.602		1.236e-02		9.853
3		0.00		-6.40		6.065e-02		-48.986		1.507e-02		13.602
3		0.00		-6.00		5.704e-02		-49.414		1.663e-02		13.930
3		0.00		-5.60		5.326e-02		-50.279		1.561e-02		12.208
3		0.00		-5.20		5.162e-02		-50.379		1.240e-02		8.154
3		0.00		-4.80		4.867e-02		-49.527		9.152e-03		6.118
3		0.00		-4.40		4.313e-02		-50.393		8.205e-03		7.319
3		0.00		-4.00		3.818e-02		-50.470		8.573e-03		9.728
3		0.00		-3.60		3.313e-02		-51.892		8.513e-03		13.894
3		0.00		-3.20		2.949e-02		-51.299		6.917e-03		9.574
3		0.00		-2.80		2.667e-02		-48.877		4.245e-03		8.041
3		0.00		-2.40		2.221e-02		-46.754		3.302e-03		8.648
3		0.00		-2.00		1.776e-02		-47.810		3.032e-03		8.275
3		0.00		-1.60		1.264e-02		-44.890		2.743e-03		11.729
3		0.00		-1.20		8.047e-03		-40.910		1.943e-03		12.759
3		0.00		-0.80		3.897e-03		-29.767		1.205e-03		22.575
3		0.00		-0.40		2.248e-03		61.581		9.253e-04		48.597
4		0.00		0.00		5.728e-03		118.503		1.394e-03		13.413
4		0.00		0.40		1.045e-02		123.787		2.108e-03		13.747
4		0.00		0.80		1.463e-02		126.767		3.314e-03		11.306
4		0.00		1.20		1.936e-02		128.285		3.634e-03		8.688
4		0.00		1.60		2.405e-02		130.355		3.694e-03		7.838
4		0.00		2.00		2.781e-02		130.173		4.315e-03		7.591
4		0.00		2.40		3.088e-02		130.887		6.081e-03		10.285
4		0.00		2.80		3.372e-02		129.421		8.001e-03		11.992
4		0.00		3.20		3.671e-02		128.905		8.769e-03		9.991
4		0.00		3.60		4.097e-02		131.623		6.887e-03		5.783
4		0.00		4.00		4.446e-02		131.960		7.794e-03		7.353
4		0.00		4.40		4.541e-02		133.121		9.824e-03		10.187
4		0.00		4.80		4.697e-02		129.858		1.222e-02		13.202
4		0.00		5.20		4.922e-02		129.801		1.391e-02		11.389
4		0.00		5.60		5.413e-02		131.417		1.059e-02		6.347
4		0.00		6.00		5.727e-02		133.685		1.000e-02		7.168
4		0.00		6.40		5.762e-02		131.401		1.335e-02		12.992
4		0.00		6.80		5.884e-02		129.983		1.644e-02		20.290
4		0.00		7.20		6.232e-02		131.913		1.697e-02		12.062
4		0.00		7.60		6.486e-02		135.914		1.372e-02		10.341
4		0.00		8.00		6.448e-02		130.539		1.519e-02		17.438
4		0.00		8.40		6.619e-02		134.967		1.716e-02		13.618
4		0.00		8.80		6.686e-02		132.425		1.872e-02		15.883
4		0.00		9.20		6.450e-02		134.754		1.800e-02		25.145
4		0.00		9.60		6.841e-02		132.426		1.660e-02		15.619
4		0.00		10.00		6.318e-02		135.042		1.511e-02		15.258
4		0.00		9.60		6.309e-02		127.460		1.857e-02		22.927
4		0.00		9.20		5.981e-02		123.263		1.945e-02		36.915
4		0.00		8.80		6.318e-02		133.487		1.725e-02		8.298
4		0.00		8.40		6.185e-02		132.775		1.404e-02		11.771
4		0.00		8.00		5.636e-02		130.275		1.535e-02		15.176
4		0.00		7.60		5.360e-02		130.034		1.559e-02		15.835
4		0.00		7.20		4.990e-02		129.486		1.581e-02		15.502
4		0.00		6.80		4.940e-02		131.900		1.192e-02		9.196
4		0.00		6.40		4.648e-02		132.872		9.445e-03		8.268
4		0.00		6.00		4.222e-02		132.373		9.579e-03		11.092
4		0.00		5.60		3.753e-02		130.470		1.018e-02		18.915
4		0.00		5.20		3.436e-02		129.724		9.210e-03		11.572
4		0.00		4.80		3.189e-02		131.867		5.892e-03		8.210
4		0.00		4.40		2.878e-02		132.776		4.717e-03		6.794
4		0.00		4.00		2.391e-02		134.984		4.511e-03		9.221
4		0.00		3.60		1.978e-02		132.635		4.825e-03		13.872
4		0.00		3.20		1.588e-02		131.943		3.391e-03		11.578
4		0.00		2.80		1.159e-02		133.786		2.037e-03		11.935
4		0.00		2.40		6.852e-03		132.660		1.550e-03		13.432
4		0.00		2.00		2.777e-03		92.324		1.023e-03		55.557
4		0.00		1.60		3.029e-03		-61.641		1.201e-03		28.948
4		0.00		1.20		7.510e-03		-57.281		1.884e-03		15.602
4		0.00		0.80		1.249e-02		-50.787		2.491e-03		10.459
4		0.00		0.40		1.725e-02		-51.603		2.908e-03		10.270
4		0.00		0.00		2.128e-02		-50.702		4.156e-03		10.587
4		0.00		-0.40		2.509e-02		-49.765		5.868e-03		9.588
4		0.00		-0.80		2.948e-02		-50.180		6.011e-03		7.970
4		0.00		-1.20		3.459e-02		-52.640		5.722e-03		6.736
4		0.00		-1.60		3.934e-02		-50.050		6.290e-03		6.754
4		0.00		-2.00		4.298e-02		-51.067		8.735e-03		9.428
4		0.00		-2.40		4.596e-02		-52.015		1.110e-02		9.505
4		0.00		-2.80		4.991e-02		-53.713		1.176e-02		8.566
4		0.00		-3.20		5.504e-02		-52.420		9.460e-03		6.606
4		0.00		-3.60		5.786e-02		-51.474		9.543e-03		6.323
4		0.00		-4.00		5.921e-02		-52.206		1.369e-02		10.720
4		0.00		-4.40		5.995e-02		-51.345		1.637e-02		16.044
4		0.00		-4.80		6.335e-02		-51.431		1.675e-02		11.482
4		0.00		-5.20		6.522e-02		-49.417		1.331e-02		12.220
4		0.00		-5.60		6.409e-02		-49.112		1.404e-02		14.478
4		0.00		-6.00		6.504e-02		-47.373		1.798e-02		14.829
4		0.00		-6.40		6.373e-02		-40.223		1.867e-02		17.685
4		0.00		-6.80		6.542e-02		-45.919		1.631e-02		19.236
4		0.00		-7.20		7.320e-02		-44.001		1.792e-02		15.158
4		0.00		-7.60		7.154e-02		-42.865		1.585e-02		16.465
4		0.00		-8.00		6.939e-02		-44.271		2.097e-02		23.150
4		0.00		-8.40		6.672e-02		-34.374		2.105e-02		26.323
4		0.00		-8.80		6.587e-02		-36.833		1.987e-02		15.320
4		0.00		-9.20		6.493e-02		-39.695		1.865e-02		17.361
4		0.00		-9.60		6.118e-02		-44.448		1.891e-02		13.369
4		0.00		-10.00		5.377e-02		-47.419		1.795e-02		18.682
4		0.00		-9.60		5.723e-02		-36.741		1.915e-02		19.384
4		0.00		-9.20		6.022e-02		-39.033		1.851e-02		13.802
4		0.00		-8.80		6.773e-02		-41.190		1.774e-02		13.758
4		0.00		-8.40		6.452e-02		-43.784		1.685e-02		17.276
4		0.00		-8.00		6.558e-02		-44.869		1.858e-02		15.881
4		0.00		-7.60		6.364e-02		-43.878		1.918e-02		21.086
4		0.00		-7.20		6.421e-02		-44.459		1.650e-02		9.545
4		0.00		-6.80		6.608e-02		-49.221		1.339e-02		11.760
4		0.00		-6.40		6.250e-02		-47.803		1.066e-02		8.494
4		0.00		-6.00		5.793e-02		-48.942		1.242e-02		14.071
4		0.00		-5.60		5.517e-02		-48.630		1.349e-02		10.213
4		0.00		-5.20		5.190e-02		-50.078		1.304e-02		10.779
4		0.00		-4.80		4.900e-02		-50.740		9.778e-03		6.605
4		0.00		-4.40		4.489e-02		-49.645		6.841e-03		5.693
4		0.00		-4.00		3.986e-02		-50.194		6.852e-03		6.277
4		0.00		-3.60		3.523e-02		-50.131		7.197e-03		9.307
4		0.00		-3.20		3.087e-02		-49.067		7.226e-03		9.369
4		0.00		-2.80		2.673e-02		-49.709		5.492e-03		8.446
4		0.00		-2.40		2.290e-02		-46.112		3.461e-03		7.326
4		0.00		-2.00		1.785e-02		-46.734		2.779e-03		8.457
4		0.00		-1.60		1.303e-02		-43.808		2.596e-03		10.703
4		0.00		-1.20		8.669e-03		-39.077		1.729e-03		12.723
4		0.00		-0.80		4.256e-03		-31.829		1.340e-03		20.494
4		0.00		-0.40		1.785e-03		32.143		7.811e-04		60.187
5		0.00		0.00		5.580e-03		125.319		1.529e-03		15.700
5		0.00		0.40		9.863e-03		123.553		2.137e-03		12.718
5		0.00		0.80		1.347e-02		128.850		3.197e-03		11.671
5		0.00		1.20		1.791e-02		125.957		3.664e-03		10.274
5		0.00		1.60		2.274e-02		128.818		3.582e-03		8.564
5		0.00		2.00		2.699e-02		129.777		4.368e-03		6.946
5		0.00		2.40		3.008e-02		131.256		6.128e-03		10.147
5		0.00		2.80		3.353e-02		129.406		7.815e-03		12.284
5		0.00		3.20		3.713e-02		130.475		8.228e-03		8.946
5		0.00		3.60		4.145e-02		131.139		6.910e-03		6.288
5		0.00		4.00		4.424e-02		132.041		7.489e-03		6.092
5		0.00		4.40		4.643e-02		132.810		9.751e-03		9.415
5		0.00		4.80		4.839e-02		130.322		1.228e-02		14.265
5		0.00		5.20		5.056e-02		129.796		1.231e-02		10.077
5		0.00		5.60		5.495e-02		133.185		9.718e-03		5.280
5		0.00		6.00		5.503e-02		132.735		1.127e-02		8.494
5		0.00		6.40		5.500e-02		128.304		1.597e-02		21.333
5		0.00		6.80		5.730e-02		127.234		1.841e-02		25.865
5		0.00		7.20		6.029e-02		132.265		1.654e-02		9.921
5		0.00		7.60		6.265e-02		132.028		1.494e-02		12.680
5		0.00		8.00		6.083e-02		132.344		1.682e-02		17.069
5		0.00		8.40		6.283e-02		129.666		1.976e-02		18.984
5		0.00		8.80		6.252e-02		128.589		2.010e-02		23.621
5		0.00		9.20		6.336e-02		136.166		1.887e-02		13.085
5		0.00		9.60		6.835e-02		131.267		1.780e-02		14.747
5		0.00		10.00		6.544e-02		131.350		1.857e-02		15.909
5		0.00		9.60		6.365e-02		133.081		1.886e-02		16.902
5		0.00		9.20		6.487e-02		131.147		1.873e-02		17.240
5		0.00		8.80		6.483e-02		133.116		1.643e-02		8.470
5		0.00		8.40		6.317e-02		132.818		1.199e-02		8.409
5		0.00		8.00		5.882e-02		132.082		1.346e-02		13.188
5		0.00		7.60		5.483e-02		130.936		1.432e-02		15.387
5		0.00		7.20		5.217e-02		130.774		1.395e-02		13.972
5		0.00		6.80		4.996e-02		131.260		1.200e-02		9.400
5		0.00		6.40		4.780e-02		132.866		8.810e-03		7.497
5		0.00		6.00		4.444e-02		132.586		8.176e-03		8.048
5		0.00		5.60		4.017e-02		132.903		9.115e-03		11.937
5		0.00		5.20		3.565e-02		130.051		9.443e-03		15.438
5		0.00		4.80		3.248e-02		130.861		7.595e-03		9.114
5		0.00		4.40		2.962e-02		132.905		4.727e-03		6.817
5		0.00		4.00		2.493e-02		133.008		4.370e-03		7.812
5		0.00		3.60		2.032e-02		134.583		4.199e-03		9.409
5		0.00		3.20		1.611e-02		129.762		3.904e-03		13.884
5		0.00		2.80		1.155e-02		134.136		2.456e-03		10.922
5		0.00		2.40		7.348e-03		131.795		1.391e-03		11.752
5		0.00		2.00		3.408e-03		120.294		1.194e-03		41.784
5		0.00		1.60		2.622e-03		-28.641		1.046e-03		40.349
5		0.00		1.20		6.810e-03		-52.806		1.666e-03		13.650
5		0.00		0.80		1.159e-02		-50.248		2.534e-03		9.949
5		0.00		0.40		1.666e-02		-49.873		2.615e-03		10.348
5		0.00		0.00		2.194e-02		-49.787		3.447e-03		6.592
5		0.00		-0.40		2.585e-02		-48.038		4.750e-03		8.552
5		0.00		-0.80		2.995e-02		-50.829		6.312e-03		8.519
5		0.00		-1.20		3.374e-02		-49.746		7.294e-03		8.668
5		0.00		-1.60		3.916e-02		-52.091		6.241e-03		6.436
5		0.00		-2.00		4.347e-02		-51.147		7.045e-03		6.724
5		0.00		-2.40		4.618e-02		-51.578		9.802e-03		10.313
5		0.00		-2.80		4.982e-02		-52.547		1.195e-02		11.065
5		0.00		-3.20		5.359e-02		-53.869		1.279e-02		8.910
5		0.00		-3.60		5.758e-02		-52.706		1.059e-02		6.150
5		0.00		-4.00		5.871e-02		-52.900		1.177e-02		9.274
5		0.00		-4.40		6.103e-02		-52.156		1.640e-02		12.293
5		0.00		-4.80		6.050e-02		-50.950		1.849e-02		11.740
5		0.00		-5.20		6.286e-02		-51.844		1.864e-02		14.146
5		0.00		-5.60		6.652e-02		-48.087		1.493e-02		14.363
5		0.00		-6.00		6.792e-02		-47.012		1.638e-02		12.950
5		0.00		-6.40		6.188e-02		-39.278		1.939e-02		15.364
5		0.00		-6.80		6.406e-02		-40.399		1.917e-02		16.791
5		0.00		-7.20		6.619e-02		-39.273		1.731e-02		13.812
5		0.00		-7.60		7.044e-02		-39.255		1.680e-02		16.631
5		0.00		-8.00		7.535e-02		-43.110		1.837e-02		14.103
5		0.00		-8.40		6.769e-02		-39.828		1.908e-02		16.287
5		0.00		-8.80		6.737e-02		-44.583		1.978e-02		19.150
5		0.00		-9.20		6.514e-02		-36.431		1.628e-02		14.660
5		0.00		-9.60		6.202e-02		-43.382		1.604e-02		13.561
5		0.00		-10.00		5.780e-02		-45.613		1.620e-02		14.168
5		0.00		-9.60		6.009e-02		-38.113		1.818e-02		18.245
5		0.00		-9.20		6.371e-02		-37.738		1.815e-02		14.948
5		0.00		-8.80		6.408e-02		-35.200		1.457e-02		14.339
5		0.00		-8.40		6.784e-02		-47.279		1.708e-02		17.781
5		0.00		-8.00		6.704e-02		-42.975		1.733e-02		15.523
5		0.00		-7.60		6.245e-02		-42.821		1.817e-02		16.778
5		0.00		-7.20		6.239e-02		-43.932		1.684e-02		10.147
5		0.00		-6.80		6.516e-02		-47.702		1.233e-02		8.368
5		0.00		-6.40		5.960e-02		-49.910		1.307e-02		12.182
5		0.00		-6.00		5.753e-02		-49.778		1.499e-02		12.794
5		0.00		-5.60		5.337e-02		-49.961		1.500e-02		11.837
5		0.00		-5.20		5.099e-02		-50.226		1.319e-02		8.904
5		0.00		-4.80		4.838e-02		-50.367		8.397e-03		6.027
5		0.00		-4.40		4.298e-02		-49.941		8.001e-03		6.669
5		0.00		-4.00		3.812e-02		-50.233		9.071e-03		9.675
5		0.00		-3.60		3.365e-02		-50.515		8.580e-03		10.963
5		0.00		-3.20		3.025e-02		-50.108		5.531e-03		8.102
5		0.00		-2.80		2.734e-02		-48.410		4.182e-03		6.463
5		0.00		-2.40		2.226e-02		-46.113		3.995e-03		8.122
5		0.00		-2.00		1.744e-02		-44.377		3.983e-03		9.172
5		0.00		-1.60		1.299e-02		-45.248		2.869e-03		10.020
5		0.00		-1.20		8.345e-03		-40.104		1.674e-03		13.277
5		0.00		-0.80		4.173e-03		-43.834		1.182e-03		27.834
5		0.00		-0.40		2.138e-03		42.391		9.469e-04		53.599
6		0.00		0.00		5.089e-03		115.267		1.625e-03		21.258
6		0.00		0.40		9.600e-03		121.121		2.110e-03		11.925
6		0.00		0.80		1.377e-02		130.710		2.218e-03		8.470
6		0.00		1.20		1.827e-02		128.831		3.171e-03		8.144
6		0.00		1.60		2.165e-02		128.588		5.536e-03		14.309
6		0.00		2.00		2.474e-02		129.622		6.507e-03		10.837
6		0.00		2.40		2.964e-02		129.611		6.084e-03		7.472
6		0.00		2.80		3.312e-02		131.390		6.231e-03		7.391
6		0.00		3.20		3.558e-02		131.644		8.849e-03		11.817
6		0.00		3.60		3.788e-02		129.199		1.047e-02		16.453
6		0.00		4.00		4.075e-02		129.575		1.027e-02		9.656
6		0.00		4.40		4.533e-02		131.187		8.209e-03		6.627
6		0.00		4.80		4.701e-02		132.934		9.795e-03		8.251
6		0.00		5.20		4.858e-02		130.694		1.309e-02		15.351
6		0.00		5.60		5.091e-02		128.947		1.458e-02		14.484
6		0.00		6.00		5.662e-02		130.677		1.164e-02		8.691
6		0.00		6.40		5.758e-02		133.439		1.175e-02		9.597
6		0.00		6.80		5.781e-02		130.400		1.447e-02		16.555
6		0.00		7.20		6.075e-02		127.864		1.704e-02		23.953
6		0.00		7.60		6.411e-02		132.962		1.464e-02		9.078
6		0.00		8.00		6.515e-02		133.588		1.465e-02		13.962
6		0.00		8.40		6.407e-02		129.924		1.797e-02		18.553
6		0.00		8.80		6.532e-02		129.756		1.874e-02		17.197
6		0.00		9.20		6.503e-02		133.554		1.823e-02		15.277
6		0.00		9.60		6.633e-02		133.078		1.627e-02		21.716
6		0.00		10.00		6.248e-02		128.441		1.897e-02		18.038
6		0.00		9.60		6.340e-02		132.424		2.002e-02		21.453
6		0.00		9.20		6.172e-02		132.041		1.810e-02		13.092
6		0.00		8.80		6.560e-02		133.307		1.471e-02		9.413
6		0.00		8.40		6.003e-02		130.596		1.566e-02		13.980
6		0.00		8.00		5.701e-02		129.173		1.694e-02		17.958
6		0.00		7.60		5.472e-02		129.580		1.604e-02		20.718
6		0.00		7.20		5.333e-02		132.463		1.119e-02		7.736
6		0.00		6.80		4.985e-02		132.288		1.070e-02		8.561
6		0.00		6.40		4.574e-02		131.554		1.230e-02		13.299
6		0.00		6.00		4.200e-02		130.189		1.197e-02		11.714
6		0.00		5.60		4.029e-02		132.668		7.681e-03		7.439
6		0.00		5.20		3.635e-02		132.602		7.080e-03		8.595
6		0.00		4.80		3.196e-02		131.925		7.710e-03		13.274
6		0.00		4.40		2.812e-02		130.648		7.361e-03		13.310
6		0.00		4.00		2.520e-02		134.236		4.430e-03		7.615
6		0.00		3.60		2.088e-02		133.731		3.618e-03		7.716
6		0.00		3.20		1.627e-02		132.050		3.594e-03		15.433
6		0.00		2.80		1.176e-02		131.982		2.643e-03		11.474
6		0.00		2.40		7.606e-03		130.555		1.578e-03		11.937
6		0.00		2.00		3.064e-03		105.586		1.082e-03		61.655
6		0.00		1.60		2.570e-03		-45.727		1.060e-03		41.275
6		0.00		1.20		6.689e-03		-52.482		1.878e-03		16.197
6		0.00		0.80		1.158e-02		-52.807		2.302e-03		11.702
6		0.00		0.40		1.605e-02		-47.472		3.271e-03		9.074
6		0.00		0.00		1.982e-02		-49.871		5.286e-03		11.862
6		0.00		-0.40		2.414e-02		-52.862		5.508e-03		8.457
6		0.00		-0.80		2.944e-02		-49.731		5.111e-03		7.703
6		0.00		-1.20		3.317e-02		-50.247		6.884e-03		8.034
6		0.00		-1.60		3.628e-02		-51.447		9.422e-03		10.188
6		0.00		-2.00		4.109e-02		-52.573		9.048e-03		8.183
6		0.00		-2.40		4.581e-02		-51.497		8.694e-03		7.851
6		0.00		-2.80		4.741e-02		-51.659		1.144e-02		11.961
6		0.00		-3.20		5.041e-02		-55.241		1.431e-02		12.188
6		0.00		-3.60		5.666e-02		-54.908		1.132e-02		8.394
6		0.00		-4.00		5.842e-02		-51.884		1.050e-02		9.587
6		0.00		-4.40		5.963e-02		-51.995		1.488e-02		13.902
6		0.00		-4.80		6.347e-02		-50.016		1.639e-02		9.047
6		0.00		-5.20		6.795e-02		-48.747		1.244e-02		8.615
6		0.00		-5.60		6.760e-02		-46.234		1.488e-02		8.503
6		0.00		-6.00		6.439e-02		-43.089		1.735e-02		15.143
6		0.00		-6.40		6.872e-02		-44.257		1.517e-02		10.864
6		0.00		-6.80		6.825e-02		-39.755		1.510e-02		17.378
6		0.00		-7.20		6.777e-02		-39.846		1.837e-02		16.766
6		0.00		-7.60		6.980e-02		-41.850		2.097e-02		19.755
6		0.00		-8.00		7.329e-02		-43.178		1.761e-02		18.915
6		0.00		-8.40		6.909e-02		-39.543		1.868e-02		23.821
6		0.00		-8.80		6.841e-02		-43.450		2.175e-02		24.156
6		0.00		-9.20		6.179e-02		-39.265		2.034e-02		23.298
6		0.00		-9.60		6.198e-02		-39.511		1.684e-02		13.153
6		0.00		-10.00		5.506e-02		-44.636		1.529e-02		11.997
6		0.00		-9.60		6.002e-02		-43.968		2.068e-02		18.662
6		0.00		-9.20		6.093e-02		-38.854		1.848e-02		14.422
6		0.00		-8.80		6.906e-02		-42.523		1.609e-02		10.910
6		0.00		-8.40		6.677e-02		-41.586		1.701e-02		13.023
6		0.00		-8.00		6.068e-02		-40.160		1.808e-02		20.254
6		0.00		-7.60		6.370e-02		-43.298		1.766e-02		11.183
6		0.00		-7.20		6.701e-02		-48.692		1.505e-02		12.958
6		0.00		-6.80		6.269e-02		-48.952		1.532e-02		13.972
6		0.00		-6.40		6.042e-02		-45.775		1.634e-02		16.695
6		0.00		-6.00		5.963e-02		-48.688		1.439e-02		9.163
6		0.00		-5.60		5.669e-02		-47.788		9.395e-03		6.508
6		0.00		-5.20		5.093e-02		-48.208		1.070e-02		8.365
6		0.00		-4.80		4.657e-02		-49.700		1.146e-02		12.825
6		0.00		-4.40		4.338e-02		-51.013		9.383e-03		9.098
6		0.00		-4.00		3.963e-02		-51.024		6.011e-03		6.830
6		0.00		-3.60		3.523e-02		-49.478		5.997e-03		7.551
6		0.00		-3.20		3.053e-02		-50.778		6.610e-03		10.694
6		0.00		-2.80		2.621e-02		-48.279		5.743e-03		8.395
6		0.00		-2.40		2.244e-02		-48.447		3.525e-03		6.757
6		0.00		-2.00		1.757e-02		-44.763		2.979e-03		8.289
6		0.00		-1.60		1.310e-02		-45.545		2.715e-03		11.920
6		0.00		-1.20		8.586e-03		-39.936		2.295e-03		12.581
6		0.00		-0.80		4.382e-03		-40.228		1.169e-03		23.920
6		0.00		-0.40		2.167e-03		33.547		8.367e-04		59.505
7		0.00		0.00		5.477e-03		112.729		1.387e-03		20.173
7		0.00		0.40		9.630e-03		122.116		2.500e-03		13.963
7		0.00		0.80		1.412e-02		124.388		2.927e-03		11.115
7		0.00		1.20		1.822e-02		129.133		3.035e-03		9.054
7		0.00		1.60		2.183e-02		129.799		4.407e-03		9.360
7		0.00		2.00		2.513e-02		130.212		5.765e-03		11.628
7		0.00		2.40		3.000e-02		129.865		6.108e-03		7.908
7		0.00		2.80		3.500e-02		130.956		5.055e-03		6.395
7		0.00		3.20		3.748e-02		132.257		6.063e-03		7.319
7		0.00		3.60		4.001e-02		132.757		8.889e-03		10.727
7		0.00		4.00		4.282e-02		129.359		1.029e-02		11.586
7		0.00		4.40		4.696e-02		131.955		9.046e-03		6.384
7		0.00		4.80		4.920e-02		133.829		7.881e-03		6.749
7		0.00		5.20		5.189e-02		132.235		1.097e-02		10.679
7		0.00		5.60		5.250e-02		131.300		1.300e-02		14.775
7		0.00		6.00		5.580e-02		130.464		1.420e-02		10.972
7		0.00		6.40		5.906e-02		132.343		1.119e-02		6.707
7		0.00		6.80		5.871e-02		131.466		1.301e-02		11.723
7		0.00		7.20		6.008e-02		131.473		1.626e-02		14.946
7		0.00		7.60		5.995e-02		127.654		1.822e-02		31.778
7		0.00		8.00		6.413e-02		134.411		1.771e-02		8.155
7		0.00		8.40		6.534e-02		136.352		1.358e-02		11.648
7		0.00		8.80		6.750e-02		128.064		1.876e-02		20.090
7		0.00		9.20		6.226e-02		129.007		1.973e-02		27.744
7		0.00		9.60		6.334e-02		132.597		2.045e-02		19.168
7		0.00		10.00		6.252e-02		136.704		1.688e-02		14.358
7		0.00		9.60		6.648e-02		130.308		1.712e-02		14.717
7		0.00		9.20		6.523e-02		131.851		1.768e-02		15.072
7		0.00		8.80		6.043e-02		132.047		1.796e-02		22.695
7		0.00		8.40		6.207e-02		129.644		1.751e-02		23.886
7		0.00		8.00		6.103e-02		133.275		1.307e-02		7.414
7		0.00		7.60		5.649e-02		133.446		1.039e-02		7.256
7		0.00		7.20		5.264e-02		131.953		1.260e-02		12.222
7		0.00		6.80		5.022e-02		131.221		1.282e-02		13.214
7		0.00		6.40		4.665e-02		130.373		1.242e-02		11.545
7		0.00		6.00		4.423e-02		132.788		9.836e-03		8.776
7		0.00		5.60		4.144e-02		133.133		7.013e-03		6.181
7		0.00		5.20		3.642e-02		134.054		6.990e-03		8.465
7		0.00		4.80		3.177e-02		132.428		8.038e-03		15.274
7		0.00		4.40		2.763e-02		131.118		7.429e-03		14.125
7		0.00		4.00		2.410e-02		132.133		5.033e-03		9.100
7		0.00		3.60		2.086e-02		133.424		3.790e-03		7.421
7		0.00		3.20		1.604e-02		133.865		3.555e-03		10.381
7		0.00		2.80		1.162e-02		130.252		3.005e-03		18.690
7		0.00		2.40		7.581e-03		126.868		2.102e-03		21.732
7		0.00		2.00		3.052e-03		106.528		1.006e-03		58.616
7		0.00		1.60		2.409e-03		-49.889		1.236e-03		42.087
7		0.00		1.20		6.410e-03		-43.442		1.883e-03		19.906
7		0.00		0.80		1.079e-02		-47.806		2.894e-03		11.051
7		0.00		0.40		1.538e-02		-48.581		3.539e-03		10.013
7		0.00		0.00		1.992e-02		-51.632		3.888e-03		8.937
7		0.00		-0.40		2.462e-02		-49.033		3.770e-03		7.834
7		0.00		-0.80		2.897e-02		-48.568		4.768e-03		6.723
7		0.00		-1.20		3.294e-02		-48.934		6.103e-03		7.808
7		0.00		-1.60		3.655e-02		-49.956		8.520e-03		10.327
7		0.00		-2.00		4.019e-02		-52.803		9.584e-03		9.248
7		0.00		-2.40		4.581e-02		-52.064		8.012e-03		7.118
7		0.00		-2.80		4.953e-02		-50.725		7.899e-03		6.160
7		0.00		-3.20		5.179e-02		-51.623		1.063e-02		9.074
7		0.00		-3.60		5.566e-02		-52.963		1.372e-02		12.113
7		0.00		-4.00		5.731e-02		-53.860		1.570e-02		10.779
7		0.00		-4.40		6.255e-02		-52.286		1.233e-02		7.949
7		0.00		-4.80		6.411e-02		-53.284		1.338e-02		11.238
7		0.00		-5.20		6.534e-02		-49.715		1.388e-02		10.065
7		0.00		-5.60		6.249e-02		-45.447		1.740e-02		10.237
7		0.00		-6.00		6.423e-02		-46.406		2.001e-02		15.907
7		0.00		-6.40		6.351e-02		-44.170		1.677e-02		14.912
7		0.00		-6.80		6.639e-02		-44.387		1.768e-02		21.784
7		0.00		-7.20		7.025e-02		-39.678		1.760e-02		14.881
7		0.00		-7.60		6.751e-02		-43.150		2.069e-02		18.989
7		0.00		-8.00		6.546e-02		-36.569		2.020e-02		21.002
7		0.00		-8.40		6.989e-02		-41.534		2.014e-02		17.493
7		0.00		-8.80		6.840e-02		-36.207		1.682e-02		17.935
7		0.00		-9.20		6.895e-02		-41.539		1.894e-02		17.616
7		0.00		-9.60		6.256e-02		-44.959		1.846e-02		14.673
7		0.00		-10.00		5.848e-02		-44.526		1.769e-02		19.382
7		0.00		-9.60		6.208e-02		-41.011		1.970e-02		21.377
7		0.00		-9.20		6.492e-02		-36.626		1.656e-02		12.456
7		0.00		-8.80		6.776e-02		-43.368		1.681e-02		16.179
7		0.00		-8.40		7.008e-02		-41.111		1.610e-02		11.982
7		0.00		-8.00		6.325e-02		-39.603		1.780e-02		14.968
7		0.00		-7.60		6.248e-02		-41.739		1.770e-02		13.890
7		0.00		-7.20		6.659e-02		-45.196		1.652e-02		10.325
7		0.00		-6.80		6.668e-02		-46.644		1.385e-02		9.491
7		0.00		-6.40		6.111e-02		-48.321		1.335e-02		10.181
7		0.00		-6.00		5.673e-02		-50.502		1.577e-02		15.880
7		0.00		-5.60		5.493e-02		-48.672		1.607e-02		13.263
7		0.00		-5.20		5.113e-02		-51.233		1.460e-02		8.937
7		0.00		-4.80		4.815e-02		-50.871		9.440e-03		8.364
7		0.00		-4.40		4.398e-02		-50.076		7.733e-03		6.360
7		0.00		-4.00		3.879e-02		-50.542		8.485e-03		10.426
7		0.00		-3.60		3.450e-02		-50.890		8.706e-03		11.454
7		0.00		-3.20		2.983e-02		-52.109		7.971e-03		10.927
7		0.00		-2.80		2.726e-02		-48.958		5.159e-03		8.231
7		0.00		-2.40		2.325e-02		-48.715		3.749e-03		6.769
7		0.00		-2.00		1.813e-02		-46.996		3.356e-03		7.526
7		0.00		-1.60		1.382e-02		-47.230		2.872e-03		11.246
7		0.00		-1.20		9.272e-03		-41.600		2.076e-03		13.392
7		0.00		-0.80		5.220e-03		-44.430		1.380e-03		18.230
7		0.00		-0.40		1.907e-03		22.895		6.641e-04		54.088
8		0.00		0.00		4.564e-03		116.021		1.333e-03		23.359
8		0.00		0.40		8.721e-03		124.764		1.787e-03		13.315
8		0.00		0.80		1.334e-02		128.956		2.929e-03		13.315
8		0.00		1.20		1.742e-02		128.020		3.670e-03		9.905
8		0.00		1.60		2.197e-02		129.760		3.466e-03		6.784
8		0.00		2.00		2.613e-02		131.469		4.226e-03		7.327
8		0.00		2.40		2.919e-02		131.830		6.090e-03		9.040
8		0.00		2.80		3.213e-02		129.551		7.985e-03		12.895
8		0.00		3.20		3.523e-02		129.329		8.771e-03		9.782
8		0.00		3.60		3.962e-02		131.792		6.801e-03		6.937
8		0.00		4.00		4.284e-02		131.839		7.101e-03		6.039
8		0.00		4.40		4.450e-02		132.760		9.765e-03		9.323
8		0.00		4.80		4.623e-02		130.404		1.286e-02		14.168
8		0.00		5.20		4.886e-02		130.515		1.416e-02		11.773
8		0.00		5.60		5.404e-02		131.969		1.028e-02		6.563
8		0.00		6.00		5.615e-02		133.595		9.796e-03		6.429
8		0.00		6.40		5.766e-02		131.370		1.408e-02		13.018
8		0.00		6.80		5.945e-02		129.537		1.607e-02		17.132
8		0.00		7.20		6.327e-02		131.385		1.653e-02		10.186
8		0.00		7.60		6.509e-02		133.539		1.307e-02		9.810
8		0.00		8.00		6.506e-02		132.687		1.491e-02		11.942
8		0.00		8.40		6.373e-02		130.688		1.773e-02		21.960
8		0.00		8.80		6.481e-02		130.223		1.850e-02		35.341
8		0.00		9.20		6.456e-02		138.431		1.620e-02		13.438
8		0.00		9.60		6.785e-02		134.952		1.599e-02		21.228
8		0.00		10.00		6.616e-02		131.655		1.954e-02		16.858
8		0.00		9.60		6.189e-02		126.230		1.929e-02		33.980
8		0.00		9.20		6.278e-02		128.736		1.891e-02		24.593
8		0.00		8.80		6.224e-02		134.645		1.650e-02		10.323
8		0.00		8.40		6.046e-02		133.614		1.411e-02		12.841
8		0.00		8.00		5.772e-02		129.553		1.660e-02		15.370
8		0.00		7.60		5.471e-02		129.527		1.639e-02		21.072
8		0.00		7.20		5.167e-02		128.433		1.615e-02		15.870
8		0.00		6.80		5.087e-02		131.694		1.147e-02		7.325
8		0.00		6.40		4.773e-02		132.983		9.130e-03		7.210
8		0.00		6.00		4.360e-02		133.728		9.837e-03		9.220
8		0.00		5.60		3.943e-02		131.154		1.045e-02		15.660
8		0.00		5.20		3.635e-02		130.194		9.485e-03		13.056
8		0.00		4.80		3.360e-02		132.750		6.361e-03		7.751
8		0.00		4.40		3.044e-02		132.563		5.307e-03		7.554
8		0.00		4.00		2.573e-02		134.072		4.812e-03		8.608
8		0.00		3.60		2.142e-02		133.458		4.576e-03		14.501
8		0.00		3.20		1.742e-02		129.845		3.674e-03		10.142
8		0.00		2.80		1.335e-02		131.837		2.423e-03		8.504
8		0.00		2.40		8.457e-03		131.977		1.611e-03		10.808
8		0.00		2.00		3.759e-03		107.287		1.307e-03		50.099
8		0.00		1.60		1.901e-03		-33.226		8.155e-04		63.215
8		0.00		1.20		5.721e-03		-51.052		1.762e-03		25.127
8		0.00		0.80		1.043e-02		-51.572		2.156e-03		10.539
8		0.00		0.40		1.518e-02		-47.213		2.532e-03		8.097
8		0.00		0.00		1.960e-02		-46.700		3.912e-03		8.424
8		0.00		-0.40		2.370e-02		-51.042		5.447e-03		9.786
8		0.00		-0.80		2.797e-02		-51.715		6.188e-03		8.402
8		0.00		-1.20		3.297e-02		-50.730		5.407e-03		6.879
8		0.00		-1.60		3.772e-02		-51.981		6.081e-03		7.335
8		0.00		-2.00		4.087e-02		-50.614		8.078e-03		9.000
8		0.00		-2.40		4.455e-02		-51.431		1.053e-02		9.912
8		0.00		-2.80		4.792e-02		-53.106		1.202e-02		9.596
8		0.00		-3.20		5.387e-02		-52.703		9.601e-03		6.869
8		0.00		-3.60		5.662e-02		-51.196		9.455e-03		6.857
8		0.00		-4.00		5.799e-02		-52.374		1.269e-02		12.701
8		0.00		-4.40		5.948e-02		-52.138		1.481e-02		14.709
8		0.00		-4.80		6.404e-02		-50.912		1.636e-02		11.393
8		0.00		-5.20		6.661e-02		-49.675		1.354e-02		9.285
8		0.00		-5.60		6.507e-02		-46.252		1.375e-02		12.869
8		0.00		-6.00		6.840e-02		-47.114		1.814e-02		15.335
8		0.00		-6.40		6.227e-02		-39.474		1.729e-02		20.175
8		0.00		-6.80		6.656e-02		-44.419		1.682e-02		15.551
8		0.00		-7.20		6.976e-02		-40.301		1.668e-02		18.257
8		0.00		-7.60		7.078e-02		-40.079		1.706e-02		15.880
8		0.00		-8.00		7.053e-02		-41.397		2.049e-02		18.768
8		0.00		-8.40		6.509e-02		-40.848		2.033e-02		20.780
8		0.00		-8.80		6.585e-02		-38.389		2.065e-02		16.150
8		0.00		-9.20		6.637e-02		-37.690		1.712e-02		14.087
8		0.00		-9.60		5.920e-02		-45.669		1.795e-02		19.487
8		0.00		-10.00		5.566e-02		-48.610		1.872e-02		20.951
8		0.00		-9.60		5.965e-02		-39.927		2.051e-02		22.092
8		0.00		-9.20		6.348e-02		-44.542		2.045e-02		13.948
8		0.00		-8.80		6.832e-02		-43.317		1.730e-02		15.260
8		0.00		-8.40		6.585e-02		-43.646		1.668e-02		16.205
8		0.00		-8.00		6.695e-02		-44.835		1.930e-02		12.914
8		0.00		-7.60		6.389e-02		-43.538		1.957e-02		14.923
8		0.00		-7.20		6.557e-02		-45.836		1.720e-02		12.730
8		0.00		-6.80		6.551e-02		-47.788		1.267e-02		9.285
8		0.00		-6.40		6.170e-02		-48.109		1.196e-02		10.383
8		0.00		-6.00		5.807e-02		-48.053		1.340e-02		12.412
8		0.00		-5.60		5.495e-02		-48.772		1.424e-02		11.203
8		0.00		-5.20		5.219e-02		-48.914		1.130e-02		7.250
8		0.00		-4.80		4.854e-02		-49.478		7.466e-03		6.081
8		0.00		-4.40		4.412e-02		-49.223		7.077e-03		6.802
8		0.00		-4.00		3.859e-02		-49.549		8.376e-03		8.942
8		0.00		-3.60		3.391e-02		-51.317		8.497e-03		11.387
8		0.00		-3.20		3.044e-02		-50.487		5.963e-03		7.953
8		0.00		-2.80		2.703e-02		-47.195		4.028e-03		6.533
8		0.00		-2.40		2.235e-02		-45.783		3.599e-03		7.719
8		0.00		-2.00		1.737e-02		-45.059		3.410e-03		8.996
8		0.00		-1.60		1.264e-02		-43.269		2.924e-03		10.624
8		0.00		-1.20		8.695e-03		-35.419		1.586e-03		12.213
8		0.00		-0.80		4.183e-03		-32.301		1.327e-03		19.774
8		0.00		-0.40		1.816e-03		31.866		7.173e-04		63.308
