# Date of analysis: 2024-03-08 10;58
# Segment other properties: height: -39.436156705798346, diff height: 231.39702496945307, deflection: 36.12751199096794, deflection error: 6.604099173525303, adhesion: 14.814377869120168, phase offset: 0
# 
# Loop index	Read Volt (V)	Write Volt (V)	Amplitude (a.u)	Phase (deg)	Sigma Amp (a.u)	Sigma Pha (deg)	
1		0.00		0.00		6.259e-03		-9.008		5.641e-03		54.871
1		0.00		0.40		4.857e-03		-0.627		4.055e-03		50.288
1		0.00		0.80		3.577e-03		-26.787		2.768e-03		48.008
1		0.00		1.20		2.938e-03		-30.398		1.604e-03		64.276
1		0.00		1.60		2.778e-03		-30.440		1.586e-03		78.647
1		0.00		2.00		3.150e-03		13.585		2.020e-03		93.054
1		0.00		2.40		3.521e-03		34.067		2.379e-03		84.992
1		0.00		2.80		3.063e-03		45.337		2.311e-03		61.309
1		0.00		3.20		4.416e-03		62.872		2.693e-03		65.934
1		0.00		3.60		5.078e-03		67.210		2.726e-03		68.641
1		0.00		4.00		5.829e-03		47.401		3.081e-03		81.680
1		0.00		4.40		6.187e-03		59.559		3.077e-03		75.457
1		0.00		4.80		6.723e-03		47.382		3.653e-03		78.187
1		0.00		5.20		7.630e-03		42.110		4.923e-03		82.566
1		0.00		5.60		8.151e-03		37.107		5.109e-03		82.008
1		0.00		6.00		8.529e-03		37.873		5.595e-03		81.850
1		0.00		6.40		9.160e-03		37.997		5.642e-03		87.422
1		0.00		6.80		9.762e-03		44.090		6.353e-03		78.587
1		0.00		7.20		1.028e-02		29.797		6.474e-03		87.689
1		0.00		7.60		1.030e-02		31.156		6.573e-03		81.074
1		0.00		8.00		9.576e-03		33.157		4.818e-03		72.457
1		0.00		8.40		9.824e-03		23.811		5.322e-03		74.826
1		0.00		8.80		9.827e-03		21.538		5.475e-03		65.636
1		0.00		9.20		1.023e-02		24.208		5.852e-03		69.740
1		0.00		9.60		1.011e-02		19.451		5.710e-03		66.107
1		0.00		10.00		9.644e-03		7.937		5.823e-03		76.040
1		0.00		9.60		1.005e-02		11.045		5.549e-03		68.846
1		0.00		9.20		1.083e-02		10.819		6.621e-03		75.336
1		0.00		8.80		1.054e-02		15.906		6.314e-03		71.897
1		0.00		8.40		9.404e-03		13.618		5.568e-03		75.164
1		0.00		8.00		1.036e-02		12.925		5.983e-03		71.621
1		0.00		7.60		9.458e-03		21.210		5.077e-03		74.569
1		0.00		7.20		1.012e-02		30.178		5.333e-03		77.829
1		0.00		6.80		8.996e-03		30.100		4.688e-03		84.015
1		0.00		6.40		8.509e-03		33.295		4.776e-03		83.243
1		0.00		6.00		8.215e-03		38.864		4.782e-03		85.610
1		0.00		5.60		8.155e-03		37.490		4.630e-03		87.952
1		0.00		5.20		7.427e-03		33.975		4.692e-03		87.900
1		0.00		4.80		6.213e-03		25.661		3.772e-03		86.333
1		0.00		4.40		5.758e-03		26.644		3.462e-03		83.755
1		0.00		4.00		5.149e-03		22.045		3.422e-03		90.060
1		0.00		3.60		4.305e-03		16.835		3.016e-03		88.994
1		0.00		3.20		3.998e-03		-4.723		2.368e-03		97.031
1		0.00		2.80		3.765e-03		-9.879		2.305e-03		99.362
1		0.00		2.40		3.673e-03		-23.113		2.395e-03		91.661
1		0.00		2.00		4.191e-03		-39.204		3.445e-03		84.267
1		0.00		1.60		4.857e-03		-61.245		4.600e-03		62.443
1		0.00		1.20		6.169e-03		-47.738		6.046e-03		55.015
1		0.00		0.80		6.830e-03		-50.125		6.799e-03		52.848
1		0.00		0.40		7.864e-03		-50.401		7.405e-03		53.868
1		0.00		0.00		9.326e-03		-37.438		8.754e-03		59.368
1		0.00		-0.40		1.065e-02		-48.397		9.709e-03		49.894
1		0.00		-0.80		1.048e-02		-57.917		9.092e-03		55.587
1		0.00		-1.20		1.186e-02		-41.655		9.712e-03		54.307
1		0.00		-1.60		1.267e-02		-51.406		1.032e-02		54.062
1		0.00		-2.00		1.409e-02		-49.124		1.089e-02		46.435
1		0.00		-2.40		1.341e-02		-48.297		9.965e-03		64.787
1		0.00		-2.80		1.452e-02		-50.984		1.134e-02		48.236
1		0.00		-3.20		1.603e-02		-46.654		1.241e-02		52.531
1		0.00		-3.60		1.693e-02		-53.285		1.296e-02		49.140
1		0.00		-4.00		1.665e-02		-52.007		1.236e-02		58.591
1		0.00		-4.40		1.620e-02		-54.124		1.151e-02		71.640
1		0.00		-4.80		1.646e-02		-48.731		1.164e-02		79.719
1		0.00		-5.20		1.721e-02		-43.222		1.243e-02		79.272
1		0.00		-5.60		1.986e-02		-46.589		1.528e-02		62.381
1		0.00		-6.00		2.188e-02		-39.301		1.820e-02		44.111
1		0.00		-6.40		1.935e-02		-53.559		1.395e-02		71.854
1		0.00		-6.80		2.138e-02		-57.331		1.609e-02		66.160
1		0.00		-7.20		2.329e-02		-55.378		1.858e-02		59.112
1		0.00		-7.60		2.390e-02		-46.018		1.830e-02		58.662
1		0.00		-8.00		2.166e-02		-58.685		1.575e-02		72.844
1		0.00		-8.40		2.151e-02		-51.419		1.575e-02		66.501
1		0.00		-8.80		2.139e-02		-45.622		1.800e-02		59.111
1		0.00		-9.20		1.915e-02		-48.639		1.526e-02		68.666
1		0.00		-9.60		1.924e-02		-41.920		1.491e-02		67.048
1		0.00		-10.00		1.492e-02		-48.334		1.023e-02		76.797
1		0.00		-9.60		1.657e-02		-45.244		1.167e-02		75.359
1		0.00		-9.20		1.757e-02		-43.693		1.223e-02		72.017
1		0.00		-8.80		2.015e-02		-28.028		1.515e-02		62.487
1		0.00		-8.40		2.029e-02		-39.160		1.489e-02		57.684
1		0.00		-8.00		2.125e-02		-31.902		1.480e-02		58.705
1		0.00		-7.60		2.072e-02		-39.908		1.331e-02		62.296
1		0.00		-7.20		2.027e-02		-37.278		1.359e-02		56.994
1		0.00		-6.80		1.728e-02		-47.380		1.134e-02		59.859
1		0.00		-6.40		1.823e-02		-42.869		1.085e-02		53.874
1		0.00		-6.00		1.718e-02		-42.486		1.025e-02		54.331
1		0.00		-5.60		1.562e-02		-70.422		8.317e-03		53.280
1		0.00		-5.20		1.436e-02		-77.118		8.061e-03		49.486
1		0.00		-4.80		1.360e-02		-86.830		7.025e-03		43.884
1		0.00		-4.40		1.229e-02		-87.310		7.032e-03		40.513
1		0.00		-4.00		1.052e-02		-82.912		6.369e-03		49.451
1		0.00		-3.60		1.098e-02		-74.221		5.352e-03		41.667
1		0.00		-3.20		8.471e-03		-87.219		4.700e-03		45.962
1		0.00		-2.80		7.657e-03		-83.803		4.117e-03		52.502
1		0.00		-2.40		6.482e-03		-94.808		3.842e-03		40.020
1		0.00		-2.00		5.653e-03		-90.707		3.657e-03		43.873
1		0.00		-1.60		4.835e-03		-81.339		2.926e-03		45.306
1		0.00		-1.20		3.530e-03		-81.324		2.441e-03		52.203
1		0.00		-0.80		2.561e-03		-49.489		1.549e-03		75.563
1		0.00		-0.40		2.502e-03		-37.894		1.601e-03		88.266
2		0.00		0.00		2.207e-03		-13.808		1.785e-03		84.727
2		0.00		0.40		2.465e-03		15.758		2.382e-03		84.845
2		0.00		0.80		2.952e-03		40.736		3.343e-03		69.619
2		0.00		1.20		3.318e-03		54.575		3.158e-03		53.358
2		0.00		1.60		3.937e-03		61.091		3.971e-03		41.150
2		0.00		2.00		4.510e-03		68.663		4.617e-03		40.866
2		0.00		2.40		4.907e-03		26.374		2.452e-03		102.756
2		0.00		2.80		4.515e-03		5.628		2.070e-03		104.415
2		0.00		3.20		5.141e-03		20.605		2.304e-03		113.882
2		0.00		3.60		5.576e-03		20.471		2.790e-03		108.020
2		0.00		4.00		6.835e-03		45.014		3.117e-03		98.385
2		0.00		4.40		6.902e-03		44.117		3.313e-03		100.782
2		0.00		4.80		7.998e-03		46.224		4.055e-03		92.450
2		0.00		5.20		8.001e-03		27.820		4.423e-03		82.412
2		0.00		5.60		8.833e-03		32.354		4.697e-03		81.955
2		0.00		6.00		9.617e-03		37.057		5.636e-03		78.314
2		0.00		6.40		9.474e-03		22.594		5.714e-03		73.941
2		0.00		6.80		9.059e-03		18.683		4.896e-03		71.365
2		0.00		7.20		1.093e-02		36.002		6.614e-03		75.367
2		0.00		7.60		1.137e-02		33.412		6.441e-03		75.548
2		0.00		8.00		1.160e-02		32.315		6.420e-03		77.549
2		0.00		8.40		1.252e-02		38.682		6.893e-03		80.911
2		0.00		8.80		1.212e-02		40.520		5.789e-03		78.107
2		0.00		9.20		1.346e-02		47.556		5.823e-03		75.542
2		0.00		9.60		1.363e-02		46.015		5.907e-03		81.960
2		0.00		10.00		1.516e-02		50.748		6.988e-03		83.850
2		0.00		9.60		1.594e-02		56.757		7.247e-03		80.550
2		0.00		9.20		1.538e-02		53.332		8.017e-03		84.706
2		0.00		8.80		1.730e-02		70.887		8.447e-03		69.584
2		0.00		8.40		1.625e-02		64.258		7.152e-03		72.353
2		0.00		8.00		1.242e-02		63.102		9.334e-03		50.724
2		0.00		7.60		1.436e-02		62.600		7.073e-03		77.894
2		0.00		7.20		1.574e-02		59.207		7.414e-03		90.922
2		0.00		6.80		1.501e-02		62.092		7.202e-03		85.284
2		0.00		6.40		1.198e-02		57.404		7.318e-03		76.462
2		0.00		6.00		1.274e-02		55.635		6.146e-03		90.518
2		0.00		5.60		1.199e-02		50.709		6.208e-03		91.579
2		0.00		5.20		1.071e-02		43.706		6.021e-03		103.132
2		0.00		4.80		9.953e-03		40.007		5.803e-03		99.415
2		0.00		4.40		8.240e-03		19.376		5.089e-03		100.908
2		0.00		4.00		7.635e-03		8.352		4.723e-03		106.690
2		0.00		3.60		7.273e-03		0.401		4.305e-03		107.868
2		0.00		3.20		5.500e-03		-24.644		2.921e-03		99.229
2		0.00		2.80		5.314e-03		-34.086		2.634e-03		95.304
2		0.00		2.40		4.140e-03		-61.908		2.381e-03		68.737
2		0.00		2.00		4.806e-03		-69.439		3.283e-03		63.966
2		0.00		1.60		5.120e-03		-55.399		4.056e-03		56.478
2		0.00		1.20		5.697e-03		-38.631		5.035e-03		55.849
2		0.00		0.80		6.306e-03		-32.058		5.766e-03		53.566
2		0.00		0.40		7.546e-03		-35.765		6.460e-03		47.916
2		0.00		0.00		8.466e-03		-25.873		6.732e-03		45.780
2		0.00		-0.40		9.029e-03		-24.144		6.747e-03		45.287
2		0.00		-0.80		1.014e-02		-19.458		7.361e-03		47.435
2		0.00		-1.20		1.126e-02		-14.969		8.100e-03		47.933
2		0.00		-1.60		1.267e-02		-20.376		8.939e-03		44.536
2		0.00		-2.00		1.373e-02		-21.737		9.508e-03		41.100
2		0.00		-2.40		1.453e-02		-23.982		1.072e-02		42.121
2		0.00		-2.80		1.559e-02		-25.698		1.200e-02		47.692
2		0.00		-3.20		1.690e-02		-42.042		1.314e-02		44.747
2		0.00		-3.60		1.713e-02		-53.785		1.359e-02		52.301
2		0.00		-4.00		1.641e-02		-59.945		1.241e-02		64.105
2		0.00		-4.40		2.005e-02		-50.690		1.541e-02		55.440
2		0.00		-4.80		2.144e-02		-55.549		1.589e-02		49.616
2		0.00		-5.20		2.280e-02		-45.757		1.661e-02		54.031
2		0.00		-5.60		2.368e-02		-41.079		1.708e-02		54.600
2		0.00		-6.00		2.316e-02		-27.037		1.638e-02		58.361
2		0.00		-6.40		2.262e-02		-36.545		1.407e-02		51.992
2		0.00		-6.80		1.999e-02		-76.887		1.311e-02		51.961
2		0.00		-7.20		2.330e-02		-71.473		1.150e-02		47.472
2		0.00		-7.60		2.583e-02		-53.192		1.286e-02		46.133
2		0.00		-8.00		2.450e-02		-52.913		1.419e-02		56.887
2		0.00		-8.40		2.554e-02		-12.454		1.530e-02		42.195
2		0.00		-8.80		2.286e-02		1.694		1.590e-02		35.315
2		0.00		-9.20		2.117e-02		5.838		1.438e-02		30.720
2		0.00		-9.60		1.859e-02		-9.926		1.128e-02		42.793
2		0.00		-10.00		1.574e-02		-2.821		9.458e-03		37.439
2		0.00		-9.60		1.736e-02		-5.335		1.083e-02		39.761
2		0.00		-9.20		1.888e-02		-8.906		1.185e-02		37.225
2		0.00		-8.80		1.885e-02		-13.439		1.277e-02		39.672
2		0.00		-8.40		1.989e-02		-29.231		1.285e-02		51.314
2		0.00		-8.00		2.149e-02		-17.587		1.575e-02		53.761
2		0.00		-7.60		1.918e-02		-44.519		1.341e-02		69.028
2		0.00		-7.20		1.885e-02		-53.809		1.297e-02		76.573
2		0.00		-6.80		1.846e-02		-53.435		1.265e-02		72.620
2		0.00		-6.40		2.163e-02		-39.578		1.573e-02		58.452
2		0.00		-6.00		1.949e-02		-43.945		1.362e-02		55.159
2		0.00		-5.60		1.835e-02		-37.657		1.286e-02		60.974
2		0.00		-5.20		1.753e-02		-27.350		1.221e-02		59.630
2		0.00		-4.80		1.493e-02		-32.948		9.309e-03		56.018
2		0.00		-4.40		1.272e-02		-71.205		6.006e-03		48.942
2		0.00		-4.00		1.197e-02		-85.395		6.214e-03		44.745
2		0.00		-3.60		1.110e-02		-82.146		6.746e-03		48.931
2		0.00		-3.20		1.127e-02		-43.791		5.748e-03		54.889
2		0.00		-2.80		9.514e-03		-2.912		7.080e-03		44.182
2		0.00		-2.40		8.003e-03		-4.006		6.810e-03		39.799
2		0.00		-2.00		7.059e-03		-9.590		5.407e-03		38.680
2		0.00		-1.60		6.042e-03		-7.131		4.290e-03		46.534
2		0.00		-1.20		5.133e-03		-20.832		3.599e-03		44.718
2		0.00		-0.80		4.103e-03		-30.015		3.239e-03		49.317
2		0.00		-0.40		3.076e-03		-51.481		2.471e-03		58.716
3		0.00		0.00		2.747e-03		-42.998		1.852e-03		70.604
3		0.00		0.40		2.507e-03		-8.796		1.209e-03		87.899
3		0.00		0.80		3.015e-03		14.695		1.616e-03		92.147
3		0.00		1.20		3.074e-03		36.267		1.587e-03		91.167
3		0.00		1.60		4.563e-03		36.040		2.519e-03		81.046
3		0.00		2.00		5.103e-03		50.959		3.112e-03		71.542
3		0.00		2.40		5.135e-03		40.101		3.045e-03		81.245
3		0.00		2.80		5.605e-03		45.830		2.813e-03		81.105
3		0.00		3.20		6.890e-03		43.700		4.078e-03		72.308
3		0.00		3.60		7.845e-03		49.296		4.409e-03		76.519
3		0.00		4.00		8.431e-03		53.658		4.427e-03		84.248
3		0.00		4.40		8.928e-03		49.362		4.412e-03		97.647
3		0.00		4.80		7.876e-03		22.397		4.006e-03		98.830
3		0.00		5.20		7.829e-03		-1.107		4.229e-03		108.622
3		0.00		5.60		8.160e-03		-17.336		4.128e-03		103.988
3		0.00		6.00		8.627e-03		-2.187		4.665e-03		109.071
3		0.00		6.40		8.874e-03		-3.208		4.922e-03		111.083
3		0.00		6.80		9.262e-03		14.418		4.729e-03		110.364
3		0.00		7.20		9.337e-03		33.943		4.781e-03		108.924
3		0.00		7.60		1.026e-02		29.897		5.556e-03		89.752
3		0.00		8.00		1.270e-02		16.563		7.233e-03		75.277
3		0.00		8.40		1.222e-02		18.472		7.578e-03		76.955
3		0.00		8.80		1.420e-02		36.630		9.747e-03		81.583
3		0.00		9.20		1.374e-02		39.430		8.595e-03		78.799
3		0.00		9.60		1.369e-02		49.992		7.898e-03		76.773
3		0.00		10.00		1.465e-02		39.721		6.923e-03		90.485
3		0.00		9.60		1.664e-02		51.080		9.633e-03		78.944
3		0.00		9.20		1.427e-02		46.266		8.078e-03		83.311
3		0.00		8.80		1.628e-02		39.515		8.577e-03		96.065
3		0.00		8.40		1.424e-02		4.396		6.673e-03		113.362
3		0.00		8.00		1.188e-02		-17.226		6.201e-03		103.371
3		0.00		7.60		1.123e-02		-18.374		5.778e-03		107.382
3		0.00		7.20		1.087e-02		-4.781		6.143e-03		106.958
3		0.00		6.80		9.395e-03		1.331		4.832e-03		109.721
3		0.00		6.40		8.600e-03		-0.278		4.617e-03		107.553
3		0.00		6.00		8.011e-03		14.305		4.371e-03		106.106
3		0.00		5.60		8.137e-03		31.482		4.526e-03		88.336
3		0.00		5.20		7.559e-03		27.105		4.497e-03		78.821
3		0.00		4.80		8.119e-03		50.684		5.106e-03		82.314
3		0.00		4.40		6.477e-03		29.388		3.712e-03		72.093
3		0.00		4.00		6.034e-03		29.504		3.911e-03		76.995
3		0.00		3.60		5.144e-03		25.079		3.132e-03		90.635
3		0.00		3.20		4.433e-03		9.411		2.556e-03		88.180
3		0.00		2.80		5.106e-03		-21.459		2.651e-03		92.009
3		0.00		2.40		5.342e-03		-10.127		2.931e-03		103.039
3		0.00		2.00		4.784e-03		-33.273		3.743e-03		76.138
3		0.00		1.60		4.722e-03		-46.329		3.443e-03		81.205
3		0.00		1.20		4.604e-03		-55.495		3.596e-03		72.799
3		0.00		0.80		7.316e-03		-40.764		6.804e-03		49.488
3		0.00		0.40		8.210e-03		-24.202		7.184e-03		40.878
3		0.00		0.00		9.496e-03		-29.104		7.439e-03		44.815
3		0.00		-0.40		1.158e-02		-14.278		8.490e-03		46.422
3		0.00		-0.80		1.385e-02		-20.385		9.653e-03		45.593
3		0.00		-1.20		1.460e-02		-34.638		1.007e-02		48.126
3		0.00		-1.60		1.550e-02		-42.058		1.110e-02		47.884
3		0.00		-2.00		1.692e-02		-43.276		1.242e-02		57.029
3		0.00		-2.40		1.806e-02		-41.735		1.370e-02		53.851
3		0.00		-2.80		1.856e-02		-38.568		1.335e-02		53.451
3		0.00		-3.20		1.906e-02		-29.071		1.311e-02		49.691
3		0.00		-3.60		1.685e-02		-52.211		9.480e-03		56.886
3		0.00		-4.00		1.831e-02		-55.280		1.024e-02		55.870
3		0.00		-4.40		1.937e-02		-15.295		1.289e-02		49.242
3		0.00		-4.80		2.073e-02		-16.490		1.281e-02		41.667
3		0.00		-5.20		2.274e-02		-9.373		1.411e-02		36.600
3		0.00		-5.60		2.098e-02		-17.622		1.360e-02		40.486
3		0.00		-6.00		2.187e-02		-17.604		1.544e-02		42.900
3		0.00		-6.40		2.221e-02		-16.437		1.758e-02		42.217
3		0.00		-6.80		2.011e-02		-38.648		1.421e-02		68.278
3		0.00		-7.20		1.979e-02		-34.805		1.480e-02		80.331
3		0.00		-7.60		2.586e-02		-43.288		2.320e-02		56.937
3		0.00		-8.00		2.473e-02		-41.822		1.980e-02		67.285
3		0.00		-8.40		2.239e-02		-45.043		1.497e-02		71.063
3		0.00		-8.80		2.064e-02		-47.656		1.151e-02		63.974
3		0.00		-9.20		2.340e-02		-59.948		1.066e-02		44.178
3		0.00		-9.60		2.193e-02		-66.150		1.227e-02		46.305
3		0.00		-10.00		1.773e-02		-45.023		1.048e-02		61.939
3		0.00		-9.60		2.182e-02		-4.313		1.360e-02		36.215
3		0.00		-9.20		2.240e-02		0.991		1.414e-02		34.483
3		0.00		-8.80		2.180e-02		-2.915		1.382e-02		34.363
3		0.00		-8.40		2.099e-02		-26.353		1.451e-02		42.855
3		0.00		-8.00		2.178e-02		-30.442		1.657e-02		45.303
3		0.00		-7.60		2.093e-02		-33.574		1.663e-02		55.149
3		0.00		-7.20		1.967e-02		-56.022		1.443e-02		61.962
3		0.00		-6.80		2.061e-02		-48.157		1.633e-02		62.973
3		0.00		-6.40		1.945e-02		-41.722		1.527e-02		54.536
3		0.00		-6.00		1.908e-02		-30.425		1.430e-02		61.864
3		0.00		-5.60		1.726e-02		-46.157		9.983e-03		51.186
3		0.00		-5.20		1.455e-02		-75.132		8.970e-03		57.123
3		0.00		-4.80		1.515e-02		-88.772		7.875e-03		40.832
3		0.00		-4.40		1.478e-02		-86.247		8.353e-03		43.115
3		0.00		-4.00		1.432e-02		-31.781		9.610e-03		51.070
3		0.00		-3.60		1.257e-02		-9.740		9.105e-03		34.700
3		0.00		-3.20		1.093e-02		-19.316		6.911e-03		42.834
3		0.00		-2.80		9.993e-03		-23.009		7.125e-03		45.593
3		0.00		-2.40		9.826e-03		-42.611		7.395e-03		46.496
3		0.00		-2.00		8.358e-03		-56.869		6.514e-03		54.474
3		0.00		-1.60		7.682e-03		-48.002		5.786e-03		46.857
3		0.00		-1.20		6.424e-03		-42.891		4.804e-03		51.184
3		0.00		-0.80		4.805e-03		-26.915		3.379e-03		51.138
3		0.00		-0.40		3.013e-03		-45.818		1.866e-03		62.769
4		0.00		0.00		2.588e-03		-31.068		1.543e-03		71.604
4		0.00		0.40		2.684e-03		-10.344		1.582e-03		87.273
4		0.00		0.80		3.286e-03		-17.246		1.737e-03		95.897
4		0.00		1.20		3.245e-03		-22.093		1.699e-03		97.024
4		0.00		1.60		3.269e-03		-10.936		1.672e-03		98.283
4		0.00		2.00		3.511e-03		-11.229		1.762e-03		100.317
4		0.00		2.40		3.981e-03		-0.688		2.051e-03		102.283
4		0.00		2.80		4.842e-03		20.128		2.353e-03		102.318
4		0.00		3.20		5.437e-03		31.867		2.726e-03		95.644
4		0.00		3.60		6.818e-03		30.277		3.927e-03		77.488
4		0.00		4.00		6.914e-03		24.605		3.887e-03		70.262
4		0.00		4.40		8.965e-03		62.845		5.741e-03		80.933
4		0.00		4.80		8.318e-03		50.445		4.426e-03		74.923
4		0.00		5.20		9.091e-03		51.844		5.121e-03		78.618
4		0.00		5.60		1.066e-02		65.161		5.557e-03		71.843
4		0.00		6.00		1.073e-02		64.749		6.888e-03		51.727
4		0.00		6.40		1.091e-02		75.628		9.067e-03		43.180
4		0.00		6.80		1.373e-02		44.417		5.799e-03		106.707
4		0.00		7.20		1.047e-02		-19.602		5.247e-03		113.580
4		0.00		7.60		1.080e-02		-19.022		5.908e-03		108.839
4		0.00		8.00		1.097e-02		-25.885		5.634e-03		102.556
4		0.00		8.40		1.137e-02		-35.650		6.119e-03		106.271
4		0.00		8.80		1.144e-02		-37.647		5.686e-03		101.621
4		0.00		9.20		1.121e-02		-18.940		6.237e-03		107.977
4		0.00		9.60		1.126e-02		-6.127		6.675e-03		105.004
4		0.00		10.00		1.096e-02		15.167		6.682e-03		98.990
4		0.00		9.60		1.163e-02		18.530		7.486e-03		90.770
4		0.00		9.20		1.154e-02		10.460		5.741e-03		77.706
4		0.00		8.80		1.140e-02		12.556		5.591e-03		75.207
4		0.00		8.40		1.252e-02		25.452		7.685e-03		73.660
4		0.00		8.00		1.280e-02		29.623		7.844e-03		70.228
4		0.00		7.60		1.269e-02		50.003		7.982e-03		79.262
4		0.00		7.20		1.206e-02		37.235		6.914e-03		73.624
4		0.00		6.80		1.154e-02		40.659		6.689e-03		71.587
4		0.00		6.40		1.086e-02		31.822		5.935e-03		78.333
4		0.00		6.00		1.096e-02		52.351		5.105e-03		82.758
4		0.00		5.60		1.197e-02		68.847		5.961e-03		76.574
4		0.00		5.20		1.066e-02		63.205		5.486e-03		79.169
4		0.00		4.80		8.960e-03		72.912		7.224e-03		65.783
4		0.00		4.40		8.990e-03		31.704		5.248e-03		97.627
4		0.00		4.00		7.419e-03		-5.611		4.140e-03		110.601
4		0.00		3.60		5.896e-03		-42.852		3.430e-03		96.708
4		0.00		3.20		4.747e-03		-64.335		2.331e-03		81.538
4		0.00		2.80		3.852e-03		-65.282		2.071e-03		71.916
4		0.00		2.40		4.323e-03		-68.613		2.602e-03		60.241
4		0.00		2.00		4.770e-03		-66.982		3.048e-03		51.079
4		0.00		1.60		5.577e-03		-76.605		3.747e-03		44.920
4		0.00		1.20		6.324e-03		-58.637		4.425e-03		48.775
4		0.00		0.80		7.305e-03		-56.086		5.570e-03		44.522
4		0.00		0.40		8.881e-03		-48.432		6.631e-03		54.952
4		0.00		0.00		1.038e-02		-49.983		7.892e-03		51.988
4		0.00		-0.40		1.179e-02		-43.349		8.858e-03		52.203
4		0.00		-0.80		1.249e-02		-54.814		9.584e-03		48.796
4		0.00		-1.20		1.365e-02		-46.933		1.064e-02		55.794
4		0.00		-1.60		1.554e-02		-52.935		1.195e-02		57.813
4		0.00		-2.00		1.687e-02		-42.668		1.297e-02		53.560
4		0.00		-2.40		1.755e-02		-32.518		1.330e-02		57.105
4		0.00		-2.80		1.801e-02		-26.688		1.291e-02		59.919
4		0.00		-3.20		1.815e-02		-31.495		1.280e-02		59.472
4		0.00		-3.60		1.810e-02		-30.308		1.188e-02		59.793
4		0.00		-4.00		1.730e-02		-58.414		9.985e-03		55.326
4		0.00		-4.40		1.862e-02		-60.730		9.251e-03		55.903
4		0.00		-4.80		2.129e-02		-75.655		1.147e-02		49.046
4		0.00		-5.20		2.072e-02		-66.175		9.922e-03		52.045
4		0.00		-5.60		2.444e-02		-59.246		1.090e-02		48.582
4		0.00		-6.00		2.340e-02		-0.171		1.431e-02		47.861
4		0.00		-6.40		2.486e-02		-8.334		1.579e-02		39.550
4		0.00		-6.80		2.513e-02		-9.676		1.565e-02		41.004
4		0.00		-7.20		2.609e-02		-3.419		1.604e-02		37.238
4		0.00		-7.60		2.876e-02		-6.652		1.820e-02		33.987
4		0.00		-8.00		2.693e-02		-5.628		1.678e-02		36.664
4		0.00		-8.40		2.629e-02		-7.325		1.563e-02		36.033
4		0.00		-8.80		2.309e-02		-5.614		1.421e-02		39.110
4		0.00		-9.20		2.145e-02		-12.016		1.299e-02		43.144
4		0.00		-9.60		1.944e-02		-6.521		1.207e-02		40.141
4		0.00		-10.00		1.674e-02		0.082		1.172e-02		38.659
4		0.00		-9.60		1.865e-02		1.467		1.340e-02		36.682
4		0.00		-9.20		1.926e-02		-12.740		1.282e-02		39.855
4		0.00		-8.80		1.979e-02		-12.516		1.317e-02		42.375
4		0.00		-8.40		2.043e-02		-15.006		1.412e-02		43.011
4		0.00		-8.00		2.090e-02		-17.285		1.559e-02		43.387
4		0.00		-7.60		2.087e-02		-23.022		1.511e-02		50.274
4		0.00		-7.20		2.062e-02		-30.007		1.474e-02		52.674
4		0.00		-6.80		1.995e-02		-37.361		1.495e-02		54.089
4		0.00		-6.40		1.949e-02		-37.641		1.424e-02		50.991
4		0.00		-6.00		1.810e-02		-39.452		1.323e-02		58.436
4		0.00		-5.60		1.581e-02		-46.108		1.152e-02		62.486
4		0.00		-5.20		1.717e-02		-42.059		1.336e-02		53.710
4		0.00		-4.80		1.478e-02		-57.500		1.114e-02		56.777
4		0.00		-4.40		1.293e-02		-49.678		9.540e-03		57.365
4		0.00		-4.00		1.250e-02		-50.850		9.491e-03		58.434
4		0.00		-3.60		1.145e-02		-55.085		8.488e-03		58.081
4		0.00		-3.20		1.114e-02		-45.166		9.055e-03		49.984
4		0.00		-2.80		1.062e-02		-30.815		8.589e-03		48.609
4		0.00		-2.40		9.575e-03		-35.935		7.492e-03		43.799
4		0.00		-2.00		8.106e-03		-39.014		6.330e-03		46.907
4		0.00		-1.60		7.175e-03		-32.984		5.738e-03		48.481
4		0.00		-1.20		5.945e-03		-37.635		4.673e-03		47.840
4		0.00		-0.80		4.841e-03		-40.212		3.771e-03		51.008
4		0.00		-0.40		3.213e-03		-55.828		2.185e-03		58.037
5		0.00		0.00		2.768e-03		-52.646		1.604e-03		73.516
5		0.00		0.40		2.806e-03		-28.989		1.138e-03		90.068
5		0.00		0.80		3.122e-03		23.211		1.951e-03		83.880
5		0.00		1.20		3.734e-03		11.373		2.173e-03		98.016
5		0.00		1.60		3.831e-03		20.531		2.084e-03		97.962
5		0.00		2.00		4.220e-03		35.124		2.454e-03		104.514
5		0.00		2.40		4.533e-03		16.849		2.369e-03		104.883
5		0.00		2.80		5.268e-03		22.064		2.726e-03		99.697
5		0.00		3.20		5.551e-03		26.565		2.650e-03		104.302
5		0.00		3.60		6.572e-03		21.515		3.663e-03		100.114
5		0.00		4.00		6.770e-03		25.804		3.583e-03		99.909
5		0.00		4.40		7.058e-03		10.781		3.920e-03		107.935
5		0.00		4.80		7.412e-03		6.098		3.896e-03		111.295
5		0.00		5.20		7.831e-03		13.238		4.396e-03		107.643
5		0.00		5.60		8.257e-03		14.606		4.525e-03		109.022
5		0.00		6.00		8.352e-03		13.043		4.846e-03		109.859
5		0.00		6.40		8.188e-03		5.884		4.767e-03		104.075
5		0.00		6.80		8.990e-03		0.810		5.223e-03		102.061
5		0.00		7.20		9.457e-03		6.958		5.900e-03		106.850
5		0.00		7.60		9.969e-03		11.531		6.171e-03		110.004
5		0.00		8.00		1.073e-02		20.542		6.576e-03		105.566
5		0.00		8.40		1.090e-02		26.415		6.511e-03		106.652
5		0.00		8.80		1.180e-02		27.749		7.093e-03		99.638
5		0.00		9.20		1.178e-02		27.834		7.754e-03		97.544
5		0.00		9.60		1.186e-02		21.309		7.967e-03		95.071
5		0.00		10.00		1.183e-02		21.297		7.434e-03		90.501
5		0.00		9.60		1.165e-02		24.720		7.228e-03		96.630
5		0.00		9.20		1.124e-02		20.890		6.634e-03		98.630
5		0.00		8.80		1.092e-02		22.842		6.276e-03		100.571
5		0.00		8.40		1.080e-02		26.576		6.507e-03		97.768
5		0.00		8.00		1.077e-02		22.439		5.926e-03		99.067
5		0.00		7.60		1.075e-02		34.726		6.028e-03		99.849
5		0.00		7.20		1.016e-02		28.687		6.342e-03		101.187
5		0.00		6.80		9.336e-03		30.220		5.247e-03		100.079
5		0.00		6.40		8.707e-03		22.991		5.437e-03		106.638
5		0.00		6.00		8.084e-03		29.962		4.054e-03		96.883
5		0.00		5.60		7.401e-03		21.448		3.856e-03		102.518
5		0.00		5.20		6.858e-03		9.372		3.491e-03		108.889
5		0.00		4.80		6.066e-03		12.247		2.830e-03		107.488
5		0.00		4.40		5.128e-03		1.299		2.612e-03		114.311
5		0.00		4.00		5.269e-03		-0.671		3.125e-03		102.727
5		0.00		3.60		4.288e-03		-18.140		3.007e-03		98.975
5		0.00		3.20		4.414e-03		-40.156		2.454e-03		93.952
5		0.00		2.80		4.213e-03		-45.303		2.369e-03		78.183
5		0.00		2.40		4.756e-03		-38.595		2.865e-03		84.526
5		0.00		2.00		5.047e-03		-48.506		2.544e-03		74.281
5		0.00		1.60		5.348e-03		-55.954		3.195e-03		70.662
5		0.00		1.20		6.396e-03		-65.622		4.619e-03		48.745
5		0.00		0.80		7.726e-03		-55.416		5.430e-03		48.366
5		0.00		0.40		9.254e-03		-44.461		6.201e-03		40.178
5		0.00		0.00		1.074e-02		-35.200		7.393e-03		47.388
5		0.00		-0.40		1.230e-02		-28.483		8.420e-03		43.549
5		0.00		-0.80		1.359e-02		-19.106		9.499e-03		44.699
5		0.00		-1.20		1.434e-02		-17.928		9.961e-03		44.408
5		0.00		-1.60		1.505e-02		-15.473		1.046e-02		42.536
5		0.00		-2.00		1.601e-02		-14.886		1.092e-02		41.821
5		0.00		-2.40		1.667e-02		-15.582		1.156e-02		40.806
5		0.00		-2.80		1.817e-02		-17.476		1.253e-02		41.707
5		0.00		-3.20		1.899e-02		-16.471		1.264e-02		40.134
5		0.00		-3.60		1.922e-02		-14.224		1.284e-02		39.104
5		0.00		-4.00		1.998e-02		-16.786		1.364e-02		43.184
5		0.00		-4.40		2.124e-02		-20.622		1.425e-02		43.227
5		0.00		-4.80		2.175e-02		-19.580		1.455e-02		41.488
5		0.00		-5.20		2.248e-02		-19.923		1.495e-02		42.526
5		0.00		-5.60		2.267e-02		-22.433		1.553e-02		44.637
5		0.00		-6.00		2.388e-02		-17.618		1.594e-02		39.752
5		0.00		-6.40		2.383e-02		-14.785		1.573e-02		39.120
5		0.00		-6.80		2.678e-02		-8.619		1.717e-02		39.306
5		0.00		-7.20		2.688e-02		-11.120		1.778e-02		36.581
5		0.00		-7.60		2.686e-02		-11.449		1.816e-02		38.567
5		0.00		-8.00		2.669e-02		-6.235		1.723e-02		37.781
5		0.00		-8.40		2.547e-02		-1.716		1.702e-02		36.676
5		0.00		-8.80		2.475e-02		-3.202		1.696e-02		38.005
5		0.00		-9.20		2.298e-02		3.745		1.481e-02		39.006
5		0.00		-9.60		2.098e-02		3.504		1.319e-02		39.788
5		0.00		-10.00		1.803e-02		7.611		1.106e-02		39.715
5		0.00		-9.60		2.020e-02		8.230		1.235e-02		41.549
5		0.00		-9.20		2.199e-02		-0.032		1.323e-02		44.183
5		0.00		-8.80		2.227e-02		3.158		1.280e-02		41.397
5		0.00		-8.40		2.356e-02		-4.730		1.372e-02		45.312
5		0.00		-8.00		2.335e-02		-19.039		1.218e-02		48.987
5		0.00		-7.60		2.344e-02		-8.014		1.463e-02		43.718
5		0.00		-7.20		2.158e-02		-36.754		1.121e-02		54.783
5		0.00		-6.80		2.099e-02		-49.580		1.031e-02		54.766
5		0.00		-6.40		1.782e-02		-55.076		8.381e-03		63.855
5		0.00		-6.00		1.722e-02		-54.962		8.392e-03		52.028
5		0.00		-5.60		1.534e-02		-48.396		7.953e-03		63.933
5		0.00		-5.20		1.523e-02		-43.153		8.458e-03		49.410
5		0.00		-4.80		1.340e-02		-46.773		8.463e-03		66.785
5		0.00		-4.40		1.035e-02		-77.031		6.096e-03		63.950
5		0.00		-4.00		1.211e-02		-54.435		7.943e-03		62.507
5		0.00		-3.60		1.264e-02		-30.723		8.976e-03		51.605
5		0.00		-3.20		1.143e-02		-27.997		8.039e-03		52.154
5		0.00		-2.80		1.030e-02		-24.716		7.298e-03		56.780
5		0.00		-2.40		9.137e-03		-35.187		6.454e-03		53.383
5		0.00		-2.00		8.198e-03		-28.435		6.041e-03		57.402
5		0.00		-1.60		7.725e-03		-26.323		5.810e-03		52.051
5		0.00		-1.20		6.347e-03		-29.044		4.929e-03		51.084
5		0.00		-0.80		5.118e-03		-35.176		3.740e-03		45.215
5		0.00		-0.40		3.790e-03		-36.207		2.830e-03		64.806
6		0.00		0.00		2.893e-03		-29.609		2.076e-03		64.079
6		0.00		0.40		2.590e-03		-38.494		1.203e-03		75.769
6		0.00		0.80		2.829e-03		1.743		2.046e-03		83.238
6		0.00		1.20		3.556e-03		37.542		2.772e-03		83.622
6		0.00		1.60		3.877e-03		35.343		2.299e-03		89.656
6		0.00		2.00		4.405e-03		30.005		2.700e-03		96.289
6		0.00		2.40		5.112e-03		37.308		2.853e-03		96.400
6		0.00		2.80		6.052e-03		50.824		3.584e-03		94.990
6		0.00		3.20		7.416e-03		44.434		4.623e-03		92.820
6		0.00		3.60		8.168e-03		52.051		4.879e-03		90.805
6		0.00		4.00		8.703e-03		41.307		5.106e-03		88.363
6		0.00		4.40		8.913e-03		40.125		5.352e-03		89.427
6		0.00		4.80		8.464e-03		34.809		5.218e-03		84.708
6		0.00		5.20		9.142e-03		41.190		6.263e-03		88.655
6		0.00		5.60		9.605e-03		39.480		6.223e-03		85.266
6		0.00		6.00		1.033e-02		40.489		6.874e-03		86.234
6		0.00		6.40		1.103e-02		35.323		7.331e-03		75.130
6		0.00		6.80		1.026e-02		25.128		6.736e-03		70.750
6		0.00		7.20		1.173e-02		38.811		7.228e-03		74.518
6		0.00		7.60		1.235e-02		49.317		8.473e-03		74.919
6		0.00		8.00		1.250e-02		42.847		7.808e-03		79.799
6		0.00		8.40		1.177e-02		28.500		7.668e-03		72.091
6		0.00		8.80		1.377e-02		37.535		8.878e-03		76.179
6		0.00		9.20		1.403e-02		38.365		9.416e-03		72.270
6		0.00		9.60		1.433e-02		31.186		9.585e-03		76.939
6		0.00		10.00		1.370e-02		25.554		8.969e-03		75.487
6		0.00		9.60		1.435e-02		27.159		9.055e-03		72.758
6		0.00		9.20		1.351e-02		20.411		8.486e-03		78.092
6		0.00		8.80		1.270e-02		33.825		8.024e-03		79.166
6		0.00		8.40		1.139e-02		14.449		7.148e-03		77.954
6		0.00		8.00		1.090e-02		22.442		6.838e-03		80.747
6		0.00		7.60		9.653e-03		19.891		6.382e-03		79.655
6		0.00		7.20		1.012e-02		30.809		6.211e-03		86.887
6		0.00		6.80		8.932e-03		22.282		5.858e-03		86.786
6		0.00		6.40		9.377e-03		33.453		5.407e-03		95.548
6		0.00		6.00		8.531e-03		34.122		4.358e-03		98.600
6		0.00		5.60		7.672e-03		32.860		4.013e-03		106.254
6		0.00		5.20		7.019e-03		36.044		3.479e-03		98.499
6		0.00		4.80		6.262e-03		18.560		2.829e-03		105.022
6		0.00		4.40		5.369e-03		16.401		2.535e-03		103.107
6		0.00		4.00		4.710e-03		4.373		2.297e-03		101.120
6		0.00		3.60		3.960e-03		-8.644		2.020e-03		104.589
6		0.00		3.20		3.631e-03		-49.904		1.790e-03		92.338
6		0.00		2.80		3.790e-03		-58.006		1.925e-03		81.726
6		0.00		2.40		4.197e-03		-64.097		2.438e-03		78.602
6		0.00		2.00		4.189e-03		-61.218		2.885e-03		77.529
6		0.00		1.60		5.090e-03		-67.625		3.893e-03		61.377
6		0.00		1.20		6.318e-03		-56.112		5.497e-03		55.223
6		0.00		0.80		7.762e-03		-58.735		6.424e-03		46.073
6		0.00		0.40		9.054e-03		-39.071		7.231e-03		55.071
6		0.00		0.00		1.047e-02		-41.923		8.535e-03		43.694
6		0.00		-0.40		1.181e-02		-30.325		9.538e-03		47.276
6		0.00		-0.80		1.344e-02		-27.917		1.019e-02		48.809
6		0.00		-1.20		1.443e-02		-29.188		1.095e-02		45.740
6		0.00		-1.60		1.610e-02		-33.046		1.215e-02		38.305
6		0.00		-2.00		1.704e-02		-29.311		1.222e-02		44.595
6		0.00		-2.40		1.759e-02		-35.818		1.226e-02		47.426
6		0.00		-2.80		1.829e-02		-35.632		1.302e-02		47.836
6		0.00		-3.20		1.998e-02		-34.362		1.423e-02		46.782
6		0.00		-3.60		2.061e-02		-39.366		1.411e-02		48.244
6		0.00		-4.00		2.060e-02		-43.782		1.404e-02		53.460
6		0.00		-4.40		2.218e-02		-41.215		1.571e-02		47.653
6		0.00		-4.80		2.169e-02		-37.410		1.518e-02		51.175
6		0.00		-5.20		2.275e-02		-41.080		1.684e-02		55.420
6		0.00		-5.60		2.319e-02		-41.546		1.648e-02		56.955
6		0.00		-6.00		2.096e-02		-42.125		1.578e-02		61.484
6		0.00		-6.40		2.152e-02		-41.155		1.640e-02		60.496
6		0.00		-6.80		2.248e-02		-43.379		1.707e-02		66.239
6		0.00		-7.20		2.155e-02		-42.854		1.739e-02		61.308
6		0.00		-7.60		2.140e-02		-37.356		1.653e-02		72.517
6		0.00		-8.00		2.150e-02		-31.255		1.723e-02		72.275
6		0.00		-8.40		2.017e-02		-35.962		1.481e-02		80.559
6		0.00		-8.80		1.917e-02		-36.617		1.328e-02		81.063
6		0.00		-9.20		2.003e-02		-43.113		1.459e-02		79.660
6		0.00		-9.60		1.668e-02		-36.250		1.100e-02		88.609
6		0.00		-10.00		1.613e-02		-33.062		1.099e-02		86.916
6		0.00		-9.60		1.743e-02		-39.186		1.134e-02		86.080
6		0.00		-9.20		1.931e-02		-37.372		1.205e-02		81.504
6		0.00		-8.80		2.312e-02		-43.956		1.581e-02		69.876
6		0.00		-8.40		2.257e-02		-41.828		1.514e-02		77.231
6		0.00		-8.00		2.320e-02		-33.473		1.629e-02		69.136
6		0.00		-7.60		2.388e-02		-45.811		1.703e-02		58.737
6		0.00		-7.20		2.230e-02		-36.150		1.585e-02		54.409
6		0.00		-6.80		2.252e-02		-41.953		1.546e-02		51.201
6		0.00		-6.40		2.048e-02		-40.428		1.425e-02		56.530
6		0.00		-6.00		1.992e-02		-39.174		1.417e-02		47.591
6		0.00		-5.60		1.906e-02		-33.982		1.359e-02		48.895
6		0.00		-5.20		1.747e-02		-37.877		1.201e-02		53.076
6		0.00		-4.80		1.608e-02		-28.022		1.112e-02		54.522
6		0.00		-4.40		1.517e-02		-33.544		1.061e-02		52.724
6		0.00		-4.00		1.437e-02		-32.861		9.937e-03		51.515
6		0.00		-3.60		1.302e-02		-29.290		8.918e-03		56.126
6		0.00		-3.20		1.237e-02		-28.554		8.276e-03		51.865
6		0.00		-2.80		1.049e-02		-40.722		7.027e-03		51.219
6		0.00		-2.40		9.508e-03		-34.198		6.442e-03		53.887
6		0.00		-2.00		8.527e-03		-37.394		5.633e-03		52.219
6		0.00		-1.60		7.200e-03		-26.770		4.772e-03		46.211
6		0.00		-1.20		5.060e-03		-42.993		3.075e-03		52.206
6		0.00		-0.80		4.000e-03		-36.654		2.663e-03		58.714
6		0.00		-0.40		3.223e-03		-48.238		2.130e-03		67.854
7		0.00		0.00		2.685e-03		-35.430		1.310e-03		86.051
7		0.00		0.40		3.032e-03		-10.812		1.539e-03		96.674
7		0.00		0.80		3.340e-03		5.664		1.727e-03		92.474
7		0.00		1.20		3.713e-03		24.508		2.534e-03		85.217
7		0.00		1.60		3.739e-03		45.357		4.098e-03		66.287
7		0.00		2.00		4.304e-03		57.454		4.708e-03		64.993
7		0.00		2.40		5.147e-03		66.501		4.670e-03		50.867
7		0.00		2.80		5.455e-03		54.943		5.435e-03		62.709
7		0.00		3.20		5.924e-03		53.709		4.395e-03		63.560
7		0.00		3.60		6.363e-03		58.008		6.408e-03		45.988
7		0.00		4.00		7.264e-03		33.163		4.248e-03		100.980
7		0.00		4.40		7.693e-03		21.491		4.848e-03		101.619
7		0.00		4.80		8.130e-03		6.901		4.356e-03		104.911
7		0.00		5.20		8.318e-03		3.136		4.485e-03		109.683
7		0.00		5.60		8.903e-03		13.144		4.570e-03		112.747
7		0.00		6.00		9.343e-03		32.726		4.613e-03		107.329
7		0.00		6.40		1.004e-02		40.672		4.782e-03		106.669
7		0.00		6.80		1.006e-02		39.907		5.006e-03		93.627
7		0.00		7.20		1.048e-02		53.844		5.757e-03		88.816
7		0.00		7.60		1.134e-02		53.840		6.917e-03		83.934
7		0.00		8.00		1.145e-02		19.504		7.306e-03		76.731
7		0.00		8.40		1.280e-02		31.337		8.721e-03		73.535
7		0.00		8.80		1.365e-02		36.827		9.259e-03		79.714
7		0.00		9.20		1.299e-02		45.658		8.257e-03		74.434
7		0.00		9.60		1.312e-02		50.578		8.553e-03		75.277
7		0.00		10.00		1.314e-02		52.665		9.002e-03		67.661
7		0.00		9.60		1.404e-02		50.084		8.350e-03		83.789
7		0.00		9.20		1.085e-02		66.841		1.035e-02		32.198
7		0.00		8.80		1.241e-02		50.818		9.700e-03		76.853
7		0.00		8.40		1.173e-02		-10.505		6.030e-03		102.519
7		0.00		8.00		1.131e-02		7.052		6.285e-03		99.888
7		0.00		7.60		1.058e-02		5.568		5.981e-03		107.962
7		0.00		7.20		1.068e-02		18.506		5.825e-03		110.836
7		0.00		6.80		9.874e-03		5.906		5.470e-03		110.365
7		0.00		6.40		9.647e-03		16.103		4.905e-03		112.090
7		0.00		6.00		8.890e-03		22.588		4.387e-03		112.186
7		0.00		5.60		8.611e-03		31.067		4.766e-03		97.172
7		0.00		5.20		8.302e-03		41.181		5.126e-03		92.233
7		0.00		4.80		8.138e-03		42.236		5.298e-03		88.008
7		0.00		4.40		7.630e-03		45.332		5.447e-03		85.506
7		0.00		4.00		5.898e-03		27.165		4.278e-03		85.001
7		0.00		3.60		5.432e-03		13.590		3.843e-03		88.761
7		0.00		3.20		5.031e-03		10.377		3.985e-03		88.210
7		0.00		2.80		4.608e-03		-3.891		4.381e-03		86.339
7		0.00		2.40		4.815e-03		-13.147		4.047e-03		87.858
7		0.00		2.00		4.298e-03		-66.383		3.309e-03		51.464
7		0.00		1.60		4.800e-03		-62.979		3.691e-03		48.102
7		0.00		1.20		5.640e-03		-65.229		4.303e-03		44.684
7		0.00		0.80		7.369e-03		-51.639		5.720e-03		40.477
7		0.00		0.40		8.874e-03		-40.149		6.856e-03		46.959
7		0.00		0.00		1.051e-02		-44.936		7.812e-03		47.163
7		0.00		-0.40		1.211e-02		-41.561		8.584e-03		34.873
7		0.00		-0.80		1.370e-02		-34.623		9.279e-03		40.755
7		0.00		-1.20		1.421e-02		-33.623		9.529e-03		42.538
7		0.00		-1.60		1.452e-02		-27.903		1.040e-02		47.386
7		0.00		-2.00		1.571e-02		-13.671		1.197e-02		47.079
7		0.00		-2.40		1.682e-02		-18.778		1.326e-02		45.201
7		0.00		-2.80		1.735e-02		-18.456		1.258e-02		39.797
7		0.00		-3.20		1.860e-02		-15.747		1.254e-02		44.422
7		0.00		-3.60		2.072e-02		-12.951		1.377e-02		41.174
7		0.00		-4.00		2.056e-02		-28.539		1.381e-02		46.482
7		0.00		-4.40		2.088e-02		-40.056		1.482e-02		50.037
7		0.00		-4.80		2.070e-02		-40.727		1.574e-02		49.941
7		0.00		-5.20		2.138e-02		-37.877		1.587e-02		59.645
7		0.00		-5.60		2.214e-02		-35.347		1.470e-02		52.542
7		0.00		-6.00		2.027e-02		-49.298		1.292e-02		50.384
7		0.00		-6.40		2.246e-02		-28.870		1.423e-02		60.729
7		0.00		-6.80		2.417e-02		-5.201		1.588e-02		38.910
7		0.00		-7.20		2.547e-02		-16.139		1.613e-02		43.641
7		0.00		-7.60		2.616e-02		-22.145		1.616e-02		42.817
7		0.00		-8.00		2.499e-02		-25.009		1.742e-02		46.070
7		0.00		-8.40		2.436e-02		-39.863		1.719e-02		62.890
7		0.00		-8.80		2.459e-02		-38.221		1.821e-02		60.072
7		0.00		-9.20		2.289e-02		-43.541		1.699e-02		67.206
7		0.00		-9.60		2.038e-02		-32.801		1.397e-02		61.300
7		0.00		-10.00		1.688e-02		-45.367		8.890e-03		50.867
7		0.00		-9.60		1.989e-02		-41.740		9.836e-03		51.325
7		0.00		-9.20		2.301e-02		-8.211		1.299e-02		50.692
7		0.00		-8.80		2.299e-02		-7.214		1.523e-02		43.569
7		0.00		-8.40		2.386e-02		-12.118		1.673e-02		40.216
7		0.00		-8.00		2.263e-02		-24.351		1.649e-02		44.910
7		0.00		-7.60		2.259e-02		-32.872		1.721e-02		51.223
7		0.00		-7.20		2.076e-02		-50.079		1.519e-02		57.856
7		0.00		-6.80		2.042e-02		-41.407		1.583e-02		61.082
7		0.00		-6.40		1.978e-02		-37.687		1.378e-02		60.273
7		0.00		-6.00		1.880e-02		-37.890		1.152e-02		49.031
7		0.00		-5.60		1.590e-02		-56.150		7.607e-03		54.098
7		0.00		-5.20		1.750e-02		-7.674		1.048e-02		49.717
7		0.00		-4.80		1.667e-02		-17.365		1.093e-02		45.127
7		0.00		-4.40		1.531e-02		-18.660		1.041e-02		38.131
7		0.00		-4.00		1.563e-02		-14.256		1.069e-02		34.257
7		0.00		-3.60		1.373e-02		-21.774		9.900e-03		41.633
7		0.00		-3.20		1.236e-02		-36.194		9.199e-03		49.824
7		0.00		-2.80		1.125e-02		-39.048		8.026e-03		43.446
7		0.00		-2.40		9.494e-03		-24.141		6.554e-03		54.801
7		0.00		-2.00		7.005e-03		-40.080		4.216e-03		50.013
7		0.00		-1.60		5.469e-03		-54.068		3.033e-03		48.984
7		0.00		-1.20		5.611e-03		-17.687		4.452e-03		51.834
7		0.00		-0.80		4.359e-03		-13.532		3.375e-03		55.203
7		0.00		-0.40		3.504e-03		-38.927		2.457e-03		44.676
8		0.00		0.00		2.995e-03		-60.085		2.095e-03		58.814
8		0.00		0.40		2.618e-03		-37.022		1.518e-03		72.151
8		0.00		0.80		2.641e-03		2.009		1.865e-03		88.886
8		0.00		1.20		2.947e-03		7.478		2.133e-03		83.707
8		0.00		1.60		3.549e-03		23.775		2.166e-03		74.381
8		0.00		2.00		4.963e-03		40.451		3.770e-03		82.247
8		0.00		2.40		4.347e-03		51.099		3.666e-03		51.620
8		0.00		2.80		5.378e-03		61.116		4.818e-03		46.314
8		0.00		3.20		5.394e-03		65.018		4.821e-03		35.422
8		0.00		3.60		6.827e-03		28.584		3.455e-03		105.302
8		0.00		4.00		7.476e-03		39.316		4.188e-03		97.219
8		0.00		4.40		8.653e-03		43.542		5.369e-03		93.978
8		0.00		4.80		9.797e-03		52.310		6.146e-03		77.777
8		0.00		5.20		9.203e-03		38.126		5.224e-03		101.676
8		0.00		5.60		8.749e-03		4.344		4.447e-03		98.834
8		0.00		6.00		9.355e-03		14.682		4.939e-03		104.097
8		0.00		6.40		9.692e-03		11.547		6.028e-03		104.216
8		0.00		6.80		1.021e-02		20.140		6.396e-03		110.935
8		0.00		7.20		9.962e-03		22.811		5.997e-03		105.482
8		0.00		7.60		1.067e-02		28.611		6.338e-03		80.480
8		0.00		8.00		1.062e-02		22.450		6.540e-03		69.561
8		0.00		8.40		1.272e-02		51.241		8.773e-03		75.712
8		0.00		8.80		1.034e-02		45.751		7.547e-03		58.842
8		0.00		9.20		1.513e-02		64.231		8.444e-03		73.689
8		0.00		9.60		1.086e-02		65.142		9.757e-03		30.547
8		0.00		10.00		1.490e-02		8.756		8.849e-03		107.430
8		0.00		9.60		1.442e-02		8.257		8.887e-03		115.740
8		0.00		9.20		1.267e-02		32.505		7.809e-03		105.200
8		0.00		8.80		1.210e-02		18.815		6.787e-03		82.615
8		0.00		8.40		1.232e-02		35.737		7.607e-03		77.925
8		0.00		8.00		1.207e-02		29.076		7.731e-03		81.446
8		0.00		7.60		1.189e-02		44.817		6.941e-03		80.186
8		0.00		7.20		1.203e-02		39.070		6.791e-03		102.144
8		0.00		6.80		1.094e-02		47.653		9.032e-03		75.975
8		0.00		6.40		9.265e-03		4.703		5.394e-03		104.661
8		0.00		6.00		8.945e-03		19.577		5.421e-03		112.677
8		0.00		5.60		8.491e-03		2.877		4.177e-03		114.808
8		0.00		5.20		7.701e-03		12.094		3.578e-03		110.451
8		0.00		4.80		6.559e-03		23.377		2.983e-03		107.507
8		0.00		4.40		6.536e-03		37.217		3.698e-03		98.996
8		0.00		4.00		6.310e-03		39.207		4.424e-03		84.998
8		0.00		3.60		4.949e-03		33.204		3.305e-03		82.183
8		0.00		3.20		4.704e-03		11.190		2.879e-03		92.364
8		0.00		2.80		4.224e-03		19.355		4.424e-03		82.791
8		0.00		2.40		3.578e-03		-13.345		3.465e-03		92.822
8		0.00		2.00		4.341e-03		-49.871		3.492e-03		58.349
8		0.00		1.60		5.007e-03		-59.472		3.859e-03		51.559
8		0.00		1.20		6.109e-03		-47.599		4.891e-03		45.688
8		0.00		0.80		7.782e-03		-43.534		6.195e-03		45.693
8		0.00		0.40		9.051e-03		-36.866		6.946e-03		43.211
8		0.00		0.00		1.080e-02		-34.568		7.981e-03		38.456
8		0.00		-0.40		1.204e-02		-32.521		8.622e-03		36.524
8		0.00		-0.80		1.304e-02		-24.947		9.058e-03		41.049
8		0.00		-1.20		1.404e-02		-27.602		9.834e-03		45.904
8		0.00		-1.60		1.455e-02		-29.461		1.036e-02		41.150
8		0.00		-2.00		1.489e-02		-16.980		1.145e-02		47.694
8		0.00		-2.40		1.666e-02		-7.480		1.260e-02		49.367
8		0.00		-2.80		1.797e-02		-19.617		1.337e-02		50.433
8		0.00		-3.20		1.909e-02		-26.515		1.407e-02		40.902
8		0.00		-3.60		2.081e-02		-17.965		1.434e-02		40.246
8		0.00		-4.00		2.313e-02		-21.293		1.529e-02		37.251
8		0.00		-4.40		2.384e-02		-22.052		1.580e-02		35.433
8		0.00		-4.80		2.313e-02		-32.873		1.630e-02		42.749
8		0.00		-5.20		2.384e-02		-35.869		1.715e-02		46.245
8		0.00		-5.60		2.377e-02		-47.666		1.714e-02		60.775
8		0.00		-6.00		2.348e-02		-39.735		1.674e-02		60.013
8		0.00		-6.40		2.424e-02		-36.931		1.472e-02		50.451
8		0.00		-6.80		2.321e-02		-34.809		1.409e-02		49.823
8		0.00		-7.20		2.395e-02		-2.926		1.487e-02		45.882
8		0.00		-7.60		2.550e-02		-3.752		1.628e-02		37.096
8		0.00		-8.00		2.841e-02		-6.616		1.950e-02		38.177
8		0.00		-8.40		2.843e-02		-7.832		1.849e-02		37.520
8		0.00		-8.80		2.487e-02		-27.371		1.738e-02		49.399
8		0.00		-9.20		2.379e-02		-17.331		1.841e-02		44.341
8		0.00		-9.60		2.125e-02		-19.334		1.643e-02		52.336
8		0.00		-10.00		1.736e-02		-32.992		1.199e-02		75.216
8		0.00		-9.60		2.194e-02		-37.979		1.611e-02		62.889
8		0.00		-9.20		2.327e-02		-45.260		1.744e-02		61.756
8		0.00		-8.80		2.200e-02		-55.339		1.475e-02		61.334
8		0.00		-8.40		2.531e-02		-32.100		1.441e-02		45.336
8		0.00		-8.00		2.301e-02		-15.431		1.224e-02		52.661
8		0.00		-7.60		2.497e-02		-7.320		1.635e-02		49.706
8		0.00		-7.20		2.456e-02		-14.488		1.676e-02		40.662
8		0.00		-6.80		2.280e-02		-16.430		1.552e-02		41.806
8		0.00		-6.40		2.426e-02		-17.872		1.700e-02		35.569
8		0.00		-6.00		2.137e-02		-22.249		1.573e-02		41.860
8		0.00		-5.60		2.003e-02		-28.827		1.559e-02		41.420
8		0.00		-5.20		1.825e-02		-34.399		1.388e-02		53.239
8		0.00		-4.80		1.703e-02		-35.298		1.255e-02		57.870
8		0.00		-4.40		1.541e-02		-32.881		1.050e-02		49.802
8		0.00		-4.00		1.401e-02		-31.115		9.201e-03		47.790
8		0.00		-3.60		1.045e-02		-80.911		5.889e-03		47.614
8		0.00		-3.20		9.426e-03		-93.285		5.042e-03		40.729
8		0.00		-2.80		9.260e-03		-59.511		6.136e-03		53.128
8		0.00		-2.40		9.756e-03		-16.942		7.633e-03		45.032
8		0.00		-2.00		8.987e-03		-16.944		6.796e-03		37.348
8		0.00		-1.60		7.996e-03		-21.184		5.951e-03		38.104
8		0.00		-1.20		6.677e-03		-32.956		5.292e-03		43.462
8		0.00		-0.80		5.414e-03		-38.834		4.286e-03		51.980
8		0.00		-0.40		3.290e-03		-65.904		1.923e-03		61.606
