# Date of analysis: 2024-03-08 10;59
# Segment other properties: height: -61.225233588916275, diff height: 224.29351726935025, deflection: 36.27626005325466, deflection error: 2.5104639076549535, adhesion: 38.91989591937364, phase offset: 0
# 
# Loop index	Read Volt (V)	Write Volt (V)	Amplitude (a.u)	Phase (deg)	Sigma Amp (a.u)	Sigma Pha (deg)	
1		0.00		0.00		1.684e-02		-51.463		6.637e-03		36.616
1		0.00		0.40		1.141e-02		-52.176		2.581e-03		15.136
1		0.00		0.80		5.292e-03		-54.332		1.524e-03		23.702
1		0.00		1.20		2.015e-03		10.929		8.684e-04		70.566
1		0.00		1.60		5.958e-03		117.518		2.044e-03		23.855
1		0.00		2.00		1.027e-02		122.818		3.097e-03		20.017
1		0.00		2.40		1.523e-02		126.499		4.127e-03		19.164
1		0.00		2.80		1.952e-02		126.901		5.251e-03		13.431
1		0.00		3.20		2.395e-02		126.708		5.246e-03		13.109
1		0.00		3.60		2.830e-02		124.559		6.494e-03		14.205
1		0.00		4.00		3.278e-02		126.672		7.325e-03		13.785
1		0.00		4.40		3.493e-02		125.349		8.556e-03		20.969
1		0.00		4.80		3.816e-02		125.553		9.726e-03		24.290
1		0.00		5.20		4.207e-02		125.676		9.945e-03		12.531
1		0.00		5.60		4.511e-02		126.994		8.835e-03		10.688
1		0.00		6.00		4.708e-02		126.288		9.865e-03		12.245
1		0.00		6.40		4.799e-02		127.483		1.050e-02		13.626
1		0.00		6.80		4.866e-02		124.172		1.287e-02		24.347
1		0.00		7.20		5.019e-02		124.998		1.367e-02		21.463
1		0.00		7.60		5.034e-02		126.478		1.120e-02		10.958
1		0.00		8.00		4.952e-02		127.859		1.000e-02		11.935
1		0.00		8.40		4.594e-02		127.227		9.745e-03		13.389
1		0.00		8.80		4.453e-02		123.890		1.207e-02		18.939
1		0.00		9.20		4.411e-02		119.613		1.268e-02		27.837
1		0.00		9.60		4.471e-02		122.659		1.389e-02		18.847
1		0.00		10.00		4.316e-02		124.528		1.176e-02		10.974
1		0.00		9.60		4.337e-02		123.858		1.066e-02		15.133
1		0.00		9.20		4.279e-02		124.649		1.054e-02		16.182
1		0.00		8.80		4.182e-02		126.181		1.040e-02		15.595
1		0.00		8.40		4.026e-02		123.155		1.070e-02		25.994
1		0.00		8.00		3.996e-02		123.997		1.153e-02		25.543
1		0.00		7.60		3.974e-02		125.407		9.560e-03		12.549
1		0.00		7.20		3.900e-02		125.413		7.282e-03		11.777
1		0.00		6.80		3.624e-02		124.828		6.943e-03		10.830
1		0.00		6.40		3.298e-02		127.381		6.485e-03		11.308
1		0.00		6.00		3.021e-02		125.212		6.950e-03		15.431
1		0.00		5.60		2.756e-02		124.234		7.224e-03		16.243
1		0.00		5.20		2.451e-02		124.854		5.776e-03		10.308
1		0.00		4.80		2.104e-02		123.562		4.487e-03		10.300
1		0.00		4.40		1.758e-02		120.677		3.662e-03		10.402
1		0.00		4.00		1.367e-02		125.797		3.297e-03		13.356
1		0.00		3.60		1.039e-02		119.117		2.991e-03		19.041
1		0.00		3.20		6.424e-03		102.165		2.390e-03		28.631
1		0.00		2.80		3.883e-03		55.980		1.247e-03		48.110
1		0.00		2.40		4.165e-03		-17.384		1.776e-03		30.704
1		0.00		2.00		7.199e-03		-35.703		2.350e-03		17.242
1		0.00		1.60		1.191e-02		-40.240		2.807e-03		12.503
1		0.00		1.20		1.661e-02		-46.824		4.013e-03		13.575
1		0.00		0.80		2.135e-02		-47.077		5.091e-03		10.535
1		0.00		0.40		2.737e-02		-48.457		4.771e-03		8.643
1		0.00		0.00		3.359e-02		-49.668		4.666e-03		7.630
1		0.00		-0.40		3.821e-02		-51.539		5.277e-03		6.694
1		0.00		-0.80		4.062e-02		-50.108		6.837e-03		8.173
1		0.00		-1.20		4.266e-02		-49.149		8.342e-03		11.348
1		0.00		-1.60		4.509e-02		-49.915		9.474e-03		9.135
1		0.00		-2.00		4.644e-02		-50.504		8.177e-03		8.068
1		0.00		-2.40		4.906e-02		-52.021		7.281e-03		6.654
1		0.00		-2.80		4.913e-02		-53.218		7.277e-03		7.738
1		0.00		-3.20		4.830e-02		-51.931		9.015e-03		10.283
1		0.00		-3.60		4.701e-02		-52.188		1.075e-02		15.481
1		0.00		-4.00		4.755e-02		-51.651		1.144e-02		13.878
1		0.00		-4.40		4.973e-02		-52.428		9.983e-03		8.402
1		0.00		-4.80		5.268e-02		-51.822		8.217e-03		8.266
1		0.00		-5.20		5.063e-02		-50.400		8.436e-03		9.004
1		0.00		-5.60		4.935e-02		-49.243		1.002e-02		10.403
1		0.00		-6.00		4.898e-02		-49.243		1.251e-02		12.280
1		0.00		-6.40		4.857e-02		-46.950		1.410e-02		13.220
1		0.00		-6.80		5.014e-02		-48.737		1.333e-02		7.725
1		0.00		-7.20		4.976e-02		-47.717		9.346e-03		8.303
1		0.00		-7.60		4.933e-02		-48.650		1.003e-02		10.677
1		0.00		-8.00		4.789e-02		-47.658		1.196e-02		12.971
1		0.00		-8.40		4.607e-02		-49.585		1.313e-02		22.856
1		0.00		-8.80		4.530e-02		-44.435		1.338e-02		21.127
1		0.00		-9.20		4.170e-02		-45.206		1.038e-02		10.266
1		0.00		-9.60		3.766e-02		-46.229		8.116e-03		10.742
1		0.00		-10.00		3.295e-02		-43.856		6.767e-03		11.195
1		0.00		-9.60		3.663e-02		-46.426		8.827e-03		12.750
1		0.00		-9.20		4.218e-02		-42.822		1.085e-02		22.285
1		0.00		-8.80		4.417e-02		-44.645		1.163e-02		13.017
1		0.00		-8.40		4.612e-02		-47.257		9.688e-03		8.069
1		0.00		-8.00		4.746e-02		-48.052		7.552e-03		7.422
1		0.00		-7.60		4.470e-02		-46.565		7.288e-03		8.866
1		0.00		-7.20		4.356e-02		-46.619		8.466e-03		10.029
1		0.00		-6.80		4.080e-02		-47.119		9.394e-03		14.816
1		0.00		-6.40		3.906e-02		-47.006		9.223e-03		9.475
1		0.00		-6.00		3.814e-02		-47.511		7.260e-03		7.332
1		0.00		-5.60		3.577e-02		-48.115		5.517e-03		8.275
1		0.00		-5.20		3.230e-02		-50.022		4.945e-03		11.102
1		0.00		-4.80		2.892e-02		-48.100		5.379e-03		10.118
1		0.00		-4.40		2.528e-02		-50.775		6.198e-03		13.802
1		0.00		-4.00		2.253e-02		-48.044		5.163e-03		9.933
1		0.00		-3.60		2.069e-02		-49.489		3.531e-03		9.014
1		0.00		-3.20		1.752e-02		-50.103		2.646e-03		10.505
1		0.00		-2.80		1.428e-02		-49.684		2.432e-03		11.735
1		0.00		-2.40		9.995e-03		-46.636		2.100e-03		15.990
1		0.00		-2.00		6.373e-03		-42.332		1.708e-03		20.532
1		0.00		-1.60		2.626e-03		-43.514		1.030e-03		35.537
1		0.00		-1.20		2.432e-03		70.289		1.045e-03		59.580
1		0.00		-0.80		6.504e-03		119.231		1.475e-03		18.777
1		0.00		-0.40		1.127e-02		125.682		2.201e-03		10.767
2		0.00		0.00		1.570e-02		126.385		2.964e-03		15.029
2		0.00		0.40		1.984e-02		129.437		4.379e-03		10.771
2		0.00		0.80		2.487e-02		127.279		4.331e-03		7.416
2		0.00		1.20		2.898e-02		127.095		4.504e-03		9.238
2		0.00		1.60		3.302e-02		128.535		4.542e-03		7.262
2		0.00		2.00		3.673e-02		128.594		6.690e-03		11.430
2		0.00		2.40		3.936e-02		128.058		8.760e-03		12.427
2		0.00		2.80		4.249e-02		128.977		9.752e-03		7.779
2		0.00		3.20		4.571e-02		128.749		8.354e-03		6.604
2		0.00		3.60		4.711e-02		128.131		8.284e-03		7.195
2		0.00		4.00		4.687e-02		129.492		1.004e-02		12.070
2		0.00		4.40		4.875e-02		126.777		1.244e-02		19.796
2		0.00		4.80		5.166e-02		129.145		1.360e-02		11.477
2		0.00		5.20		5.413e-02		129.328		1.148e-02		7.743
2		0.00		5.60		5.549e-02		128.476		1.007e-02		9.336
2		0.00		6.00		5.540e-02		129.022		1.119e-02		9.904
2		0.00		6.40		5.480e-02		124.928		1.451e-02		21.391
2		0.00		6.80		5.662e-02		126.392		1.538e-02		21.673
2		0.00		7.20		5.920e-02		127.856		1.426e-02		9.207
2		0.00		7.60		5.890e-02		128.915		1.055e-02		8.725
2		0.00		8.00		5.576e-02		128.715		1.007e-02		10.471
2		0.00		8.40		5.512e-02		127.819		1.223e-02		11.456
2		0.00		8.80		5.365e-02		124.795		1.327e-02		20.661
2		0.00		9.20		5.424e-02		125.508		1.474e-02		15.545
2		0.00		9.60		5.128e-02		125.881		1.141e-02		9.697
2		0.00		10.00		4.879e-02		128.101		1.012e-02		10.684
2		0.00		9.60		4.715e-02		126.932		9.608e-03		10.851
2		0.00		9.20		4.789e-02		125.134		1.122e-02		16.026
2		0.00		8.80		4.689e-02		124.640		1.165e-02		26.286
2		0.00		8.40		4.454e-02		127.636		1.183e-02		13.595
2		0.00		8.00		4.267e-02		128.684		8.248e-03		9.342
2		0.00		7.60		4.113e-02		127.470		7.213e-03		8.527
2		0.00		7.20		3.912e-02		129.687		7.428e-03		9.226
2		0.00		6.80		3.560e-02		125.228		8.341e-03		14.438
2		0.00		6.40		3.279e-02		125.680		8.750e-03		16.675
2		0.00		6.00		3.060e-02		127.814		7.282e-03		9.243
2		0.00		5.60		2.847e-02		127.372		5.632e-03		8.575
2		0.00		5.20		2.548e-02		127.666		4.784e-03		9.851
2		0.00		4.80		2.236e-02		125.251		4.270e-03		10.668
2		0.00		4.40		1.775e-02		125.678		4.237e-03		16.963
2		0.00		4.00		1.443e-02		124.994		3.600e-03		12.107
2		0.00		3.60		1.142e-02		123.226		2.782e-03		10.772
2		0.00		3.20		7.644e-03		115.644		2.016e-03		17.956
2		0.00		2.80		3.699e-03		93.687		1.236e-03		37.650
2		0.00		2.40		3.268e-03		-0.523		1.515e-03		43.559
2		0.00		2.00		7.292e-03		-39.587		2.132e-03		18.042
2		0.00		1.60		1.184e-02		-36.960		2.750e-03		11.363
2		0.00		1.20		1.828e-02		-46.224		3.023e-03		9.701
2		0.00		0.80		2.399e-02		-48.716		3.157e-03		8.739
2		0.00		0.40		2.955e-02		-47.129		4.258e-03		8.776
2		0.00		0.00		3.298e-02		-46.903		5.799e-03		9.081
2		0.00		-0.40		3.653e-02		-48.504		8.588e-03		12.859
2		0.00		-0.80		4.053e-02		-50.242		8.875e-03		8.623
2		0.00		-1.20		4.432e-02		-50.267		7.217e-03		7.342
2		0.00		-1.60		4.714e-02		-50.363		6.422e-03		7.055
2		0.00		-2.00		4.563e-02		-50.123		7.336e-03		7.925
2		0.00		-2.40		4.584e-02		-50.692		9.779e-03		10.778
2		0.00		-2.80		4.504e-02		-50.943		1.166e-02		13.743
2		0.00		-3.20		4.629e-02		-50.813		1.095e-02		8.891
2		0.00		-3.60		4.814e-02		-52.794		8.329e-03		6.513
2		0.00		-4.00		4.892e-02		-52.507		6.829e-03		7.439
2		0.00		-4.40		4.746e-02		-50.685		7.837e-03		8.181
2		0.00		-4.80		4.725e-02		-49.187		9.414e-03		8.196
2		0.00		-5.20		4.725e-02		-48.111		1.125e-02		11.405
2		0.00		-5.60		4.830e-02		-48.661		1.163e-02		9.143
2		0.00		-6.00		5.019e-02		-47.854		1.013e-02		5.648
2		0.00		-6.40		5.118e-02		-47.345		7.955e-03		5.925
2		0.00		-6.80		5.147e-02		-46.470		8.328e-03		7.278
2		0.00		-7.20		5.245e-02		-45.993		9.625e-03		8.550
2		0.00		-7.60		5.260e-02		-45.806		1.176e-02		11.957
2		0.00		-8.00		5.246e-02		-45.699		1.235e-02		14.416
2		0.00		-8.40		5.288e-02		-45.992		1.319e-02		10.715
2		0.00		-8.80		4.954e-02		-44.471		1.147e-02		7.058
2		0.00		-9.20		4.725e-02		-44.001		1.016e-02		7.633
2		0.00		-9.60		4.121e-02		-45.530		9.574e-03		8.559
2		0.00		-10.00		3.493e-02		-43.056		7.833e-03		9.438
2		0.00		-9.60		3.934e-02		-46.516		1.049e-02		14.122
2		0.00		-9.20		4.443e-02		-45.571		1.222e-02		18.260
2		0.00		-8.80		4.563e-02		-44.338		1.287e-02		15.555
2		0.00		-8.40		4.895e-02		-45.983		1.183e-02		5.786
2		0.00		-8.00		5.020e-02		-45.726		8.885e-03		5.908
2		0.00		-7.60		4.949e-02		-47.458		7.760e-03		6.204
2		0.00		-7.20		4.891e-02		-45.720		8.105e-03		6.156
2		0.00		-6.80		4.632e-02		-46.130		9.159e-03		7.783
2		0.00		-6.40		4.408e-02		-46.445		9.684e-03		12.615
2		0.00		-6.00		4.136e-02		-46.236		9.618e-03		8.975
2		0.00		-5.60		4.012e-02		-46.798		7.821e-03		6.635
2		0.00		-5.20		3.726e-02		-47.891		5.727e-03		7.118
2		0.00		-4.80		3.489e-02		-50.086		4.340e-03		7.802
2		0.00		-4.40		3.119e-02		-50.076		4.026e-03		7.723
2		0.00		-4.00		2.729e-02		-48.019		3.992e-03		8.501
2		0.00		-3.60		2.343e-02		-48.713		4.145e-03		13.599
2		0.00		-3.20		1.924e-02		-46.771		3.667e-03		11.927
2		0.00		-2.80		1.556e-02		-46.582		3.293e-03		11.224
2		0.00		-2.40		1.176e-02		-44.310		2.106e-03		12.791
2		0.00		-2.00		7.801e-03		-43.095		1.412e-03		15.900
2		0.00		-1.60		3.793e-03		-49.546		1.113e-03		25.764
2		0.00		-1.20		2.280e-03		60.363		8.540e-04		64.646
2		0.00		-0.80		6.448e-03		117.189		1.750e-03		15.916
2		0.00		-0.40		1.096e-02		123.506		2.704e-03		15.971
3		0.00		0.00		1.554e-02		125.938		3.865e-03		11.033
3		0.00		0.40		1.998e-02		125.991		4.751e-03		10.499
3		0.00		0.80		2.491e-02		129.537		4.577e-03		8.042
3		0.00		1.20		2.968e-02		127.376		4.237e-03		6.732
3		0.00		1.60		3.402e-02		129.151		4.810e-03		7.263
3		0.00		2.00		3.793e-02		130.124		5.485e-03		6.771
3		0.00		2.40		4.023e-02		130.547		6.904e-03		8.588
3		0.00		2.80		4.317e-02		128.982		8.951e-03		12.464
3		0.00		3.20		4.545e-02		129.544		1.020e-02		12.684
3		0.00		3.60		4.701e-02		130.644		1.074e-02		8.097
3		0.00		4.00		5.013e-02		129.973		9.520e-03		5.595
3		0.00		4.40		5.275e-02		130.966		8.687e-03		4.858
3		0.00		4.80		5.548e-02		130.003		8.803e-03		6.351
3		0.00		5.20		5.674e-02		130.807		9.660e-03		8.434
3		0.00		5.60		5.634e-02		130.666		1.168e-02		12.623
3		0.00		6.00		5.720e-02		128.790		1.393e-02		17.141
3		0.00		6.40		5.835e-02		128.275		1.574e-02		20.900
3		0.00		6.80		5.980e-02		129.596		1.666e-02		11.726
3		0.00		7.20		6.208e-02		130.357		1.538e-02		7.550
3		0.00		7.60		6.337e-02		129.660		1.224e-02		7.361
3		0.00		8.00		6.259e-02		130.870		1.191e-02		10.297
3		0.00		8.40		6.156e-02		128.916		1.266e-02		12.401
3		0.00		8.80		6.146e-02		128.985		1.372e-02		12.039
3		0.00		9.20		5.927e-02		128.626		1.443e-02		12.582
3		0.00		9.60		5.685e-02		123.905		1.517e-02		21.882
3		0.00		10.00		5.396e-02		129.795		1.478e-02		15.404
3		0.00		9.60		5.495e-02		128.741		1.439e-02		10.750
3		0.00		9.20		5.536e-02		127.163		1.250e-02		7.373
3		0.00		8.80		5.450e-02		128.041		1.070e-02		8.437
3		0.00		8.40		5.248e-02		129.466		8.976e-03		8.359
3		0.00		8.00		4.896e-02		131.036		7.951e-03		8.205
3		0.00		7.60		4.700e-02		130.276		7.894e-03		7.199
3		0.00		7.20		4.423e-02		130.109		8.737e-03		9.090
3		0.00		6.80		4.192e-02		129.162		8.888e-03		11.434
3		0.00		6.40		3.784e-02		128.088		8.864e-03		15.852
3		0.00		6.00		3.465e-02		127.502		8.902e-03		14.947
3		0.00		5.60		3.151e-02		129.021		7.642e-03		8.197
3		0.00		5.20		2.884e-02		128.562		5.866e-03		6.648
3		0.00		4.80		2.523e-02		129.413		4.443e-03		7.751
3		0.00		4.40		2.157e-02		128.074		3.282e-03		8.070
3		0.00		4.00		1.736e-02		128.937		3.048e-03		8.945
3		0.00		3.60		1.296e-02		128.558		2.660e-03		10.657
3		0.00		3.20		8.791e-03		127.232		2.025e-03		17.365
3		0.00		2.80		4.163e-03		110.601		1.577e-03		42.443
3		0.00		2.40		3.091e-03		2.684		1.163e-03		45.758
3		0.00		2.00		7.198e-03		-40.663		1.909e-03		20.848
3		0.00		1.60		1.259e-02		-46.618		2.234e-03		9.740
3		0.00		1.20		1.849e-02		-47.184		2.443e-03		8.978
3		0.00		0.80		2.462e-02		-47.367		3.284e-03		8.367
3		0.00		0.40		2.917e-02		-46.272		4.785e-03		8.075
3		0.00		0.00		3.353e-02		-47.088		6.130e-03		9.735
3		0.00		-0.40		3.736e-02		-48.558		7.661e-03		11.174
3		0.00		-0.80		4.043e-02		-48.099		8.517e-03		8.035
3		0.00		-1.20		4.363e-02		-49.645		7.872e-03		7.036
3		0.00		-1.60		4.607e-02		-50.965		6.129e-03		6.004
3		0.00		-2.00		4.717e-02		-49.503		5.634e-03		6.641
3		0.00		-2.40		4.746e-02		-50.559		7.137e-03		7.178
3		0.00		-2.80		4.664e-02		-48.682		8.861e-03		7.987
3		0.00		-3.20		4.635e-02		-50.755		1.071e-02		10.996
3		0.00		-3.60		4.664e-02		-49.928		1.177e-02		8.522
3		0.00		-4.00		4.825e-02		-50.812		1.055e-02		6.811
3		0.00		-4.40		5.000e-02		-50.775		8.130e-03		5.300
3		0.00		-4.80		5.095e-02		-48.728		7.166e-03		5.433
3		0.00		-5.20		5.021e-02		-47.636		8.335e-03		5.680
3		0.00		-5.60		4.987e-02		-46.623		1.079e-02		8.511
3		0.00		-6.00		5.108e-02		-45.683		1.196e-02		12.266
3		0.00		-6.40		5.184e-02		-45.378		1.221e-02		12.048
3		0.00		-6.80		5.398e-02		-46.147		1.122e-02		7.273
3		0.00		-7.20		5.509e-02		-45.324		9.127e-03		6.503
3		0.00		-7.60		5.502e-02		-46.443		8.587e-03		7.355
3		0.00		-8.00		5.507e-02		-43.403		9.538e-03		7.732
3		0.00		-8.40		5.277e-02		-43.699		1.190e-02		9.714
3		0.00		-8.80		5.121e-02		-43.166		1.268e-02		15.876
3		0.00		-9.20		4.970e-02		-40.521		1.337e-02		15.105
3		0.00		-9.60		4.487e-02		-43.779		1.070e-02		6.364
3		0.00		-10.00		3.970e-02		-43.185		8.131e-03		7.319
3		0.00		-9.60		4.422e-02		-43.370		1.012e-02		7.875
3		0.00		-9.20		4.813e-02		-42.099		1.221e-02		8.449
3		0.00		-8.80		5.021e-02		-44.505		1.340e-02		15.374
3		0.00		-8.40		5.103e-02		-44.614		1.390e-02		13.676
3		0.00		-8.00		5.113e-02		-45.537		1.340e-02		7.689
3		0.00		-7.60		5.160e-02		-45.741		1.069e-02		5.455
3		0.00		-7.20		5.071e-02		-45.999		8.105e-03		5.670
3		0.00		-6.80		4.744e-02		-44.712		8.202e-03		7.357
3		0.00		-6.40		4.572e-02		-44.729		8.800e-03		7.639
3		0.00		-6.00		4.259e-02		-46.729		1.011e-02		13.053
3		0.00		-5.60		4.082e-02		-45.926		9.142e-03		10.869
3		0.00		-5.20		3.899e-02		-46.723		7.375e-03		7.664
3		0.00		-4.80		3.619e-02		-47.606		5.151e-03		7.126
3		0.00		-4.40		3.259e-02		-48.908		3.400e-03		7.106
3		0.00		-4.00		2.889e-02		-48.497		3.368e-03		7.721
3		0.00		-3.60		2.495e-02		-46.963		3.673e-03		7.730
3		0.00		-3.20		2.115e-02		-46.114		3.393e-03		9.670
3		0.00		-2.80		1.661e-02		-46.915		3.160e-03		13.621
3		0.00		-2.40		1.258e-02		-41.649		2.464e-03		9.516
3		0.00		-2.00		8.306e-03		-35.493		1.656e-03		12.018
3		0.00		-1.60		4.064e-03		-30.969		1.299e-03		23.263
3		0.00		-1.20		2.131e-03		49.353		7.718e-04		70.855
3		0.00		-0.80		5.752e-03		114.183		1.455e-03		21.853
3		0.00		-0.40		1.052e-02		121.852		2.105e-03		11.732
4		0.00		0.00		1.519e-02		126.860		3.059e-03		12.649
4		0.00		0.40		1.981e-02		127.002		4.348e-03		10.779
4		0.00		0.80		2.516e-02		128.928		4.273e-03		8.200
4		0.00		1.20		2.969e-02		129.004		4.273e-03		7.202
4		0.00		1.60		3.440e-02		129.371		4.644e-03		7.325
4		0.00		2.00		3.916e-02		130.580		4.944e-03		5.369
4		0.00		2.40		4.206e-02		131.850		6.771e-03		6.453
4		0.00		2.80		4.503e-02		130.619		9.228e-03		11.002
4		0.00		3.20		4.794e-02		130.292		1.082e-02		13.111
4		0.00		3.60		5.030e-02		131.102		1.160e-02		9.468
4		0.00		4.00		5.337e-02		130.899		1.030e-02		6.350
4		0.00		4.40		5.613e-02		131.281		8.265e-03		5.322
4		0.00		4.80		5.672e-02		131.500		8.244e-03		6.796
4		0.00		5.20		5.773e-02		132.044		1.007e-02		7.916
4		0.00		5.60		5.797e-02		132.885		1.111e-02		7.701
4		0.00		6.00		5.846e-02		131.357		1.273e-02		11.528
4		0.00		6.40		5.969e-02		130.253		1.482e-02		16.536
4		0.00		6.80		6.129e-02		130.807		1.573e-02		15.219
4		0.00		7.20		6.254e-02		132.085		1.681e-02		7.745
4		0.00		7.60		6.314e-02		132.086		1.443e-02		10.574
4		0.00		8.00		6.355e-02		131.678		1.445e-02		20.094
4		0.00		8.40		5.868e-02		130.229		1.536e-02		17.613
4		0.00		8.80		6.243e-02		129.091		1.668e-02		15.531
4		0.00		9.20		5.928e-02		128.267		1.659e-02		16.750
4		0.00		9.60		5.805e-02		125.057		1.833e-02		26.144
4		0.00		10.00		5.495e-02		127.612		1.779e-02		20.191
4		0.00		9.60		5.814e-02		126.511		1.728e-02		13.118
4		0.00		9.20		5.954e-02		130.518		1.329e-02		8.553
4		0.00		8.80		5.654e-02		131.987		1.099e-02		10.219
4		0.00		8.40		5.410e-02		131.062		1.035e-02		8.727
4		0.00		8.00		5.097e-02		131.139		1.079e-02		11.793
4		0.00		7.60		4.973e-02		130.030		1.164e-02		21.023
4		0.00		7.20		4.954e-02		128.409		1.226e-02		21.637
4		0.00		6.80		4.687e-02		130.942		1.123e-02		8.848
4		0.00		6.40		4.478e-02		129.791		8.663e-03		6.648
4		0.00		6.00		4.178e-02		131.090		6.673e-03		5.998
4		0.00		5.60		3.797e-02		131.420		5.327e-03		6.116
4		0.00		5.20		3.405e-02		132.371		5.381e-03		7.302
4		0.00		4.80		2.991e-02		131.606		5.638e-03		9.001
4		0.00		4.40		2.540e-02		129.997		5.447e-03		13.262
4		0.00		4.00		2.084e-02		129.554		5.006e-03		11.472
4		0.00		3.60		1.662e-02		130.103		3.460e-03		8.271
4		0.00		3.20		1.147e-02		132.217		2.309e-03		10.645
4		0.00		2.80		6.825e-03		128.687		1.916e-03		15.483
4		0.00		2.40		2.381e-03		31.132		8.942e-04		70.335
4		0.00		2.00		5.476e-03		-38.399		1.637e-03		19.416
4		0.00		1.60		1.112e-02		-46.658		2.430e-03		11.617
4		0.00		1.20		1.641e-02		-47.227		3.841e-03		9.294
4		0.00		0.80		2.253e-02		-49.129		4.852e-03		8.106
4		0.00		0.40		2.870e-02		-47.280		4.403e-03		7.579
4		0.00		0.00		3.491e-02		-49.110		3.961e-03		6.336
4		0.00		-0.40		3.968e-02		-49.044		4.960e-03		6.377
4		0.00		-0.80		4.288e-02		-48.509		5.636e-03		6.627
4		0.00		-1.20		4.366e-02		-47.783		7.852e-03		9.396
4		0.00		-1.60		4.464e-02		-49.644		9.316e-03		11.621
4		0.00		-2.00		4.682e-02		-50.117		1.005e-02		7.983
4		0.00		-2.40		4.989e-02		-50.849		9.348e-03		7.000
4		0.00		-2.80		5.026e-02		-51.521		7.248e-03		6.648
4		0.00		-3.20		4.977e-02		-51.105		6.206e-03		6.080
4		0.00		-3.60		4.815e-02		-49.975		7.210e-03		6.527
4		0.00		-4.00		4.762e-02		-49.851		1.037e-02		8.836
4		0.00		-4.40		4.872e-02		-50.695		1.273e-02		11.122
4		0.00		-4.80		4.942e-02		-50.440		1.343e-02		11.802
4		0.00		-5.20		5.081e-02		-48.324		1.238e-02		5.115
4		0.00		-5.60		5.457e-02		-47.221		1.014e-02		4.636
4		0.00		-6.00		5.266e-02		-46.653		8.745e-03		6.976
4		0.00		-6.40		5.341e-02		-45.777		1.008e-02		6.049
4		0.00		-6.80		5.271e-02		-45.221		1.229e-02		8.473
4		0.00		-7.20		5.308e-02		-45.042		1.392e-02		15.840
4		0.00		-7.60		5.426e-02		-46.216		1.408e-02		11.738
4		0.00		-8.00		5.412e-02		-45.100		1.214e-02		6.693
4		0.00		-8.40		5.424e-02		-42.181		9.627e-03		8.414
4		0.00		-8.80		5.167e-02		-40.638		9.362e-03		8.548
4		0.00		-9.20		4.986e-02		-41.065		1.033e-02		7.183
4		0.00		-9.60		4.505e-02		-43.349		1.091e-02		10.614
4		0.00		-10.00		3.985e-02		-42.908		1.027e-02		17.253
4		0.00		-9.60		4.593e-02		-42.341		1.256e-02		16.184
4		0.00		-9.20		5.127e-02		-43.228		1.224e-02		6.639
4		0.00		-8.80		5.355e-02		-42.584		9.379e-03		7.235
4		0.00		-8.40		5.625e-02		-43.121		8.924e-03		6.881
4		0.00		-8.00		5.648e-02		-43.977		9.590e-03		6.157
4		0.00		-7.60		5.313e-02		-44.458		1.136e-02		8.475
4		0.00		-7.20		5.115e-02		-45.583		1.267e-02		11.052
4		0.00		-6.80		4.941e-02		-45.416		1.224e-02		8.501
4		0.00		-6.40		4.800e-02		-45.920		9.452e-03		5.532
4		0.00		-6.00		4.604e-02		-46.438		6.467e-03		5.020
4		0.00		-5.60		4.378e-02		-46.876		6.087e-03		5.876
4		0.00		-5.20		4.047e-02		-45.965		6.755e-03		7.421
4		0.00		-4.80		3.617e-02		-46.600		7.178e-03		8.895
4		0.00		-4.40		3.186e-02		-48.860		7.258e-03		12.647
4		0.00		-4.00		2.895e-02		-49.069		5.706e-03		7.638
4		0.00		-3.60		2.596e-02		-48.021		3.299e-03		7.628
4		0.00		-3.20		2.277e-02		-48.911		2.668e-03		7.803
4		0.00		-2.80		1.782e-02		-45.249		2.414e-03		8.108
4		0.00		-2.40		1.296e-02		-44.185		2.244e-03		12.466
4		0.00		-2.00		8.787e-03		-37.511		2.049e-03		14.338
4		0.00		-1.60		4.830e-03		-24.827		1.615e-03		22.013
4		0.00		-1.20		2.356e-03		16.912		8.910e-04		67.589
4		0.00		-0.80		5.203e-03		117.075		1.470e-03		24.032
4		0.00		-0.40		1.016e-02		121.767		1.956e-03		9.443
5		0.00		0.00		1.548e-02		127.395		2.899e-03		11.204
5		0.00		0.40		1.967e-02		125.980		4.183e-03		15.012
5		0.00		0.80		2.427e-02		127.606		5.186e-03		9.719
5		0.00		1.20		2.924e-02		128.979		5.285e-03		7.120
5		0.00		1.60		3.412e-02		128.717		5.084e-03		6.204
5		0.00		2.00		3.865e-02		129.706		5.747e-03		7.840
5		0.00		2.40		4.083e-02		130.660		7.943e-03		9.165
5		0.00		2.80		4.360e-02		127.667		1.050e-02		15.249
5		0.00		3.20		4.787e-02		129.478		1.213e-02		11.180
5		0.00		3.60		5.045e-02		131.155		1.025e-02		6.680
5		0.00		4.00		5.361e-02		132.611		8.547e-03		5.605
5		0.00		4.40		5.335e-02		131.868		9.936e-03		8.824
5		0.00		4.80		5.509e-02		131.975		1.235e-02		9.417
5		0.00		5.20		5.704e-02		131.963		1.315e-02		12.484
5		0.00		5.60		5.911e-02		131.031		1.494e-02		12.600
5		0.00		6.00		6.184e-02		132.689		1.273e-02		6.954
5		0.00		6.40		6.261e-02		133.850		1.142e-02		9.117
5		0.00		6.80		5.967e-02		131.140		1.286e-02		15.149
5		0.00		7.20		6.123e-02		134.398		1.451e-02		14.137
5		0.00		7.60		6.188e-02		133.270		1.555e-02		20.609
5		0.00		8.00		6.239e-02		135.967		1.659e-02		11.049
5		0.00		8.40		6.586e-02		132.103		1.413e-02		18.253
5		0.00		8.80		6.549e-02		129.724		1.754e-02		20.139
5		0.00		9.20		6.530e-02		129.601		1.675e-02		25.733
5		0.00		9.60		6.078e-02		129.006		1.732e-02		21.177
5		0.00		10.00		5.955e-02		132.301		1.859e-02		16.435
5		0.00		9.60		6.100e-02		133.095		1.657e-02		8.201
5		0.00		9.20		6.309e-02		130.514		1.369e-02		10.473
5		0.00		8.80		6.055e-02		132.566		1.269e-02		10.989
5		0.00		8.40		5.784e-02		131.980		1.327e-02		10.362
5		0.00		8.00		5.579e-02		130.890		1.473e-02		18.377
5		0.00		7.60		5.511e-02		130.887		1.446e-02		15.349
5		0.00		7.20		5.258e-02		131.809		1.254e-02		5.876
5		0.00		6.80		5.126e-02		131.240		8.872e-03		5.808
5		0.00		6.40		4.815e-02		132.415		7.795e-03		6.396
5		0.00		6.00		4.520e-02		132.800		8.220e-03		7.610
5		0.00		5.60		4.119e-02		131.010		8.918e-03		11.452
5		0.00		5.20		3.686e-02		130.521		8.351e-03		13.345
5		0.00		4.80		3.364e-02		133.207		6.092e-03		6.539
5		0.00		4.40		2.943e-02		132.011		4.185e-03		6.797
5		0.00		4.00		2.455e-02		133.480		3.404e-03		6.887
5		0.00		3.60		1.837e-02		131.257		2.909e-03		7.125
5		0.00		3.20		1.307e-02		128.337		2.687e-03		13.437
5		0.00		2.80		7.447e-03		125.152		1.875e-03		16.769
5		0.00		2.40		2.292e-03		36.138		1.092e-03		72.106
5		0.00		2.00		4.716e-03		-49.439		1.417e-03		21.997
5		0.00		1.60		1.053e-02		-52.243		1.767e-03		13.275
5		0.00		1.20		1.577e-02		-49.291		3.075e-03		10.438
5		0.00		0.80		2.131e-02		-46.090		4.848e-03		8.725
5		0.00		0.40		2.696e-02		-49.147		5.491e-03		9.982
5		0.00		0.00		3.296e-02		-50.458		4.443e-03		6.651
5		0.00		-0.40		3.842e-02		-49.257		4.729e-03		7.211
5		0.00		-0.80		4.129e-02		-49.523		6.302e-03		6.932
5		0.00		-1.20		4.314e-02		-49.158		8.866e-03		8.849
5		0.00		-1.60		4.492e-02		-50.392		1.075e-02		9.718
5		0.00		-2.00		4.721e-02		-50.859		9.510e-03		6.242
5		0.00		-2.40		5.131e-02		-51.086		6.702e-03		5.183
5		0.00		-2.80		4.986e-02		-51.612		6.281e-03		5.744
5		0.00		-3.20		5.046e-02		-49.614		7.983e-03		6.750
5		0.00		-3.60		4.992e-02		-50.426		1.063e-02		11.079
5		0.00		-4.00		5.079e-02		-50.565		1.131e-02		9.740
5		0.00		-4.40		5.238e-02		-50.521		9.937e-03		6.712
5		0.00		-4.80		5.513e-02		-50.148		7.480e-03		4.773
5		0.00		-5.20		5.376e-02		-47.205		7.657e-03		6.333
5		0.00		-5.60		5.432e-02		-45.874		8.906e-03		5.514
5		0.00		-6.00		5.387e-02		-45.530		1.196e-02		9.181
5		0.00		-6.40		5.427e-02		-45.336		1.333e-02		12.211
5		0.00		-6.80		5.473e-02		-46.410		1.297e-02		6.715
5		0.00		-7.20		5.704e-02		-44.581		1.061e-02		6.262
5		0.00		-7.60		5.816e-02		-44.567		9.494e-03		6.933
5		0.00		-8.00		5.864e-02		-44.110		1.086e-02		6.684
5		0.00		-8.40		5.581e-02		-44.137		1.359e-02		11.490
5		0.00		-8.80		5.392e-02		-43.250		1.452e-02		16.571
5		0.00		-9.20		5.129e-02		-41.829		1.513e-02		13.791
5		0.00		-9.60		4.719e-02		-44.072		1.236e-02		5.693
5		0.00		-10.00		4.077e-02		-42.029		9.013e-03		6.068
5		0.00		-9.60		4.557e-02		-43.169		1.011e-02		7.794
5		0.00		-9.20		5.003e-02		-40.954		1.144e-02		8.407
5		0.00		-8.80		5.201e-02		-42.624		1.278e-02		16.994
5		0.00		-8.40		5.440e-02		-43.706		1.351e-02		14.747
5		0.00		-8.00		5.601e-02		-44.467		1.250e-02		6.646
5		0.00		-7.60		5.704e-02		-45.320		9.360e-03		7.726
5		0.00		-7.20		5.269e-02		-44.651		7.463e-03		6.176
5		0.00		-6.80		5.188e-02		-43.734		8.423e-03		5.280
5		0.00		-6.40		4.845e-02		-44.998		9.995e-03		7.831
5		0.00		-6.00		4.651e-02		-46.186		1.056e-02		10.433
5		0.00		-5.60		4.446e-02		-46.582		9.578e-03		6.366
5		0.00		-5.20		4.256e-02		-47.067		6.843e-03		4.859
5		0.00		-4.80		3.932e-02		-48.722		5.033e-03		5.610
5		0.00		-4.40		3.477e-02		-48.061		5.511e-03		6.751
5		0.00		-4.00		3.049e-02		-48.255		5.817e-03		7.903
5		0.00		-3.60		2.605e-02		-47.195		5.798e-03		11.643
5		0.00		-3.20		2.252e-02		-47.772		4.916e-03		8.625
5		0.00		-2.80		1.855e-02		-46.781		3.195e-03		7.473
5		0.00		-2.40		1.478e-02		-44.424		1.963e-03		9.920
5		0.00		-2.00		1.065e-02		-37.757		1.794e-03		10.152
5		0.00		-1.60		5.496e-03		-37.398		1.335e-03		17.327
5		0.00		-1.20		2.082e-03		16.989		9.368e-04		59.026
5		0.00		-0.80		4.939e-03		104.671		1.896e-03		36.515
5		0.00		-0.40		9.561e-03		122.449		2.542e-03		15.214
6		0.00		0.00		1.483e-02		127.725		2.604e-03		8.943
6		0.00		0.40		2.033e-02		131.186		2.801e-03		7.698
6		0.00		0.80		2.526e-02		130.683		3.290e-03		5.998
6		0.00		1.20		2.911e-02		130.439		4.405e-03		7.168
6		0.00		1.60		3.302e-02		130.397		6.203e-03		9.417
6		0.00		2.00		3.717e-02		130.726		7.466e-03		8.601
6		0.00		2.40		4.107e-02		130.233		8.651e-03		7.490
6		0.00		2.80		4.555e-02		130.255		8.274e-03		4.640
6		0.00		3.20		4.888e-02		131.290		7.637e-03		4.978
6		0.00		3.60		5.115e-02		132.234		7.755e-03		5.505
6		0.00		4.00		5.157e-02		133.336		1.055e-02		7.310
6		0.00		4.40		5.345e-02		132.393		1.309e-02		11.759
6		0.00		4.80		5.427e-02		130.567		1.391e-02		17.655
6		0.00		5.20		5.665e-02		131.861		1.530e-02		10.389
6		0.00		5.60		5.918e-02		133.083		1.274e-02		7.069
6		0.00		6.00		6.179e-02		132.832		1.156e-02		8.748
6		0.00		6.40		5.870e-02		132.064		1.305e-02		15.197
6		0.00		6.80		6.043e-02		134.514		1.478e-02		13.781
6		0.00		7.20		5.911e-02		135.939		1.500e-02		14.011
6		0.00		7.60		6.026e-02		135.241		1.631e-02		18.851
6		0.00		8.00		5.999e-02		138.857		1.513e-02		14.561
6		0.00		8.40		6.516e-02		135.024		1.683e-02		10.873
6		0.00		8.80		6.607e-02		135.779		1.535e-02		14.311
6		0.00		9.20		6.717e-02		130.140		1.722e-02		18.047
6		0.00		9.60		6.321e-02		131.938		1.612e-02		16.893
6		0.00		10.00		5.900e-02		133.479		1.565e-02		17.309
6		0.00		9.60		6.061e-02		129.342		1.659e-02		23.435
6		0.00		9.20		6.202e-02		129.967		1.771e-02		24.452
6		0.00		8.80		5.990e-02		134.313		1.629e-02		11.615
6		0.00		8.40		6.141e-02		132.382		1.547e-02		7.319
6		0.00		8.00		5.905e-02		132.744		1.247e-02		7.110
6		0.00		7.60		5.567e-02		133.748		1.108e-02		7.537
6		0.00		7.20		5.261e-02		134.227		1.047e-02		7.575
6		0.00		6.80		4.851e-02		133.432		1.116e-02		7.799
6		0.00		6.40		4.542e-02		130.849		1.149e-02		13.892
6		0.00		6.00		4.350e-02		130.724		1.094e-02		19.080
6		0.00		5.60		4.049e-02		129.579		1.055e-02		16.661
6		0.00		5.20		3.678e-02		131.649		9.039e-03		7.572
6		0.00		4.80		3.316e-02		132.065		6.776e-03		7.372
6		0.00		4.40		2.925e-02		132.092		5.243e-03		7.255
6		0.00		4.00		2.535e-02		132.027		4.280e-03		8.006
6		0.00		3.60		2.002e-02		133.160		3.326e-03		8.037
6		0.00		3.20		1.470e-02		131.844		3.211e-03		11.171
6		0.00		2.80		8.933e-03		133.014		2.460e-03		16.870
6		0.00		2.40		3.529e-03		104.580		1.537e-03		49.749
6		0.00		2.00		3.020e-03		-31.483		1.312e-03		40.528
6		0.00		1.60		8.653e-03		-53.513		2.112e-03		12.838
6		0.00		1.20		1.434e-02		-51.096		2.269e-03		10.517
6		0.00		0.80		1.975e-02		-49.239		3.070e-03		9.155
6		0.00		0.40		2.592e-02		-47.917		4.197e-03		8.455
6		0.00		0.00		3.025e-02		-46.979		5.536e-03		7.964
6		0.00		-0.40		3.452e-02		-49.647		7.314e-03		11.215
6		0.00		-0.80		3.825e-02		-49.385		9.082e-03		8.526
6		0.00		-1.20		4.223e-02		-51.588		9.631e-03		7.265
6		0.00		-1.60		4.468e-02		-51.369		8.332e-03		5.889
6		0.00		-2.00		4.764e-02		-51.077		7.076e-03		5.069
6		0.00		-2.40		4.781e-02		-50.464		6.935e-03		5.838
6		0.00		-2.80		4.842e-02		-50.797		7.541e-03		5.944
6		0.00		-3.20		4.726e-02		-49.771		9.233e-03		6.904
6		0.00		-3.60		4.688e-02		-49.495		1.129e-02		10.332
6		0.00		-4.00		4.860e-02		-51.502		1.205e-02		13.570
6		0.00		-4.40		5.045e-02		-49.703		1.248e-02		8.444
6		0.00		-4.80		5.164e-02		-49.781		1.057e-02		5.998
6		0.00		-5.20		5.224e-02		-47.981		9.062e-03		6.146
6		0.00		-5.60		5.284e-02		-46.276		8.400e-03		7.542
6		0.00		-6.00		5.324e-02		-44.333		9.182e-03		6.304
6		0.00		-6.40		5.386e-02		-45.478		1.117e-02		7.613
6		0.00		-6.80		5.348e-02		-45.254		1.291e-02		11.444
6		0.00		-7.20		5.369e-02		-46.513		1.380e-02		16.887
6		0.00		-7.60		5.541e-02		-46.181		1.475e-02		12.527
6		0.00		-8.00		5.773e-02		-45.163		1.399e-02		6.572
6		0.00		-8.40		5.566e-02		-42.830		1.143e-02		8.792
6		0.00		-8.80		5.349e-02		-41.849		1.064e-02		8.834
6		0.00		-9.20		4.977e-02		-40.602		1.163e-02		8.187
6		0.00		-9.60		4.403e-02		-42.913		1.199e-02		8.287
6		0.00		-10.00		3.920e-02		-42.707		1.179e-02		11.186
6		0.00		-9.60		4.349e-02		-44.151		1.340e-02		16.218
6		0.00		-9.20		4.887e-02		-37.669		1.455e-02		17.877
6		0.00		-8.80		5.085e-02		-42.885		1.557e-02		10.028
6		0.00		-8.40		5.253e-02		-43.503		1.264e-02		6.692
6		0.00		-8.00		5.446e-02		-43.465		1.123e-02		7.263
6		0.00		-7.60		5.426e-02		-43.503		9.233e-03		7.052
6		0.00		-7.20		5.131e-02		-43.856		8.924e-03		6.188
6		0.00		-6.80		5.097e-02		-44.695		1.006e-02		6.555
6		0.00		-6.40		4.772e-02		-44.600		1.080e-02		7.866
6		0.00		-6.00		4.614e-02		-46.230		1.044e-02		11.448
6		0.00		-5.60		4.346e-02		-47.812		9.818e-03		11.754
6		0.00		-5.20		4.074e-02		-48.165		9.305e-03		8.665
6		0.00		-4.80		3.844e-02		-48.656		7.692e-03		6.742
6		0.00		-4.40		3.457e-02		-48.587		5.496e-03		5.864
6		0.00		-4.00		3.145e-02		-48.160		4.497e-03		6.601
6		0.00		-3.60		2.737e-02		-47.665		3.561e-03		7.374
6		0.00		-3.20		2.347e-02		-46.176		3.238e-03		7.932
6		0.00		-2.80		1.883e-02		-44.732		2.758e-03		9.793
6		0.00		-2.40		1.402e-02		-42.674		2.747e-03		9.634
6		0.00		-2.00		9.918e-03		-41.715		2.267e-03		11.051
6		0.00		-1.60		4.861e-03		-52.404		1.528e-03		18.534
6		0.00		-1.20		2.072e-03		11.420		1.073e-03		65.381
6		0.00		-0.80		5.271e-03		107.393		1.813e-03		32.203
6		0.00		-0.40		9.814e-03		120.722		2.488e-03		13.190
7		0.00		0.00		1.516e-02		128.214		3.062e-03		9.108
7		0.00		0.40		2.045e-02		127.050		3.363e-03		7.983
7		0.00		0.80		2.516e-02		128.775		4.022e-03		7.684
7		0.00		1.20		2.982e-02		128.878		4.374e-03		6.935
7		0.00		1.60		3.454e-02		129.805		5.326e-03		7.319
7		0.00		2.00		3.880e-02		130.176		6.963e-03		8.085
7		0.00		2.40		4.184e-02		131.837		8.600e-03		8.227
7		0.00		2.80		4.579e-02		129.390		9.940e-03		12.089
7		0.00		3.20		4.957e-02		130.217		1.132e-02		11.603
7		0.00		3.60		5.259e-02		130.634		1.257e-02		10.683
7		0.00		4.00		5.546e-02		131.867		1.232e-02		5.952
7		0.00		4.40		5.827e-02		132.958		1.100e-02		5.174
7		0.00		4.80		5.937e-02		134.093		9.549e-03		6.506
7		0.00		5.20		6.031e-02		132.538		1.127e-02		9.093
7		0.00		5.60		5.842e-02		134.145		1.215e-02		11.806
7		0.00		6.00		5.886e-02		132.296		1.439e-02		15.366
7		0.00		6.40		6.068e-02		133.039		1.528e-02		13.849
7		0.00		6.80		5.962e-02		132.400		1.693e-02		17.655
7		0.00		7.20		5.939e-02		132.859		1.680e-02		20.260
7		0.00		7.60		5.940e-02		132.873		1.744e-02		26.515
7		0.00		8.00		6.056e-02		131.225		1.815e-02		31.265
7		0.00		8.40		6.151e-02		132.101		1.840e-02		19.504
7		0.00		8.80		6.392e-02		137.133		1.709e-02		11.074
7		0.00		9.20		6.714e-02		134.814		1.596e-02		11.317
7		0.00		9.60		6.753e-02		133.817		1.646e-02		14.542
7		0.00		10.00		6.458e-02		134.226		1.542e-02		12.540
7		0.00		9.60		6.162e-02		133.175		1.497e-02		15.698
7		0.00		9.20		6.235e-02		132.527		1.495e-02		13.162
7		0.00		8.80		6.162e-02		132.547		1.524e-02		12.440
7		0.00		8.40		5.949e-02		131.784		1.496e-02		16.555
7		0.00		8.00		5.624e-02		132.709		1.368e-02		14.352
7		0.00		7.60		5.613e-02		131.565		1.395e-02		17.403
7		0.00		7.20		5.454e-02		131.362		1.354e-02		15.638
7		0.00		6.80		5.171e-02		131.477		1.398e-02		13.615
7		0.00		6.40		4.863e-02		131.370		1.309e-02		8.572
7		0.00		6.00		4.554e-02		132.027		1.064e-02		5.102
7		0.00		5.60		4.264e-02		132.939		8.553e-03		5.161
7		0.00		5.20		3.922e-02		132.618		6.899e-03		4.868
7		0.00		4.80		3.487e-02		132.237		5.846e-03		5.940
7		0.00		4.40		3.026e-02		132.754		4.745e-03		5.352
7		0.00		4.00		2.558e-02		133.008		4.446e-03		6.664
7		0.00		3.60		2.093e-02		133.830		3.788e-03		7.388
7		0.00		3.20		1.570e-02		129.375		3.112e-03		12.543
7		0.00		2.80		1.014e-02		133.186		2.298e-03		15.015
7		0.00		2.40		4.580e-03		108.271		1.731e-03		52.918
7		0.00		2.00		2.648e-03		-26.368		1.282e-03		52.162
7		0.00		1.60		7.737e-03		-46.754		1.988e-03		14.146
7		0.00		1.20		1.333e-02		-49.312		2.640e-03		10.558
7		0.00		0.80		2.007e-02		-49.128		3.184e-03		8.272
7		0.00		0.40		2.632e-02		-49.400		3.314e-03		6.925
7		0.00		0.00		3.214e-02		-50.598		3.947e-03		6.876
7		0.00		-0.40		3.717e-02		-50.510		4.500e-03		7.090
7		0.00		-0.80		4.068e-02		-49.833		5.505e-03		7.263
7		0.00		-1.20		4.282e-02		-48.481		6.752e-03		6.469
7		0.00		-1.60		4.419e-02		-49.197		9.122e-03		10.430
7		0.00		-2.00		4.522e-02		-49.845		1.079e-02		11.634
7		0.00		-2.40		4.622e-02		-50.758		1.150e-02		12.163
7		0.00		-2.80		4.763e-02		-52.078		1.217e-02		10.158
7		0.00		-3.20		4.806e-02		-51.557		1.130e-02		6.357
7		0.00		-3.60		4.937e-02		-51.058		9.641e-03		5.110
7		0.00		-4.00		5.087e-02		-50.672		8.572e-03		5.109
7		0.00		-4.40		5.111e-02		-49.969		8.315e-03		6.323
7		0.00		-4.80		5.131e-02		-48.089		8.794e-03		7.028
7		0.00		-5.20		5.291e-02		-47.323		9.720e-03		6.154
7		0.00		-5.60		5.206e-02		-45.398		1.138e-02		7.378
7		0.00		-6.00		5.171e-02		-45.485		1.270e-02		15.843
7		0.00		-6.40		5.424e-02		-46.108		1.341e-02		15.127
7		0.00		-6.80		5.616e-02		-45.449		1.363e-02		8.233
7		0.00		-7.20		5.761e-02		-45.049		1.128e-02		7.357
7		0.00		-7.60		5.902e-02		-43.478		1.086e-02		9.934
7		0.00		-8.00		5.690e-02		-42.826		9.096e-03		6.957
7		0.00		-8.40		5.538e-02		-42.871		1.065e-02		8.307
7		0.00		-8.80		5.372e-02		-41.741		1.243e-02		10.035
7		0.00		-9.20		5.079e-02		-42.763		1.346e-02		13.888
7		0.00		-9.60		4.603e-02		-42.978		1.323e-02		19.350
7		0.00		-10.00		4.146e-02		-44.674		1.224e-02		16.668
7		0.00		-9.60		4.719e-02		-43.760		1.353e-02		6.815
7		0.00		-9.20		5.195e-02		-41.737		1.228e-02		6.663
7		0.00		-8.80		5.229e-02		-41.002		1.062e-02		7.028
7		0.00		-8.40		5.527e-02		-42.427		1.060e-02		7.958
7		0.00		-8.00		5.677e-02		-44.696		1.288e-02		8.617
7		0.00		-7.60		5.445e-02		-45.432		1.396e-02		11.878
7		0.00		-7.20		5.361e-02		-45.861		1.377e-02		12.772
7		0.00		-6.80		5.206e-02		-45.737		1.353e-02		12.449
7		0.00		-6.40		5.204e-02		-45.004		1.235e-02		5.716
7		0.00		-6.00		5.023e-02		-45.064		8.755e-03		4.545
7		0.00		-5.60		4.665e-02		-46.875		7.065e-03		5.399
7		0.00		-5.20		4.330e-02		-47.060		5.986e-03		6.006
7		0.00		-4.80		3.927e-02		-46.516		6.233e-03		6.852
7		0.00		-4.40		3.451e-02		-46.304		6.401e-03		7.525
7		0.00		-4.00		3.066e-02		-48.110		5.981e-03		9.438
7		0.00		-3.60		2.702e-02		-47.483		5.554e-03		9.468
7		0.00		-3.20		2.248e-02		-46.477		4.469e-03		7.558
7		0.00		-2.80		1.898e-02		-44.000		3.076e-03		9.848
7		0.00		-2.40		1.483e-02		-44.249		2.404e-03		9.030
7		0.00		-2.00		9.920e-03		-37.598		1.666e-03		12.510
7		0.00		-1.60		5.413e-03		-43.386		1.653e-03		18.916
7		0.00		-1.20		1.934e-03		1.411		7.582e-04		54.247
7		0.00		-0.80		5.525e-03		115.299		1.689e-03		27.426
7		0.00		-0.40		1.023e-02		121.167		2.613e-03		17.249
8		0.00		0.00		1.491e-02		123.943		3.685e-03		15.174
8		0.00		0.40		1.987e-02		125.882		5.037e-03		9.518
8		0.00		0.80		2.507e-02		126.975		4.916e-03		6.804
8		0.00		1.20		3.018e-02		127.551		4.951e-03		6.311
8		0.00		1.60		3.463e-02		129.514		5.196e-03		6.287
8		0.00		2.00		3.808e-02		129.658		5.922e-03		6.349
8		0.00		2.40		4.106e-02		130.519		7.867e-03		7.733
8		0.00		2.80		4.374e-02		131.813		9.676e-03		8.273
8		0.00		3.20		4.760e-02		130.437		1.116e-02		12.160
8		0.00		3.60		5.061e-02		131.347		1.270e-02		8.143
8		0.00		4.00		5.401e-02		132.241		1.143e-02		4.812
8		0.00		4.40		5.555e-02		133.459		1.063e-02		6.137
8		0.00		4.80		5.491e-02		134.236		9.232e-03		6.409
8		0.00		5.20		5.494e-02		134.322		1.087e-02		8.388
8		0.00		5.60		5.496e-02		135.173		1.209e-02		9.942
8		0.00		6.00		5.772e-02		131.728		1.402e-02		18.665
8		0.00		6.40		5.641e-02		133.693		1.544e-02		17.104
8		0.00		6.80		5.681e-02		137.342		1.588e-02		10.404
8		0.00		7.20		6.153e-02		134.374		1.398e-02		9.024
8		0.00		7.60		6.271e-02		135.625		1.412e-02		12.141
8		0.00		8.00		6.098e-02		131.969		1.527e-02		17.085
8		0.00		8.40		6.246e-02		131.682		1.690e-02		33.933
8		0.00		8.80		6.148e-02		131.271		1.760e-02		34.992
8		0.00		9.20		6.231e-02		127.912		1.904e-02		36.970
8		0.00		9.60		6.135e-02		127.961		1.867e-02		39.481
8		0.00		10.00		6.341e-02		134.749		1.738e-02		11.384
8		0.00		9.60		6.556e-02		136.245		1.579e-02		13.434
8		0.00		9.20		6.499e-02		133.481		1.661e-02		15.215
8		0.00		8.80		6.253e-02		135.322		1.606e-02		15.959
8		0.00		8.40		5.861e-02		129.671		1.592e-02		20.511
8		0.00		8.00		5.910e-02		132.601		1.562e-02		18.777
8		0.00		7.60		5.682e-02		132.650		1.464e-02		16.938
8		0.00		7.20		5.554e-02		133.478		1.427e-02		7.548
8		0.00		6.80		5.379e-02		132.885		1.104e-02		5.298
8		0.00		6.40		5.010e-02		133.911		9.097e-03		5.912
8		0.00		6.00		4.711e-02		134.797		8.659e-03		6.050
8		0.00		5.60		4.223e-02		133.068		9.026e-03		8.374
8		0.00		5.20		3.853e-02		130.273		9.443e-03		15.661
8		0.00		4.80		3.409e-02		130.200		8.638e-03		16.452
8		0.00		4.40		2.939e-02		131.700		7.052e-03		8.581
8		0.00		4.00		2.520e-02		134.646		4.922e-03		7.409
8		0.00		3.60		2.009e-02		131.045		3.715e-03		8.275
8		0.00		3.20		1.500e-02		133.471		2.953e-03		9.865
8		0.00		2.80		9.525e-03		134.042		2.327e-03		14.673
8		0.00		2.40		3.280e-03		86.826		1.429e-03		62.020
8		0.00		2.00		3.725e-03		-47.822		1.424e-03		39.866
8		0.00		1.60		9.457e-03		-53.474		2.112e-03		11.771
8		0.00		1.20		1.542e-02		-48.558		2.110e-03		8.899
8		0.00		0.80		2.143e-02		-48.223		2.970e-03		8.715
8		0.00		0.40		2.668e-02		-50.331		4.480e-03		8.880
8		0.00		0.00		3.108e-02		-49.452		6.169e-03		10.064
8		0.00		-0.40		3.601e-02		-49.777		7.491e-03		8.277
8		0.00		-0.80		4.104e-02		-50.660		6.750e-03		6.143
8		0.00		-1.20		4.499e-02		-50.122		5.826e-03		5.308
8		0.00		-1.60		4.623e-02		-49.252		6.174e-03		6.621
8		0.00		-2.00		4.569e-02		-49.022		8.208e-03		8.746
8		0.00		-2.40		4.692e-02		-51.106		1.042e-02		11.059
8		0.00		-2.80		4.775e-02		-51.062		1.064e-02		7.690
8		0.00		-3.20		4.922e-02		-50.962		9.220e-03		5.863
8		0.00		-3.60		4.899e-02		-50.462		6.758e-03		6.066
8		0.00		-4.00		5.010e-02		-49.273		8.557e-03		5.927
8		0.00		-4.40		4.937e-02		-49.680		1.115e-02		7.205
8		0.00		-4.80		4.960e-02		-50.198		1.291e-02		11.679
8		0.00		-5.20		5.181e-02		-48.476		1.371e-02		7.192
8		0.00		-5.60		5.499e-02		-46.894		1.102e-02		5.402
8		0.00		-6.00		5.456e-02		-46.510		9.001e-03		6.883
8		0.00		-6.40		5.611e-02		-44.962		1.123e-02		6.645
8		0.00		-6.80		5.618e-02		-46.112		1.460e-02		13.871
8		0.00		-7.20		5.554e-02		-41.445		1.386e-02		15.728
8		0.00		-7.60		5.811e-02		-44.121		1.520e-02		8.258
8		0.00		-8.00		5.971e-02		-43.543		1.076e-02		8.194
8		0.00		-8.40		5.724e-02		-42.309		9.656e-03		9.644
8		0.00		-8.80		5.445e-02		-42.474		1.207e-02		10.831
8		0.00		-9.20		5.191e-02		-41.919		1.313e-02		11.459
8		0.00		-9.60		4.640e-02		-42.308		1.317e-02		19.736
8		0.00		-10.00		4.062e-02		-40.642		1.078e-02		13.717
8		0.00		-9.60		4.687e-02		-42.390		1.091e-02		5.484
8		0.00		-9.20		5.028e-02		-40.975		1.100e-02		7.054
8		0.00		-8.80		5.281e-02		-41.561		1.051e-02		7.422
8		0.00		-8.40		5.350e-02		-44.622		1.378e-02		11.594
8		0.00		-8.00		5.330e-02		-45.239		1.530e-02		21.629
8		0.00		-7.60		5.230e-02		-47.022		1.499e-02		13.072
8		0.00		-7.20		5.305e-02		-46.325		1.221e-02		6.004
8		0.00		-6.80		5.212e-02		-44.538		9.467e-03		6.329
8		0.00		-6.40		4.884e-02		-45.142		8.194e-03		6.099
8		0.00		-6.00		4.608e-02		-44.928		9.091e-03		6.316
8		0.00		-5.60		4.298e-02		-47.098		1.017e-02		9.955
8		0.00		-5.20		4.069e-02		-47.247		9.999e-03		11.732
8		0.00		-4.80		3.770e-02		-48.032		9.001e-03		7.843
8		0.00		-4.40		3.493e-02		-49.409		5.863e-03		5.732
8		0.00		-4.00		3.171e-02		-48.899		4.241e-03		7.495
8		0.00		-3.60		2.723e-02		-47.833		3.877e-03		6.389
8		0.00		-3.20		2.329e-02		-46.794		3.874e-03		7.292
8		0.00		-2.80		1.888e-02		-45.329		3.864e-03		10.915
8		0.00		-2.40		1.424e-02		-42.343		3.043e-03		9.866
8		0.00		-2.00		1.022e-02		-42.461		2.366e-03		13.079
8		0.00		-1.60		5.560e-03		-36.137		1.579e-03		17.166
8		0.00		-1.20		2.279e-03		31.917		1.050e-03		71.780
8		0.00		-0.80		5.711e-03		116.657		1.521e-03		23.053
8		0.00		-0.40		1.057e-02		121.129		2.494e-03		14.595
