# Date of analysis: 2024-03-08 10;59
# Segment other properties: height: -60.75061010602264, diff height: 533.5719749037048, deflection: 33.12887698560887, deflection error: 2.4021317684783448, adhesion: 36.88961679269313, phase offset: 0
# 
# Loop index	Read Volt (V)	Write Volt (V)	Amplitude (a.u)	Phase (deg)	Sigma Amp (a.u)	Sigma Pha (deg)	
1		0.00		0.00		2.076e-02		-55.342		3.593e-03		12.086
1		0.00		0.40		8.167e-03		-53.847		2.020e-03		18.412
1		0.00		0.80		2.556e-03		-2.697		1.032e-03		72.618
1		0.00		1.20		6.999e-03		119.303		2.454e-03		31.708
1		0.00		1.60		1.330e-02		122.334		3.809e-03		21.509
1		0.00		2.00		1.898e-02		123.015		4.623e-03		13.591
1		0.00		2.40		2.456e-02		124.409		5.025e-03		11.966
1		0.00		2.80		2.933e-02		122.661		6.361e-03		13.016
1		0.00		3.20		3.220e-02		123.412		6.381e-03		14.242
1		0.00		3.60		3.546e-02		123.824		8.076e-03		18.710
1		0.00		4.00		3.796e-02		126.853		9.393e-03		12.145
1		0.00		4.40		3.783e-02		124.340		7.577e-03		10.802
1		0.00		4.80		3.636e-02		123.012		6.661e-03		12.761
1		0.00		5.20		3.851e-02		124.772		7.098e-03		12.355
1		0.00		5.60		4.040e-02		123.268		8.897e-03		21.692
1		0.00		6.00		4.101e-02		122.882		9.660e-03		23.513
1		0.00		6.40		4.259e-02		124.345		9.324e-03		12.436
1		0.00		6.80		4.534e-02		123.951		8.055e-03		11.456
1		0.00		7.20		4.503e-02		122.923		8.852e-03		12.847
1		0.00		7.60		4.527e-02		123.973		1.096e-02		15.545
1		0.00		8.00		4.500e-02		121.584		1.185e-02		25.634
1		0.00		8.40		4.486e-02		122.160		1.299e-02		27.649
1		0.00		8.80		4.780e-02		124.558		1.305e-02		11.098
1		0.00		9.20		4.824e-02		123.316		1.137e-02		13.888
1		0.00		9.60		4.497e-02		123.219		1.143e-02		16.093
1		0.00		10.00		4.421e-02		124.502		1.252e-02		17.575
1		0.00		9.60		4.583e-02		120.173		1.432e-02		25.452
1		0.00		9.20		4.733e-02		121.596		1.428e-02		25.504
1		0.00		8.80		4.723e-02		126.843		1.263e-02		9.187
1		0.00		8.40		4.490e-02		126.736		9.134e-03		10.542
1		0.00		8.00		4.152e-02		128.528		8.396e-03		11.222
1		0.00		7.60		3.925e-02		127.492		8.957e-03		13.861
1		0.00		7.20		3.730e-02		126.245		8.930e-03		23.224
1		0.00		6.80		3.543e-02		127.680		9.003e-03		21.159
1		0.00		6.40		3.253e-02		130.182		6.864e-03		8.511
1		0.00		6.00		3.226e-02		129.370		6.219e-03		9.776
1		0.00		5.60		2.887e-02		129.890		5.770e-03		9.199
1		0.00		5.20		2.888e-02		129.434		5.997e-03		12.571
1		0.00		4.80		2.845e-02		127.393		7.255e-03		16.411
1		0.00		4.40		2.764e-02		128.810		7.065e-03		16.994
1		0.00		4.00		2.286e-02		132.811		5.491e-03		8.574
1		0.00		3.60		2.320e-02		129.489		4.849e-03		10.894
1		0.00		3.20		2.159e-02		129.771		4.879e-03		10.210
1		0.00		2.80		1.740e-02		127.193		4.261e-03		15.323
1		0.00		2.40		1.410e-02		122.550		4.001e-03		25.358
1		0.00		2.00		1.084e-02		120.125		3.187e-03		33.721
1		0.00		1.60		6.955e-03		117.840		2.264e-03		43.730
1		0.00		1.20		4.044e-03		88.800		2.104e-03		70.205
1		0.00		0.80		3.396e-03		-21.781		2.083e-03		55.526
1		0.00		0.40		6.842e-03		-42.892		3.020e-03		20.467
1		0.00		0.00		1.090e-02		-46.187		3.672e-03		15.645
1		0.00		-0.40		1.394e-02		-45.602		4.004e-03		14.343
1		0.00		-0.80		1.759e-02		-49.431		4.052e-03		11.867
1		0.00		-1.20		2.100e-02		-52.950		3.920e-03		9.959
1		0.00		-1.60		2.280e-02		-51.261		4.229e-03		9.398
1		0.00		-2.00		2.239e-02		-48.065		5.127e-03		11.144
1		0.00		-2.40		2.388e-02		-48.528		5.881e-03		11.810
1		0.00		-2.80		2.467e-02		-49.879		6.183e-03		10.129
1		0.00		-3.20		2.807e-02		-51.131		5.788e-03		8.868
1		0.00		-3.60		3.048e-02		-52.422		5.229e-03		9.260
1		0.00		-4.00		3.179e-02		-50.248		5.948e-03		10.200
1		0.00		-4.40		3.171e-02		-49.803		7.062e-03		12.213
1		0.00		-4.80		3.186e-02		-47.405		8.344e-03		9.878
1		0.00		-5.20		3.390e-02		-47.315		8.979e-03		9.144
1		0.00		-5.60		3.571e-02		-48.306		7.845e-03		8.928
1		0.00		-6.00		3.601e-02		-49.340		7.286e-03		11.466
1		0.00		-6.40		3.731e-02		-46.921		8.483e-03		9.464
1		0.00		-6.80		3.659e-02		-46.917		9.514e-03		13.189
1		0.00		-7.20		3.687e-02		-46.346		1.043e-02		14.890
1		0.00		-7.60		3.793e-02		-47.066		1.078e-02		10.293
1		0.00		-8.00		4.027e-02		-45.100		9.481e-03		7.927
1		0.00		-8.40		3.966e-02		-46.347		7.978e-03		9.794
1		0.00		-8.80		3.815e-02		-45.648		8.196e-03		10.994
1		0.00		-9.20		3.502e-02		-45.461		9.021e-03		14.112
1		0.00		-9.60		3.115e-02		-42.387		8.161e-03		18.647
1		0.00		-10.00		2.790e-02		-39.800		7.345e-03		22.587
1		0.00		-9.60		3.225e-02		-44.569		7.653e-03		8.990
1		0.00		-9.20		3.684e-02		-43.075		7.570e-03		9.004
1		0.00		-8.80		3.833e-02		-44.954		7.285e-03		9.306
1		0.00		-8.40		3.935e-02		-44.162		7.970e-03		10.954
1		0.00		-8.00		3.988e-02		-46.148		9.382e-03		12.586
1		0.00		-7.60		3.899e-02		-46.617		9.493e-03		14.495
1		0.00		-7.20		3.717e-02		-45.159		9.316e-03		9.262
1		0.00		-6.80		3.674e-02		-45.999		7.458e-03		7.875
1		0.00		-6.40		3.594e-02		-47.542		6.397e-03		8.625
1		0.00		-6.00		3.500e-02		-47.914		5.849e-03		8.258
1		0.00		-5.60		3.218e-02		-47.420		5.818e-03		9.413
1		0.00		-5.20		2.850e-02		-46.208		5.953e-03		10.327
1		0.00		-4.80		2.653e-02		-47.737		6.061e-03		11.837
1		0.00		-4.40		2.396e-02		-47.193		5.928e-03		10.277
1		0.00		-4.00		2.156e-02		-49.995		4.723e-03		10.084
1		0.00		-3.60		2.004e-02		-51.305		3.741e-03		10.345
1		0.00		-3.20		1.712e-02		-51.335		2.700e-03		10.871
1		0.00		-2.80		1.468e-02		-47.311		2.200e-03		10.054
1		0.00		-2.40		1.096e-02		-44.647		1.918e-03		14.163
1		0.00		-2.00		7.495e-03		-45.088		1.786e-03		15.138
1		0.00		-1.60		4.373e-03		-37.233		1.653e-03		24.797
1		0.00		-1.20		2.076e-03		43.228		9.738e-04		67.063
1		0.00		-0.80		5.125e-03		122.818		1.335e-03		28.671
1		0.00		-0.40		9.459e-03		123.444		1.458e-03		10.986
2		0.00		0.00		1.470e-02		128.018		2.471e-03		10.134
2		0.00		0.40		1.888e-02		129.703		3.124e-03		8.090
2		0.00		0.80		2.307e-02		129.693		3.771e-03		9.507
2		0.00		1.20		2.692e-02		128.762		5.425e-03		13.434
2		0.00		1.60		3.149e-02		128.519		6.922e-03		12.890
2		0.00		2.00		3.535e-02		129.435		7.297e-03		9.412
2		0.00		2.40		3.859e-02		128.572		7.291e-03		5.958
2		0.00		2.80		4.031e-02		128.993		6.748e-03		7.166
2		0.00		3.20		4.074e-02		129.087		7.095e-03		8.113
2		0.00		3.60		3.892e-02		130.234		8.134e-03		10.234
2		0.00		4.00		4.065e-02		129.425		1.016e-02		15.911
2		0.00		4.40		4.371e-02		126.741		1.125e-02		18.744
2		0.00		4.80		4.777e-02		129.738		1.253e-02		10.517
2		0.00		5.20		4.894e-02		129.462		1.081e-02		6.965
2		0.00		5.60		5.085e-02		129.345		8.661e-03		6.823
2		0.00		6.00		5.125e-02		130.157		8.476e-03		7.230
2		0.00		6.40		5.311e-02		129.729		1.094e-02		10.320
2		0.00		6.80		5.440e-02		128.437		1.264e-02		17.858
2		0.00		7.20		5.565e-02		128.231		1.344e-02		21.811
2		0.00		7.60		5.859e-02		130.258		1.504e-02		9.662
2		0.00		8.00		6.015e-02		129.320		1.229e-02		9.591
2		0.00		8.40		6.001e-02		133.042		1.092e-02		9.630
2		0.00		8.80		5.721e-02		129.901		1.178e-02		13.085
2		0.00		9.20		5.799e-02		127.399		1.428e-02		13.441
2		0.00		9.60		5.685e-02		126.339		1.515e-02		19.109
2		0.00		10.00		5.373e-02		130.232		1.537e-02		16.282
2		0.00		9.60		5.464e-02		130.745		1.411e-02		6.231
2		0.00		9.20		5.557e-02		130.504		1.230e-02		7.463
2		0.00		8.80		5.314e-02		133.260		1.022e-02		7.562
2		0.00		8.40		5.301e-02		132.323		1.093e-02		9.883
2		0.00		8.00		4.869e-02		131.412		1.168e-02		12.483
2		0.00		7.60		4.653e-02		129.586		1.195e-02		19.906
2		0.00		7.20		4.469e-02		130.769		1.209e-02		16.875
2		0.00		6.80		4.624e-02		132.723		1.188e-02		7.263
2		0.00		6.40		4.723e-02		132.554		9.746e-03		7.316
2		0.00		6.00		4.538e-02		132.441		7.924e-03		7.537
2		0.00		5.60		4.295e-02		133.114		7.541e-03		7.976
2		0.00		5.20		4.011e-02		132.554		9.053e-03		10.470
2		0.00		4.80		3.860e-02		131.197		9.573e-03		13.798
2		0.00		4.40		3.635e-02		130.272		9.491e-03		16.282
2		0.00		4.00		3.395e-02		132.080		7.808e-03		7.965
2		0.00		3.60		2.962e-02		133.036		6.174e-03		7.212
2		0.00		3.20		2.694e-02		132.291		5.347e-03		6.111
2		0.00		2.80		2.244e-02		132.315		4.476e-03		7.439
2		0.00		2.40		1.828e-02		131.964		3.948e-03		13.188
2		0.00		2.00		1.388e-02		129.730		3.469e-03		25.217
2		0.00		1.60		9.743e-03		124.196		2.957e-03		33.693
2		0.00		1.20		5.430e-03		96.666		2.138e-03		58.967
2		0.00		0.80		2.820e-03		2.897		1.677e-03		82.428
2		0.00		0.40		6.253e-03		-56.709		2.489e-03		21.896
2		0.00		0.00		1.133e-02		-53.317		2.511e-03		13.033
2		0.00		-0.40		1.516e-02		-49.007		3.421e-03		11.583
2		0.00		-0.80		1.747e-02		-48.944		4.342e-03		13.261
2		0.00		-1.20		1.979e-02		-49.170		5.372e-03		14.801
2		0.00		-1.60		2.087e-02		-49.562		5.631e-03		10.224
2		0.00		-2.00		2.343e-02		-49.687		5.867e-03		8.586
2		0.00		-2.40		2.744e-02		-52.041		5.510e-03		8.675
2		0.00		-2.80		2.915e-02		-51.819		4.823e-03		9.136
2		0.00		-3.20		3.069e-02		-51.501		5.060e-03		8.546
2		0.00		-3.60		3.166e-02		-49.975		6.113e-03		10.139
2		0.00		-4.00		3.128e-02		-50.090		6.949e-03		12.462
2		0.00		-4.40		3.270e-02		-49.123		7.958e-03		14.529
2		0.00		-4.80		3.434e-02		-49.427		8.194e-03		8.598
2		0.00		-5.20		3.714e-02		-48.924		7.893e-03		7.557
2		0.00		-5.60		3.957e-02		-47.745		6.914e-03		7.892
2		0.00		-6.00		3.992e-02		-47.689		6.377e-03		7.430
2		0.00		-6.40		4.079e-02		-45.341		8.387e-03		7.749
2		0.00		-6.80		4.252e-02		-45.110		9.631e-03		10.508
2		0.00		-7.20		4.335e-02		-45.227		1.091e-02		10.342
2		0.00		-7.60		4.382e-02		-46.753		1.158e-02		11.393
2		0.00		-8.00		4.447e-02		-44.697		1.119e-02		5.762
2		0.00		-8.40		4.416e-02		-44.477		9.563e-03		7.848
2		0.00		-8.80		4.360e-02		-42.689		8.830e-03		7.734
2		0.00		-9.20		3.940e-02		-42.502		1.020e-02		10.444
2		0.00		-9.60		3.524e-02		-46.704		1.005e-02		16.810
2		0.00		-10.00		3.038e-02		-37.924		8.973e-03		23.930
2		0.00		-9.60		3.430e-02		-41.949		1.013e-02		15.727
2		0.00		-9.20		4.023e-02		-42.696		1.020e-02		7.845
2		0.00		-8.80		4.317e-02		-43.160		8.544e-03		8.533
2		0.00		-8.40		4.470e-02		-44.831		7.962e-03		8.715
2		0.00		-8.00		4.646e-02		-43.959		9.293e-03		8.275
2		0.00		-7.60		4.448e-02		-45.558		1.026e-02		11.868
2		0.00		-7.20		4.279e-02		-46.224		1.043e-02		15.015
2		0.00		-6.80		4.193e-02		-44.715		9.776e-03		8.311
2		0.00		-6.40		4.057e-02		-46.168		7.814e-03		6.865
2		0.00		-6.00		3.913e-02		-47.280		6.144e-03		7.172
2		0.00		-5.60		3.650e-02		-47.057		5.551e-03		8.079
2		0.00		-5.20		3.348e-02		-46.503		5.979e-03		8.330
2		0.00		-4.80		3.067e-02		-48.380		6.135e-03		12.083
2		0.00		-4.40		2.851e-02		-49.281		6.184e-03		11.438
2		0.00		-4.00		2.583e-02		-49.387		5.655e-03		8.435
2		0.00		-3.60		2.268e-02		-49.964		4.397e-03		10.106
2		0.00		-3.20		2.136e-02		-47.415		3.505e-03		9.888
2		0.00		-2.80		1.703e-02		-49.362		2.945e-03		11.295
2		0.00		-2.40		1.306e-02		-46.056		2.530e-03		11.625
2		0.00		-2.00		8.917e-03		-41.868		2.348e-03		17.245
2		0.00		-1.60		4.983e-03		-44.220		1.942e-03		18.969
2		0.00		-1.20		2.135e-03		3.406		9.533e-04		70.435
2		0.00		-0.80		4.296e-03		112.123		1.372e-03		43.731
2		0.00		-0.40		9.253e-03		126.463		2.013e-03		17.774
3		0.00		0.00		1.358e-02		127.485		2.589e-03		9.338
3		0.00		0.40		1.841e-02		130.904		2.858e-03		6.922
3		0.00		0.80		2.252e-02		129.288		4.265e-03		12.039
3		0.00		1.20		2.676e-02		129.746		5.455e-03		10.840
3		0.00		1.60		3.097e-02		129.573		6.105e-03		9.224
3		0.00		2.00		3.525e-02		130.164		5.901e-03		6.679
3		0.00		2.40		3.796e-02		130.660		5.478e-03		6.937
3		0.00		2.80		4.079e-02		130.889		6.167e-03		6.500
3		0.00		3.20		4.305e-02		131.632		6.710e-03		6.919
3		0.00		3.60		4.323e-02		132.169		8.504e-03		9.219
3		0.00		4.00		4.526e-02		130.385		9.932e-03		13.859
3		0.00		4.40		4.893e-02		130.792		1.151e-02		9.036
3		0.00		4.80		5.046e-02		130.622		1.031e-02		6.439
3		0.00		5.20		5.451e-02		131.823		9.301e-03		6.278
3		0.00		5.60		5.446e-02		133.029		8.431e-03		6.208
3		0.00		6.00		5.387e-02		132.391		9.592e-03		8.216
3		0.00		6.40		5.241e-02		133.577		1.173e-02		9.296
3		0.00		6.80		5.372e-02		132.987		1.328e-02		15.381
3		0.00		7.20		5.462e-02		129.723		1.470e-02		22.682
3		0.00		7.60		5.686e-02		133.582		1.487e-02		8.643
3		0.00		8.00		5.971e-02		132.389		1.282e-02		8.856
3		0.00		8.40		6.224e-02		132.217		1.157e-02		9.705
3		0.00		8.80		6.044e-02		131.761		1.164e-02		12.500
3		0.00		9.20		6.126e-02		132.251		1.359e-02		12.067
3		0.00		9.60		6.103e-02		130.138		1.592e-02		13.383
3		0.00		10.00		5.858e-02		130.066		1.697e-02		20.153
3		0.00		9.60		5.848e-02		129.478		1.604e-02		21.932
3		0.00		9.20		6.024e-02		129.526		1.558e-02		19.710
3		0.00		8.80		6.107e-02		133.730		1.467e-02		7.818
3		0.00		8.40		6.187e-02		133.079		1.208e-02		7.804
3		0.00		8.00		5.859e-02		134.725		1.128e-02		9.346
3		0.00		7.60		5.697e-02		134.239		1.137e-02		9.379
3		0.00		7.20		5.281e-02		133.437		1.168e-02		9.849
3		0.00		6.80		5.154e-02		130.534		1.360e-02		16.747
3		0.00		6.40		5.332e-02		128.987		1.436e-02		20.352
3		0.00		6.00		5.246e-02		130.613		1.475e-02		13.602
3		0.00		5.60		5.051e-02		131.679		1.323e-02		6.849
3		0.00		5.20		4.771e-02		132.458		1.013e-02		5.706
3		0.00		4.80		4.204e-02		133.293		7.744e-03		5.686
3		0.00		4.40		4.041e-02		132.450		7.013e-03		6.731
3		0.00		4.00		3.634e-02		133.151		6.590e-03		7.367
3		0.00		3.60		3.160e-02		132.098		7.233e-03		12.137
3		0.00		3.20		2.796e-02		131.450		6.988e-03		15.675
3		0.00		2.80		2.365e-02		133.861		5.779e-03		11.716
3		0.00		2.40		1.908e-02		134.434		4.527e-03		10.197
3		0.00		2.00		1.433e-02		137.142		3.199e-03		10.012
3		0.00		1.60		9.204e-03		130.552		2.192e-03		40.788
3		0.00		1.20		4.647e-03		109.949		1.781e-03		62.106
3		0.00		0.80		3.172e-03		-39.966		1.581e-03		62.899
3		0.00		0.40		6.624e-03		-61.138		2.545e-03		18.618
3		0.00		0.00		1.207e-02		-52.676		3.249e-03		10.328
3		0.00		-0.40		1.605e-02		-52.316		3.891e-03		8.185
3		0.00		-0.80		1.939e-02		-52.219		3.806e-03		9.551
3		0.00		-1.20		2.269e-02		-50.582		3.359e-03		7.725
3		0.00		-1.60		2.738e-02		-53.808		3.601e-03		8.755
3		0.00		-2.00		2.889e-02		-50.011		4.038e-03		7.482
3		0.00		-2.40		3.109e-02		-49.937		5.962e-03		7.312
3		0.00		-2.80		3.219e-02		-50.387		7.150e-03		10.535
3		0.00		-3.20		3.305e-02		-50.126		8.147e-03		13.518
3		0.00		-3.60		3.502e-02		-51.763		8.338e-03		8.213
3		0.00		-4.00		3.589e-02		-51.599		7.454e-03		7.364
3		0.00		-4.40		3.835e-02		-51.975		6.352e-03		6.602
3		0.00		-4.80		4.077e-02		-50.582		6.695e-03		7.263
3		0.00		-5.20		4.222e-02		-48.174		7.732e-03		7.473
3		0.00		-5.60		4.177e-02		-46.549		9.199e-03		9.594
3		0.00		-6.00		4.265e-02		-45.551		9.793e-03		11.214
3		0.00		-6.40		4.604e-02		-46.014		1.045e-02		7.590
3		0.00		-6.80		4.778e-02		-46.948		8.937e-03		6.527
3		0.00		-7.20		4.860e-02		-46.246		7.738e-03		6.716
3		0.00		-7.60		5.042e-02		-44.681		8.511e-03		6.348
3		0.00		-8.00		4.904e-02		-45.393		1.051e-02		9.274
3		0.00		-8.40		4.902e-02		-44.550		1.194e-02		14.555
3		0.00		-8.80		4.771e-02		-45.684		1.230e-02		12.257
3		0.00		-9.20		4.570e-02		-43.347		1.093e-02		5.120
3		0.00		-9.60		4.181e-02		-44.571		9.930e-03		6.355
3		0.00		-10.00		3.498e-02		-42.634		8.370e-03		8.414
3		0.00		-9.60		4.022e-02		-43.785		1.071e-02		10.514
3		0.00		-9.20		4.421e-02		-44.481		1.220e-02		15.595
3		0.00		-8.80		4.637e-02		-39.822		1.259e-02		16.375
3		0.00		-8.40		4.855e-02		-44.681		1.289e-02		8.946
3		0.00		-8.00		5.166e-02		-45.699		1.105e-02		6.050
3		0.00		-7.60		5.027e-02		-47.230		8.596e-03		6.689
3		0.00		-7.20		4.703e-02		-45.376		7.475e-03		7.562
3		0.00		-6.80		4.594e-02		-44.503		8.495e-03		7.148
3		0.00		-6.40		4.237e-02		-44.721		8.955e-03		9.079
3		0.00		-6.00		4.138e-02		-46.122		8.943e-03		10.988
3		0.00		-5.60		3.804e-02		-47.159		8.106e-03		7.404
3		0.00		-5.20		3.636e-02		-47.971		5.884e-03		7.100
3		0.00		-4.80		3.369e-02		-49.963		4.645e-03		6.845
3		0.00		-4.40		3.011e-02		-48.237		4.332e-03		7.391
3		0.00		-4.00		2.672e-02		-48.234		4.307e-03		8.812
3		0.00		-3.60		2.342e-02		-48.638		4.460e-03		11.107
3		0.00		-3.20		1.975e-02		-49.711		4.204e-03		9.421
3		0.00		-2.80		1.621e-02		-50.947		3.221e-03		9.447
3		0.00		-2.40		1.273e-02		-49.209		2.320e-03		9.647
3		0.00		-2.00		8.979e-03		-46.850		1.808e-03		11.841
3		0.00		-1.60		4.688e-03		-39.380		1.603e-03		25.553
3		0.00		-1.20		2.059e-03		-1.981		1.149e-03		70.607
3		0.00		-0.80		4.411e-03		113.452		1.607e-03		40.254
3		0.00		-0.40		8.613e-03		124.925		2.211e-03		11.520
4		0.00		0.00		1.392e-02		127.590		2.567e-03		8.808
4		0.00		0.40		1.887e-02		130.635		2.522e-03		7.741
4		0.00		0.80		2.389e-02		131.862		3.312e-03		7.822
4		0.00		1.20		2.827e-02		129.643		5.006e-03		9.223
4		0.00		1.60		3.183e-02		129.337		6.955e-03		11.588
4		0.00		2.00		3.638e-02		129.856		7.541e-03		9.031
4		0.00		2.40		4.135e-02		130.903		6.654e-03		6.230
4		0.00		2.80		4.602e-02		130.019		6.795e-03		6.035
4		0.00		3.20		4.704e-02		131.312		7.458e-03		6.780
4		0.00		3.60		4.864e-02		131.462		9.666e-03		9.955
4		0.00		4.00		5.083e-02		130.512		1.110e-02		14.477
4		0.00		4.40		5.329e-02		131.857		1.215e-02		7.582
4		0.00		4.80		5.578e-02		132.791		8.925e-03		5.335
4		0.00		5.20		5.715e-02		132.276		8.737e-03		7.378
4		0.00		5.60		5.809e-02		132.986		1.133e-02		9.641
4		0.00		6.00		5.881e-02		130.381		1.402e-02		19.091
4		0.00		6.40		6.067e-02		132.005		1.514e-02		18.270
4		0.00		6.80		6.135e-02		133.566		1.467e-02		7.096
4		0.00		7.20		6.302e-02		132.730		1.346e-02		12.823
4		0.00		7.60		6.095e-02		129.679		1.508e-02		15.875
4		0.00		8.00		6.251e-02		131.137		1.667e-02		13.741
4		0.00		8.40		6.225e-02		129.349		1.834e-02		23.055
4		0.00		8.80		6.023e-02		135.024		1.740e-02		15.274
4		0.00		9.20		6.747e-02		132.002		1.753e-02		10.741
4		0.00		9.60		6.191e-02		132.425		1.587e-02		17.156
4		0.00		10.00		6.042e-02		130.544		1.762e-02		17.943
4		0.00		9.60		6.051e-02		126.990		1.913e-02		31.477
4		0.00		9.20		6.165e-02		130.221		1.677e-02		29.031
4		0.00		8.80		6.474e-02		134.206		1.410e-02		9.263
4		0.00		8.40		6.333e-02		134.715		1.275e-02		11.821
4		0.00		8.00		5.951e-02		132.805		1.395e-02		14.876
4		0.00		7.60		5.961e-02		132.581		1.512e-02		13.482
4		0.00		7.20		5.876e-02		130.390		1.536e-02		18.295
4		0.00		6.80		5.867e-02		132.540		1.421e-02		6.271
4		0.00		6.40		5.683e-02		134.459		9.958e-03		5.857
4		0.00		6.00		5.313e-02		134.331		8.981e-03		7.000
4		0.00		5.60		5.030e-02		133.827		1.069e-02		9.313
4		0.00		5.20		4.950e-02		132.271		1.134e-02		14.741
4		0.00		4.80		4.667e-02		132.650		1.073e-02		8.316
4		0.00		4.40		4.429e-02		131.736		7.848e-03		5.959
4		0.00		4.00		3.919e-02		133.588		6.171e-03		6.174
4		0.00		3.60		3.458e-02		134.059		6.613e-03		7.759
4		0.00		3.20		2.898e-02		131.439		7.432e-03		13.955
4		0.00		2.80		2.444e-02		133.738		5.686e-03		8.941
4		0.00		2.40		2.038e-02		134.721		4.025e-03		7.492
4		0.00		2.00		1.565e-02		135.604		3.301e-03		10.661
4		0.00		1.60		9.582e-03		136.521		2.373e-03		28.491
4		0.00		1.20		4.054e-03		92.096		1.732e-03		79.567
4		0.00		0.80		3.565e-03		-55.443		1.889e-03		36.760
4		0.00		0.40		8.322e-03		-59.416		2.540e-03		12.827
4		0.00		0.00		1.347e-02		-52.904		2.480e-03		12.590
4		0.00		-0.40		1.762e-02		-49.501		3.145e-03		9.660
4		0.00		-0.80		2.025e-02		-48.877		4.239e-03		9.570
4		0.00		-1.20		2.359e-02		-51.308		5.131e-03		8.287
4		0.00		-1.60		2.655e-02		-51.902		4.295e-03		7.399
4		0.00		-2.00		2.978e-02		-52.486		3.886e-03		7.571
4		0.00		-2.40		3.323e-02		-50.982		4.717e-03		6.132
4		0.00		-2.80		3.360e-02		-49.865		6.392e-03		8.055
4		0.00		-3.20		3.491e-02		-49.999		7.485e-03		9.774
4		0.00		-3.60		3.729e-02		-51.852		7.223e-03		7.100
4		0.00		-4.00		4.038e-02		-51.848		6.376e-03		6.397
4		0.00		-4.40		4.230e-02		-52.702		6.720e-03		6.788
4		0.00		-4.80		4.189e-02		-49.820		8.993e-03		8.930
4		0.00		-5.20		4.272e-02		-49.909		1.084e-02		12.556
4		0.00		-5.60		4.498e-02		-48.692		1.117e-02		7.382
4		0.00		-6.00		4.565e-02		-47.620		8.608e-03		6.063
4		0.00		-6.40		4.671e-02		-47.383		7.935e-03		6.682
4		0.00		-6.80		4.801e-02		-45.530		1.002e-02		7.314
4		0.00		-7.20		4.809e-02		-46.611		1.226e-02		13.354
4		0.00		-7.60		5.029e-02		-47.045		1.310e-02		9.091
4		0.00		-8.00		5.161e-02		-45.475		1.079e-02		5.895
4		0.00		-8.40		5.072e-02		-44.016		8.694e-03		7.142
4		0.00		-8.80		4.940e-02		-42.281		1.020e-02		8.512
4		0.00		-9.20		4.553e-02		-43.661		1.138e-02		18.824
4		0.00		-9.60		4.224e-02		-45.986		1.122e-02		13.910
4		0.00		-10.00		3.777e-02		-43.625		8.154e-03		6.866
4		0.00		-9.60		4.276e-02		-43.914		8.578e-03		6.135
4		0.00		-9.20		4.705e-02		-41.296		1.021e-02		7.170
4		0.00		-8.80		4.858e-02		-43.473		1.117e-02		12.730
4		0.00		-8.40		5.047e-02		-46.133		1.212e-02		11.093
4		0.00		-8.00		5.345e-02		-45.742		1.034e-02		5.105
4		0.00		-7.60		5.271e-02		-46.079		8.467e-03		5.807
4		0.00		-7.20		5.063e-02		-44.612		8.799e-03		6.129
4		0.00		-6.80		4.682e-02		-45.384		1.067e-02		10.558
4		0.00		-6.40		4.504e-02		-47.468		1.094e-02		11.171
4		0.00		-6.00		4.405e-02		-47.044		8.091e-03		6.620
4		0.00		-5.60		4.249e-02		-47.563		5.936e-03		6.100
4		0.00		-5.20		3.917e-02		-47.357		5.841e-03		7.353
4		0.00		-4.80		3.531e-02		-48.581		7.128e-03		8.912
4		0.00		-4.40		3.187e-02		-49.929		7.163e-03		9.995
4		0.00		-4.00		2.999e-02		-50.907		4.957e-03		6.556
4		0.00		-3.60		2.699e-02		-51.127		3.683e-03		7.814
4		0.00		-3.20		2.343e-02		-50.173		3.786e-03		9.329
4		0.00		-2.80		1.906e-02		-48.947		3.735e-03		9.819
4		0.00		-2.40		1.498e-02		-49.912		2.839e-03		10.032
4		0.00		-2.00		1.084e-02		-51.216		2.015e-03		12.391
4		0.00		-1.60		6.157e-03		-50.977		1.508e-03		17.325
4		0.00		-1.20		2.219e-03		-33.033		1.046e-03		60.515
4		0.00		-0.80		4.450e-03		118.001		1.373e-03		30.707
4		0.00		-0.40		9.502e-03		128.721		1.987e-03		13.458
5		0.00		0.00		1.509e-02		130.780		2.153e-03		9.404
5		0.00		0.40		2.081e-02		129.411		2.392e-03		7.562
5		0.00		0.80		2.566e-02		131.453		3.917e-03		8.392
5		0.00		1.20		2.992e-02		131.674		5.665e-03		11.003
5		0.00		1.60		3.489e-02		129.558		6.324e-03		8.205
5		0.00		2.00		4.054e-02		130.234		5.703e-03		5.668
5		0.00		2.40		4.438e-02		130.596		6.483e-03		6.754
5		0.00		2.80		4.660e-02		130.528		1.003e-02		10.579
5		0.00		3.20		4.942e-02		130.396		1.230e-02		12.592
5		0.00		3.60		5.342e-02		131.348		1.083e-02		5.660
5		0.00		4.00		5.553e-02		130.774		9.404e-03		6.497
5		0.00		4.40		5.562e-02		132.760		1.119e-02		8.804
5		0.00		4.80		5.661e-02		131.643		1.379e-02		12.942
5		0.00		5.20		5.791e-02		131.580		1.529e-02		10.826
5		0.00		5.60		6.387e-02		132.075		1.204e-02		5.753
5		0.00		6.00		6.047e-02		132.317		1.228e-02		13.194
5		0.00		6.40		6.213e-02		132.451		1.442e-02		15.199
5		0.00		6.80		6.194e-02		132.416		1.539e-02		20.818
5		0.00		7.20		6.237e-02		135.520		1.549e-02		10.586
5		0.00		7.60		6.713e-02		134.981		1.416e-02		14.063
5		0.00		8.00		6.536e-02		134.923		1.446e-02		14.904
5		0.00		8.40		6.688e-02		132.168		1.790e-02		29.930
5		0.00		8.80		6.463e-02		134.913		1.742e-02		27.672
5		0.00		9.20		6.636e-02		135.230		1.672e-02		13.271
5		0.00		9.60		6.684e-02		132.821		1.533e-02		26.880
5		0.00		10.00		6.488e-02		134.426		1.626e-02		15.907
5		0.00		9.60		6.370e-02		134.038		1.663e-02		30.102
5		0.00		9.20		6.128e-02		135.659		1.714e-02		26.807
5		0.00		8.80		6.221e-02		136.877		1.589e-02		11.128
5		0.00		8.40		6.519e-02		136.105		1.281e-02		10.878
5		0.00		8.00		5.863e-02		132.491		1.401e-02		15.162
5		0.00		7.60		6.052e-02		134.777		1.576e-02		12.738
5		0.00		7.20		5.854e-02		132.146		1.625e-02		16.021
5		0.00		6.80		5.795e-02		135.065		1.377e-02		6.228
5		0.00		6.40		5.877e-02		133.719		1.051e-02		5.691
5		0.00		6.00		5.442e-02		134.240		9.530e-03		5.960
5		0.00		5.60		5.125e-02		133.320		1.192e-02		10.809
5		0.00		5.20		4.899e-02		132.082		1.148e-02		16.146
5		0.00		4.80		4.613e-02		133.073		9.329e-03		6.246
5		0.00		4.40		4.358e-02		133.090		6.618e-03		5.849
5		0.00		4.00		3.842e-02		134.605		6.054e-03		5.431
5		0.00		3.60		3.322e-02		133.400		6.871e-03		8.514
5		0.00		3.20		2.830e-02		133.936		6.367e-03		9.879
5		0.00		2.80		2.367e-02		133.442		4.585e-03		7.020
5		0.00		2.40		1.854e-02		136.102		3.338e-03		7.476
5		0.00		2.00		1.286e-02		135.457		2.821e-03		15.598
5		0.00		1.60		7.006e-03		129.982		1.984e-03		38.386
5		0.00		1.20		2.829e-03		20.892		1.401e-03		87.607
5		0.00		0.80		5.795e-03		-61.053		2.059e-03		20.572
5		0.00		0.40		1.165e-02		-52.509		2.091e-03		14.361
5		0.00		0.00		1.639e-02		-51.624		3.319e-03		10.413
5		0.00		-0.40		2.042e-02		-50.278		4.983e-03		10.470
5		0.00		-0.80		2.507e-02		-53.770		4.929e-03		7.931
5		0.00		-1.20		2.895e-02		-52.771		4.361e-03		8.066
5		0.00		-1.60		3.112e-02		-51.912		4.839e-03		7.149
5		0.00		-2.00		3.216e-02		-51.155		7.105e-03		9.091
5		0.00		-2.40		3.271e-02		-51.788		7.613e-03		7.801
5		0.00		-2.80		3.605e-02		-52.177		6.108e-03		7.019
5		0.00		-3.20		3.864e-02		-51.950		5.464e-03		6.400
5		0.00		-3.60		3.910e-02		-50.665		7.088e-03		8.043
5		0.00		-4.00		4.003e-02		-50.797		8.648e-03		9.017
5		0.00		-4.40		4.313e-02		-50.739		7.888e-03		4.984
5		0.00		-4.80		4.444e-02		-50.440		6.168e-03		5.741
5		0.00		-5.20		4.514e-02		-47.196		8.048e-03		6.921
5		0.00		-5.60		4.609e-02		-45.692		9.921e-03		9.800
5		0.00		-6.00		4.805e-02		-48.303		1.069e-02		8.375
5		0.00		-6.40		5.105e-02		-46.325		7.932e-03		5.596
5		0.00		-6.80		5.113e-02		-45.252		8.284e-03		5.516
5		0.00		-7.20		5.057e-02		-44.343		1.109e-02		10.872
5		0.00		-7.60		5.216e-02		-45.557		1.221e-02		9.794
5		0.00		-8.00		5.478e-02		-45.286		1.077e-02		5.436
5		0.00		-8.40		5.213e-02		-44.371		8.724e-03		7.089
5		0.00		-8.80		5.014e-02		-42.122		1.178e-02		8.211
5		0.00		-9.20		4.802e-02		-42.747		1.302e-02		18.345
5		0.00		-9.60		4.354e-02		-44.850		1.199e-02		7.914
5		0.00		-10.00		3.793e-02		-43.027		8.202e-03		6.826
5		0.00		-9.60		4.309e-02		-42.713		1.000e-02		7.921
5		0.00		-9.20		4.824e-02		-43.374		1.275e-02		15.906
5		0.00		-8.80		5.034e-02		-44.925		1.338e-02		13.705
5		0.00		-8.40		5.505e-02		-44.812		1.094e-02		5.760
5		0.00		-8.00		5.450e-02		-45.310		8.980e-03		5.591
5		0.00		-7.60		5.306e-02		-45.166		1.037e-02		6.598
5		0.00		-7.20		5.063e-02		-44.669		1.080e-02		9.897
5		0.00		-6.80		5.016e-02		-45.860		1.020e-02		6.769
5		0.00		-6.40		4.802e-02		-46.440		6.529e-03		5.399
5		0.00		-6.00		4.558e-02		-46.765		6.372e-03		6.662
5		0.00		-5.60		4.205e-02		-45.322		7.492e-03		7.880
5		0.00		-5.20		3.844e-02		-48.183		8.329e-03		8.656
5		0.00		-4.80		3.585e-02		-48.383		5.821e-03		6.756
5		0.00		-4.40		3.254e-02		-51.463		3.796e-03		7.320
5		0.00		-4.00		2.828e-02		-49.062		3.935e-03		6.754
5		0.00		-3.60		2.448e-02		-48.934		4.295e-03		9.719
5		0.00		-3.20		2.122e-02		-49.602		4.258e-03		9.948
5		0.00		-2.80		1.745e-02		-48.826		2.757e-03		8.468
5		0.00		-2.40		1.322e-02		-49.085		2.066e-03		9.976
5		0.00		-2.00		8.633e-03		-47.172		1.845e-03		15.389
5		0.00		-1.60		4.750e-03		-52.931		1.750e-03		23.394
5		0.00		-1.20		2.120e-03		25.962		8.178e-04		71.069
5		0.00		-0.80		5.702e-03		115.581		1.836e-03		26.701
5		0.00		-0.40		1.085e-02		127.558		2.003e-03		11.224
6		0.00		0.00		1.611e-02		129.461		2.919e-03		9.922
6		0.00		0.40		2.046e-02		129.260		4.585e-03		13.485
6		0.00		0.80		2.577e-02		130.085		5.624e-03		9.459
6		0.00		1.20		3.181e-02		130.517		4.541e-03		6.966
6		0.00		1.60		3.680e-02		130.515		4.836e-03		6.488
6		0.00		2.00		4.082e-02		131.186		5.887e-03		7.040
6		0.00		2.40		4.472e-02		131.403		8.946e-03		11.292
6		0.00		2.80		4.829e-02		131.425		1.041e-02		8.704
6		0.00		3.20		5.337e-02		130.777		8.037e-03		5.181
6		0.00		3.60		5.489e-02		132.537		7.680e-03		5.467
6		0.00		4.00		5.632e-02		132.886		1.018e-02		6.559
6		0.00		4.40		5.699e-02		132.136		1.286e-02		10.088
6		0.00		4.80		5.896e-02		132.002		1.392e-02		8.954
6		0.00		5.20		6.150e-02		132.397		1.150e-02		6.984
6		0.00		5.60		6.177e-02		133.560		1.186e-02		10.163
6		0.00		6.00		6.045e-02		134.055		1.395e-02		14.583
6		0.00		6.40		5.986e-02		133.566		1.597e-02		20.596
6		0.00		6.80		6.078e-02		134.749		1.538e-02		13.389
6		0.00		7.20		6.586e-02		133.845		1.325e-02		10.181
6		0.00		7.60		6.635e-02		135.758		1.414e-02		11.944
6		0.00		8.00		6.396e-02		132.107		1.799e-02		21.511
6		0.00		8.40		6.316e-02		136.748		1.823e-02		21.390
6		0.00		8.80		6.718e-02		134.338		1.649e-02		18.134
6		0.00		9.20		6.846e-02		136.568		1.454e-02		11.192
6		0.00		9.60		6.781e-02		131.830		1.928e-02		14.360
6		0.00		10.00		6.261e-02		134.066		1.896e-02		26.823
6		0.00		9.60		6.444e-02		135.827		1.785e-02		14.683
6		0.00		9.20		6.921e-02		136.037		1.434e-02		18.964
6		0.00		8.80		6.604e-02		134.911		1.537e-02		14.071
6		0.00		8.40		6.440e-02		136.540		1.529e-02		16.596
6		0.00		8.00		5.948e-02		137.281		1.514e-02		19.719
6		0.00		7.60		6.219e-02		137.514		1.255e-02		10.225
6		0.00		7.20		6.101e-02		134.671		1.050e-02		9.057
6		0.00		6.80		6.094e-02		135.059		1.288e-02		10.396
6		0.00		6.40		5.773e-02		133.101		1.329e-02		14.070
6		0.00		6.00		5.865e-02		134.648		1.304e-02		8.549
6		0.00		5.60		5.690e-02		133.281		9.697e-03		7.512
6		0.00		5.20		5.354e-02		134.094		9.049e-03		7.040
6		0.00		4.80		4.915e-02		132.599		1.097e-02		10.474
6		0.00		4.40		4.501e-02		132.067		1.110e-02		8.630
6		0.00		4.00		4.170e-02		132.857		7.005e-03		5.269
6		0.00		3.60		3.690e-02		134.786		5.901e-03		5.254
6		0.00		3.20		3.142e-02		134.630		6.425e-03		9.923
6		0.00		2.80		2.673e-02		132.016		6.174e-03		11.108
6		0.00		2.40		2.204e-02		135.646		4.441e-03		7.702
6		0.00		2.00		1.640e-02		134.381		2.997e-03		8.725
6		0.00		1.60		1.001e-02		139.223		2.522e-03		18.398
6		0.00		1.20		4.263e-03		97.097		1.601e-03		68.021
6		0.00		0.80		3.720e-03		-74.424		1.648e-03		34.991
6		0.00		0.40		1.006e-02		-59.255		1.973e-03		11.948
6		0.00		0.00		1.599e-02		-51.078		2.705e-03		9.402
6		0.00		-0.40		1.983e-02		-50.246		3.706e-03		9.568
6		0.00		-0.80		2.357e-02		-52.082		3.963e-03		9.294
6		0.00		-1.20		2.824e-02		-51.908		3.266e-03		6.872
6		0.00		-1.60		3.034e-02		-50.758		4.111e-03		7.442
6		0.00		-2.00		3.199e-02		-50.210		5.500e-03		8.105
6		0.00		-2.40		3.438e-02		-50.770		6.292e-03		6.785
6		0.00		-2.80		3.754e-02		-52.079		4.591e-03		5.764
6		0.00		-3.20		3.948e-02		-50.498		5.271e-03		6.434
6		0.00		-3.60		4.081e-02		-49.555		6.995e-03		7.856
6		0.00		-4.00		4.129e-02		-52.274		8.562e-03		7.386
6		0.00		-4.40		4.434e-02		-51.550		7.206e-03		6.183
6		0.00		-4.80		4.692e-02		-49.866		6.611e-03		6.350
6		0.00		-5.20		4.838e-02		-47.971		9.263e-03		8.083
6		0.00		-5.60		4.950e-02		-47.676		1.173e-02		9.155
6		0.00		-6.00		5.277e-02		-47.251		1.086e-02		6.287
6		0.00		-6.40		5.533e-02		-47.338		8.047e-03		5.010
6		0.00		-6.80		5.533e-02		-44.959		9.979e-03		5.811
6		0.00		-7.20		5.316e-02		-45.672		1.255e-02		10.761
6		0.00		-7.60		5.567e-02		-46.331		1.393e-02		7.796
6		0.00		-8.00		5.813e-02		-45.538		9.790e-03		6.009
6		0.00		-8.40		5.621e-02		-43.338		1.049e-02		8.518
6		0.00		-8.80		5.390e-02		-42.469		1.295e-02		14.495
6		0.00		-9.20		5.178e-02		-42.358		1.320e-02		8.991
6		0.00		-9.60		4.769e-02		-43.852		1.056e-02		4.913
6		0.00		-10.00		4.004e-02		-41.571		8.262e-03		6.422
6		0.00		-9.60		4.402e-02		-43.846		1.126e-02		11.877
6		0.00		-9.20		4.950e-02		-40.990		1.284e-02		15.675
6		0.00		-8.80		5.260e-02		-43.453		1.091e-02		5.713
6		0.00		-8.40		5.424e-02		-42.891		9.599e-03		6.384
6		0.00		-8.00		5.420e-02		-44.858		1.179e-02		10.185
6		0.00		-7.60		5.394e-02		-46.434		1.284e-02		14.374
6		0.00		-7.20		5.340e-02		-46.233		9.890e-03		5.179
6		0.00		-6.80		5.057e-02		-45.829		7.961e-03		5.122
6		0.00		-6.40		4.757e-02		-45.625		1.052e-02		7.264
6		0.00		-6.00		4.463e-02		-47.054		1.121e-02		11.177
6		0.00		-5.60		4.328e-02		-48.386		9.191e-03		6.340
6		0.00		-5.20		4.124e-02		-48.219		6.367e-03		6.545
6		0.00		-4.80		3.762e-02		-49.506		7.008e-03		8.394
6		0.00		-4.40		3.280e-02		-49.663		7.711e-03		12.182
6		0.00		-4.00		2.958e-02		-50.191		6.220e-03		6.998
6		0.00		-3.60		2.575e-02		-51.381		4.165e-03		8.182
6		0.00		-3.20		2.204e-02		-48.113		3.936e-03		8.263
6		0.00		-2.80		1.815e-02		-45.985		4.262e-03		11.231
6		0.00		-2.40		1.434e-02		-52.393		2.853e-03		9.323
6		0.00		-2.00		1.053e-02		-53.286		2.199e-03		14.922
6		0.00		-1.60		6.546e-03		-50.957		1.840e-03		16.229
6		0.00		-1.20		2.444e-03		-29.505		1.400e-03		63.716
6		0.00		-0.80		4.424e-03		110.378		1.600e-03		46.017
6		0.00		-0.40		9.850e-03		128.073		1.993e-03		14.523
7		0.00		0.00		1.477e-02		131.916		2.449e-03		9.154
7		0.00		0.40		1.983e-02		130.658		3.956e-03		11.326
7		0.00		0.80		2.454e-02		129.462		4.446e-03		9.413
7		0.00		1.20		3.012e-02		132.242		4.105e-03		6.402
7		0.00		1.60		3.440e-02		132.812		5.232e-03		7.491
7		0.00		2.00		3.760e-02		131.371		7.722e-03		12.152
7		0.00		2.40		4.155e-02		131.501		8.145e-03		7.639
7		0.00		2.80		4.494e-02		132.228		6.270e-03		4.715
7		0.00		3.20		4.567e-02		132.805		8.038e-03		7.049
7		0.00		3.60		4.479e-02		132.354		1.073e-02		12.255
7		0.00		4.00		4.889e-02		132.581		1.025e-02		6.238
7		0.00		4.40		5.336e-02		133.415		8.206e-03		4.836
7		0.00		4.80		5.240e-02		135.127		9.234e-03		6.885
7		0.00		5.20		5.322e-02		131.416		1.291e-02		20.385
7		0.00		5.60		5.690e-02		134.116		1.410e-02		8.397
7		0.00		6.00		6.018e-02		133.253		9.929e-03		6.445
7		0.00		6.40		5.902e-02		134.468		1.278e-02		11.354
7		0.00		6.80		6.243e-02		134.177		1.558e-02		19.382
7		0.00		7.20		6.199e-02		138.188		1.520e-02		11.358
7		0.00		7.60		6.895e-02		136.195		1.463e-02		14.673
7		0.00		8.00		6.793e-02		137.863		1.401e-02		14.080
7		0.00		8.40		6.490e-02		134.843		1.676e-02		25.053
7		0.00		8.80		6.576e-02		134.948		1.776e-02		22.044
7		0.00		9.20		7.034e-02		133.997		1.598e-02		25.190
7		0.00		9.60		6.841e-02		136.043		1.650e-02		23.696
7		0.00		10.00		6.404e-02		132.635		1.812e-02		29.815
7		0.00		9.60		6.402e-02		131.289		1.759e-02		28.984
7		0.00		9.20		6.471e-02		140.305		1.318e-02		24.414
7		0.00		8.80		6.799e-02		133.614		1.802e-02		17.296
7		0.00		8.40		6.086e-02		135.769		1.759e-02		24.733
7		0.00		8.00		5.945e-02		139.911		1.584e-02		18.310
7		0.00		7.60		6.542e-02		134.402		1.454e-02		10.644
7		0.00		7.20		5.658e-02		132.350		1.364e-02		17.889
7		0.00		6.80		5.843e-02		131.455		1.537e-02		14.183
7		0.00		6.40		5.806e-02		131.123		1.552e-02		15.811
7		0.00		6.00		5.757e-02		133.191		1.363e-02		6.414
7		0.00		5.60		5.395e-02		133.610		1.021e-02		7.913
7		0.00		5.20		5.101e-02		133.400		1.023e-02		8.143
7		0.00		4.80		4.743e-02		133.203		1.115e-02		14.717
7		0.00		4.40		4.412e-02		133.775		1.044e-02		10.285
7		0.00		4.00		4.080e-02		133.319		6.225e-03		5.110
7		0.00		3.60		3.662e-02		132.977		5.134e-03		5.786
7		0.00		3.20		3.041e-02		135.793		5.178e-03		6.932
7		0.00		2.80		2.497e-02		135.787		5.136e-03		10.278
7		0.00		2.40		1.906e-02		135.056		4.153e-03		9.153
7		0.00		2.00		1.402e-02		137.376		2.641e-03		9.085
7		0.00		1.60		7.737e-03		136.626		2.097e-03		23.569
7		0.00		1.20		3.061e-03		36.148		1.288e-03		88.715
7		0.00		0.80		4.667e-03		-62.477		2.002e-03		36.288
7		0.00		0.40		1.080e-02		-58.242		1.960e-03		12.193
7		0.00		0.00		1.648e-02		-54.810		2.649e-03		9.074
7		0.00		-0.40		2.047e-02		-53.000		3.586e-03		8.818
7		0.00		-0.80		2.371e-02		-51.471		5.152e-03		8.378
7		0.00		-1.20		2.675e-02		-53.049		5.296e-03		7.586
7		0.00		-1.60		3.094e-02		-51.605		4.329e-03		7.326
7		0.00		-2.00		3.313e-02		-52.582		4.544e-03		7.020
7		0.00		-2.40		3.440e-02		-50.397		6.117e-03		7.280
7		0.00		-2.80		3.645e-02		-50.688		7.880e-03		8.836
7		0.00		-3.20		3.906e-02		-51.595		8.158e-03		7.382
7		0.00		-3.60		4.231e-02		-52.025		6.106e-03		5.782
7		0.00		-4.00		4.390e-02		-51.249		6.222e-03		6.980
7		0.00		-4.40		4.373e-02		-50.431		7.981e-03		7.548
7		0.00		-4.80		4.555e-02		-48.639		9.989e-03		8.949
7		0.00		-5.20		4.758e-02		-48.460		1.065e-02		8.349
7		0.00		-5.60		4.968e-02		-47.552		8.683e-03		4.781
7		0.00		-6.00		5.218e-02		-47.363		8.118e-03		5.458
7		0.00		-6.40		5.171e-02		-45.324		9.732e-03		5.921
7		0.00		-6.80		5.154e-02		-46.272		1.199e-02		11.434
7		0.00		-7.20		5.384e-02		-46.917		1.251e-02		10.750
7		0.00		-7.60		5.587e-02		-45.872		1.125e-02		6.525
7		0.00		-8.00		5.660e-02		-43.605		9.297e-03		7.064
7		0.00		-8.40		5.453e-02		-43.408		1.122e-02		8.416
7		0.00		-8.80		5.096e-02		-43.610		1.292e-02		16.559
7		0.00		-9.20		4.768e-02		-40.047		1.377e-02		19.579
7		0.00		-9.60		4.469e-02		-42.570		1.240e-02		9.723
7		0.00		-10.00		3.925e-02		-42.041		8.815e-03		6.552
7		0.00		-9.60		4.416e-02		-43.461		1.069e-02		6.332
7		0.00		-9.20		4.730e-02		-42.978		1.302e-02		12.029
7		0.00		-8.80		5.011e-02		-44.980		1.334e-02		18.665
7		0.00		-8.40		5.315e-02		-44.626		1.437e-02		12.002
7		0.00		-8.00		5.531e-02		-44.841		1.132e-02		5.966
7		0.00		-7.60		5.503e-02		-46.154		9.806e-03		7.026
7		0.00		-7.20		5.178e-02		-43.786		9.600e-03		6.584
7		0.00		-6.80		4.916e-02		-44.688		9.941e-03		10.142
7		0.00		-6.40		4.803e-02		-45.771		1.046e-02		11.746
7		0.00		-6.00		4.544e-02		-46.314		9.369e-03		8.065
7		0.00		-5.60		4.428e-02		-47.768		6.330e-03		5.339
7		0.00		-5.20		4.073e-02		-47.518		5.597e-03		6.150
7		0.00		-4.80		3.655e-02		-48.347		5.668e-03		6.806
7		0.00		-4.40		3.238e-02		-47.459		6.401e-03		8.370
7		0.00		-4.00		2.877e-02		-52.444		6.009e-03		8.008
7		0.00		-3.60		2.568e-02		-49.811		4.738e-03		7.726
7		0.00		-3.20		2.146e-02		-48.135		3.052e-03		7.811
7		0.00		-2.80		1.776e-02		-48.919		2.554e-03		8.377
7		0.00		-2.40		1.301e-02		-46.232		2.536e-03		12.030
7		0.00		-2.00		8.220e-03		-47.808		2.212e-03		14.300
7		0.00		-1.60		3.014e-03		-57.823		1.238e-03		39.624
7		0.00		-1.20		2.769e-03		80.651		1.135e-03		58.183
7		0.00		-0.80		7.320e-03		125.144		1.780e-03		22.127
7		0.00		-0.40		1.234e-02		125.824		2.524e-03		11.287
8		0.00		0.00		1.746e-02		131.168		3.555e-03		10.493
8		0.00		0.40		2.196e-02		127.579		4.815e-03		11.538
8		0.00		0.80		2.788e-02		130.298		5.423e-03		9.012
8		0.00		1.20		3.398e-02		131.057		4.869e-03		5.722
8		0.00		1.60		3.882e-02		131.425		5.461e-03		6.564
8		0.00		2.00		4.264e-02		132.274		7.579e-03		7.313
8		0.00		2.40		4.684e-02		131.900		9.570e-03		11.217
8		0.00		2.80		5.091e-02		131.590		1.096e-02		9.125
8		0.00		3.20		5.545e-02		131.768		9.327e-03		5.320
8		0.00		3.60		5.768e-02		131.924		8.540e-03		6.180
8		0.00		4.00		5.820e-02		133.199		1.022e-02		8.837
8		0.00		4.40		5.914e-02		132.720		1.265e-02		13.071
8		0.00		4.80		6.017e-02		132.408		1.380e-02		16.360
8		0.00		5.20		6.018e-02		133.788		1.426e-02		22.872
8		0.00		5.60		6.491e-02		134.086		1.263e-02		10.036
8		0.00		6.00		6.395e-02		134.185		1.206e-02		11.047
8		0.00		6.40		6.350e-02		134.059		1.673e-02		17.731
8		0.00		6.80		6.247e-02		130.567		1.908e-02		26.278
8		0.00		7.20		5.967e-02		138.464		1.677e-02		17.569
8		0.00		7.60		6.576e-02		137.049		1.547e-02		21.852
8		0.00		8.00		6.713e-02		141.065		1.600e-02		15.338
8		0.00		8.40		7.020e-02		133.815		1.804e-02		24.669
8		0.00		8.80		6.312e-02		128.917		1.893e-02		42.211
8		0.00		9.20		6.340e-02		124.128		1.988e-02		41.822
8		0.00		9.60		6.456e-02		131.522		1.887e-02		22.652
8		0.00		10.00		6.683e-02		134.434		1.643e-02		18.257
8		0.00		9.60		6.637e-02		132.237		1.690e-02		17.636
8		0.00		9.20		6.689e-02		125.490		1.756e-02		36.739
8		0.00		8.80		6.408e-02		132.078		1.736e-02		29.835
8		0.00		8.40		6.159e-02		133.784		1.617e-02		36.549
8		0.00		8.00		6.546e-02		136.674		1.323e-02		19.532
8		0.00		7.60		6.394e-02		136.738		1.309e-02		11.966
8		0.00		7.20		6.308e-02		135.591		1.407e-02		11.247
8		0.00		6.80		6.032e-02		133.266		1.509e-02		21.301
8		0.00		6.40		5.874e-02		132.886		1.515e-02		17.308
8		0.00		6.00		5.828e-02		133.627		1.212e-02		6.784
8		0.00		5.60		5.526e-02		133.761		8.949e-03		6.512
8		0.00		5.20		5.147e-02		134.600		8.491e-03		6.279
8		0.00		4.80		4.689e-02		134.275		1.032e-02		8.023
8		0.00		4.40		4.272e-02		131.783		1.028e-02		13.398
8		0.00		4.00		3.886e-02		132.963		9.080e-03		8.737
8		0.00		3.60		3.385e-02		134.828		5.597e-03		5.337
8		0.00		3.20		2.915e-02		134.812		4.705e-03		6.292
8		0.00		2.80		2.387e-02		136.334		4.551e-03		6.846
8		0.00		2.40		1.735e-02		135.653		4.072e-03		14.785
8		0.00		2.00		1.201e-02		139.078		3.170e-03		12.301
8		0.00		1.60		5.951e-03		125.738		1.880e-03		60.504
8		0.00		1.20		2.749e-03		-63.890		1.416e-03		61.010
8		0.00		0.80		7.697e-03		-62.901		2.292e-03		15.636
8		0.00		0.40		1.274e-02		-53.935		2.822e-03		11.835
8		0.00		0.00		1.919e-02		-52.320		4.066e-03		10.996
8		0.00		-0.40		2.479e-02		-52.932		3.923e-03		6.887
8		0.00		-0.80		2.939e-02		-51.922		3.478e-03		7.256
8		0.00		-1.20		3.246e-02		-52.338		4.847e-03		6.356
8		0.00		-1.60		3.388e-02		-51.412		6.416e-03		8.431
8		0.00		-2.00		3.592e-02		-51.859		7.699e-03		8.592
8		0.00		-2.40		3.952e-02		-51.568		6.444e-03		6.952
8		0.00		-2.80		4.259e-02		-52.182		5.410e-03		5.603
8		0.00		-3.20		4.365e-02		-51.854		6.456e-03		6.652
8		0.00		-3.60		4.571e-02		-50.874		8.875e-03		9.330
8		0.00		-4.00		4.579e-02		-51.672		1.082e-02		9.516
8		0.00		-4.40		4.907e-02		-51.873		9.458e-03		5.663
8		0.00		-4.80		4.916e-02		-50.439		7.739e-03		5.625
8		0.00		-5.20		5.033e-02		-47.367		9.684e-03		6.592
8		0.00		-5.60		5.001e-02		-47.391		1.178e-02		10.860
8		0.00		-6.00		5.173e-02		-47.826		1.307e-02		10.949
8		0.00		-6.40		5.292e-02		-47.086		1.132e-02		4.541
8		0.00		-6.80		5.476e-02		-46.390		9.306e-03		6.343
8		0.00		-7.20		5.470e-02		-45.499		1.074e-02		7.491
8		0.00		-7.60		5.404e-02		-45.742		1.296e-02		12.663
8		0.00		-8.00		5.510e-02		-46.278		1.332e-02		15.113
8		0.00		-8.40		5.621e-02		-44.194		1.183e-02		7.047
8		0.00		-8.80		5.435e-02		-42.101		9.266e-03		6.439
8		0.00		-9.20		5.072e-02		-41.018		1.051e-02		7.391
8		0.00		-9.60		4.611e-02		-43.866		1.159e-02		10.904
8		0.00		-10.00		4.016e-02		-44.100		1.021e-02		16.388
8		0.00		-9.60		4.708e-02		-43.700		1.155e-02		5.477
8		0.00		-9.20		5.290e-02		-41.874		1.060e-02		4.920
8		0.00		-8.80		5.326e-02		-42.391		1.012e-02		7.254
8		0.00		-8.40		5.423e-02		-43.993		1.219e-02		11.890
8		0.00		-8.00		5.703e-02		-45.601		1.359e-02		16.376
8		0.00		-7.60		5.564e-02		-45.522		1.281e-02		7.486
8		0.00		-7.20		5.517e-02		-45.699		9.195e-03		5.302
8		0.00		-6.80		5.284e-02		-45.909		7.333e-03		5.764
8		0.00		-6.40		4.999e-02		-45.887		8.490e-03		6.344
8		0.00		-6.00		4.640e-02		-46.187		1.032e-02		7.331
8		0.00		-5.60		4.266e-02		-47.146		1.008e-02		9.018
8		0.00		-5.20		4.123e-02		-47.950		7.382e-03		5.260
8		0.00		-4.80		3.807e-02		-48.468		5.182e-03		5.927
8		0.00		-4.40		3.415e-02		-49.134		4.988e-03		6.056
8		0.00		-4.00		3.000e-02		-47.520		5.840e-03		8.025
8		0.00		-3.60		2.570e-02		-51.086		5.682e-03		9.613
8		0.00		-3.20		2.212e-02		-50.118		3.769e-03		7.945
8		0.00		-2.80		1.866e-02		-48.458		2.511e-03		9.404
8		0.00		-2.40		1.445e-02		-48.008		2.291e-03		9.336
8		0.00		-2.00		9.707e-03		-45.683		2.280e-03		14.894
8		0.00		-1.60		4.584e-03		-44.884		1.528e-03		22.915
8		0.00		-1.20		1.981e-03		17.706		8.875e-04		78.633
8		0.00		-0.80		5.937e-03		123.594		1.554e-03		23.383
8		0.00		-0.40		1.135e-02		131.712		2.035e-03		8.609
