# Date of analysis: 2023-11-20 16;15
# 
# Loop index	Read Volt (V)	Write Volt (V)	Amplitude (a.u)	Phase (deg)	Sigma Amp (a.u)	Sigma Pha (deg)	
1		0.00		0.00		2.353e-02		-44.959		1.054e-02		38.294
1		0.00		0.40		2.238e-02		-49.322		5.008e-03		13.621
1		0.00		0.80		1.657e-02		-51.113		4.331e-03		13.368
1		0.00		1.20		1.121e-02		-52.549		2.968e-03		13.398
1		0.00		1.60		6.068e-03		-54.271		1.920e-03		16.345
1		0.00		2.00		2.027e-03		-10.469		9.084e-04		58.927
1		0.00		2.40		4.402e-03		114.042		1.624e-03		34.794
1		0.00		2.80		9.011e-03		120.281		2.866e-03		23.654
1		0.00		3.20		1.369e-02		123.594		4.166e-03		21.559
1		0.00		3.60		1.793e-02		124.824		5.528e-03		19.028
1		0.00		4.00		2.227e-02		127.058		6.616e-03		16.362
1		0.00		4.40		2.570e-02		127.351		7.532e-03		18.880
1		0.00		4.80		3.007e-02		126.110		9.072e-03		15.301
1		0.00		5.20		3.317e-02		127.786		1.020e-02		13.107
1		0.00		5.60		3.657e-02		126.135		1.129e-02		16.826
1		0.00		6.00		3.987e-02		127.873		1.221e-02		11.900
1		0.00		6.40		4.313e-02		128.526		1.358e-02		14.507
1		0.00		6.80		4.567e-02		126.997		1.449e-02		14.187
1		0.00		7.20		4.770e-02		128.037		1.495e-02		14.865
1		0.00		7.60		4.981e-02		126.986		1.576e-02		18.210
1		0.00		8.00		5.256e-02		127.941		1.674e-02		18.612
1		0.00		8.40		5.266e-02		129.321		1.601e-02		17.866
1		0.00		8.80		5.476e-02		125.853		1.736e-02		21.395
1		0.00		9.20		5.251e-02		124.422		1.776e-02		29.856
1		0.00		9.60		5.161e-02		122.460		1.898e-02		29.795
1		0.00		10.00		4.896e-02		124.024		1.927e-02		33.981
1		0.00		9.60		4.799e-02		122.340		1.828e-02		31.089
1		0.00		9.20		4.739e-02		121.244		1.768e-02		33.860
1		0.00		8.80		4.454e-02		122.595		1.608e-02		30.592
1		0.00		8.40		4.137e-02		123.995		1.450e-02		29.132
1		0.00		8.00		3.965e-02		124.443		1.359e-02		26.434
1		0.00		7.60		3.665e-02		123.279		1.233e-02		26.026
1		0.00		7.20		3.395e-02		123.694		1.105e-02		25.551
1		0.00		6.80		3.136e-02		125.844		9.680e-03		23.388
1		0.00		6.40		2.854e-02		126.652		8.539e-03		20.704
1		0.00		6.00		2.539e-02		126.040		7.254e-03		20.320
1		0.00		5.60		2.221e-02		126.496		6.104e-03		18.320
1		0.00		5.20		1.903e-02		126.925		5.358e-03		21.646
1		0.00		4.80		1.575e-02		124.421		4.195e-03		18.012
1		0.00		4.40		1.203e-02		125.748		3.070e-03		16.370
1		0.00		4.00		8.015e-03		126.506		2.142e-03		19.884
1		0.00		3.60		4.166e-03		116.018		1.303e-03		27.154
1		0.00		3.20		2.016e-03		9.928		9.130e-04		56.727
1		0.00		2.80		5.378e-03		-47.106		1.997e-03		20.440
1		0.00		2.40		9.764e-03		-52.324		3.051e-03		14.721
1		0.00		2.00		1.462e-02		-48.924		4.289e-03		13.069
1		0.00		1.60		1.885e-02		-53.826		5.434e-03		13.740
1		0.00		1.20		2.405e-02		-50.795		6.622e-03		12.079
1		0.00		0.80		2.836e-02		-51.391		7.851e-03		14.684
1		0.00		0.40		3.304e-02		-50.848		9.190e-03		12.667
1		0.00		0.00		3.687e-02		-50.723		9.941e-03		13.162
1		0.00		-0.40		4.094e-02		-51.707		1.126e-02		14.954
1		0.00		-0.80		4.506e-02		-51.879		1.176e-02		13.992
1		0.00		-1.20		4.807e-02		-51.907		1.265e-02		13.272
1		0.00		-1.60		5.128e-02		-52.412		1.364e-02		13.447
1		0.00		-2.00		5.163e-02		-51.827		1.442e-02		14.516
1		0.00		-2.40		5.300e-02		-49.975		1.495e-02		9.063
1		0.00		-2.80		5.584e-02		-52.778		1.631e-02		13.493
1		0.00		-3.20		5.501e-02		-51.527		1.566e-02		15.188
1		0.00		-3.60		5.827e-02		-51.888		1.703e-02		13.157
1		0.00		-4.00		5.748e-02		-52.258		1.697e-02		12.487
1		0.00		-4.40		5.726e-02		-49.804		1.773e-02		12.089
1		0.00		-4.80		5.504e-02		-48.308		1.792e-02		13.960
1		0.00		-5.20		5.663e-02		-50.553		1.925e-02		15.459
1		0.00		-5.60		5.594e-02		-52.117		1.901e-02		13.938
1		0.00		-6.00		5.587e-02		-49.705		1.874e-02		11.320
1		0.00		-6.40		5.536e-02		-48.608		1.843e-02		8.838
1		0.00		-6.80		5.590e-02		-49.110		1.771e-02		8.006
1		0.00		-7.20		5.560e-02		-47.241		1.668e-02		7.707
1		0.00		-7.60		5.629e-02		-47.990		1.653e-02		8.717
1		0.00		-8.00		5.681e-02		-48.016		1.629e-02		9.513
1		0.00		-8.40		5.614e-02		-46.287		1.497e-02		9.596
1		0.00		-8.80		5.527e-02		-45.141		1.437e-02		8.024
1		0.00		-9.20		5.003e-02		-43.983		1.353e-02		9.507
1		0.00		-9.60		4.598e-02		-46.138		1.273e-02		9.057
1		0.00		-10.00		3.940e-02		-44.438		1.063e-02		10.631
1		0.00		-9.60		4.363e-02		-45.048		1.185e-02		10.031
1		0.00		-9.20		4.710e-02		-44.183		1.228e-02		11.090
1		0.00		-8.80		4.792e-02		-45.117		1.315e-02		13.553
1		0.00		-8.40		5.026e-02		-48.688		1.420e-02		14.818
1		0.00		-8.00		5.009e-02		-48.248		1.400e-02		13.606
1		0.00		-7.60		4.934e-02		-49.483		1.468e-02		13.835
1		0.00		-7.20		4.698e-02		-49.886		1.436e-02		13.824
1		0.00		-6.80		4.505e-02		-49.408		1.410e-02		15.500
1		0.00		-6.40		4.259e-02		-49.971		1.310e-02		17.231
1		0.00		-6.00		3.964e-02		-50.885		1.234e-02		20.348
1		0.00		-5.60		3.675e-02		-50.050		1.124e-02		18.139
1		0.00		-5.20		3.432e-02		-48.550		1.057e-02		13.695
1		0.00		-4.80		3.135e-02		-50.933		9.350e-03		14.513
1		0.00		-4.40		2.765e-02		-50.423		7.830e-03		9.566
1		0.00		-4.00		2.483e-02		-49.443		6.721e-03		9.430
1		0.00		-3.60		2.198e-02		-50.803		5.450e-03		11.528
1		0.00		-3.20		1.856e-02		-48.558		4.236e-03		10.786
1		0.00		-2.80		1.548e-02		-47.036		3.353e-03		10.994
1		0.00		-2.40		1.178e-02		-48.559		2.486e-03		11.456
1		0.00		-2.00		7.743e-03		-49.950		1.838e-03		14.437
1		0.00		-1.60		3.953e-03		-51.593		1.239e-03		23.671
1		0.00		-1.20		1.848e-03		18.915		7.832e-04		77.259
1		0.00		-0.80		5.112e-03		114.327		1.749e-03		28.308
1		0.00		-0.40		8.776e-03		122.967		2.285e-03		13.817
2		0.00		0.00		1.301e-02		127.546		3.632e-03		11.158
2		0.00		0.40		1.683e-02		127.831		4.278e-03		11.015
2		0.00		0.80		1.961e-02		127.305		5.746e-03		15.241
2		0.00		1.20		2.260e-02		127.614		7.053e-03		17.987
2		0.00		1.60		2.625e-02		126.370		7.954e-03		17.213
2		0.00		2.00		2.946e-02		125.949		9.084e-03		22.308
2		0.00		2.40		3.285e-02		126.430		1.004e-02		22.290
2		0.00		2.80		3.537e-02		126.814		1.098e-02		21.744
2		0.00		3.20		3.879e-02		128.046		1.193e-02		16.639
2		0.00		3.60		4.109e-02		130.251		1.234e-02		8.316
2		0.00		4.00		4.372e-02		129.426		1.268e-02		7.739
2		0.00		4.40		4.763e-02		129.952		1.239e-02		7.154
2		0.00		4.80		4.979e-02		130.892		1.238e-02		6.742
2		0.00		5.20		5.202e-02		130.777		1.250e-02		6.889
2		0.00		5.60		5.322e-02		129.506		1.313e-02		9.872
2		0.00		6.00		5.356e-02		128.388		1.391e-02		12.930
2		0.00		6.40		5.321e-02		128.738		1.511e-02		15.222
2		0.00		6.80		5.614e-02		128.341		1.669e-02		14.555
2		0.00		7.20		5.917e-02		129.479		1.733e-02		12.092
2		0.00		7.60		5.839e-02		129.336		1.827e-02		18.445
2		0.00		8.00		5.852e-02		127.122		1.809e-02		24.249
2		0.00		8.40		5.924e-02		126.644		1.959e-02		24.770
2		0.00		8.80		5.916e-02		126.071		2.003e-02		20.148
2		0.00		9.20		6.059e-02		128.130		2.056e-02		14.391
2		0.00		9.60		5.723e-02		128.236		1.890e-02		9.751
2		0.00		10.00		5.363e-02		130.144		1.712e-02		10.680
2		0.00		9.60		5.269e-02		128.076		1.572e-02		12.081
2		0.00		9.20		5.028e-02		127.271		1.376e-02		13.626
2		0.00		8.80		4.794e-02		127.792		1.319e-02		13.947
2		0.00		8.40		4.586e-02		128.168		1.356e-02		13.182
2		0.00		8.00		4.504e-02		126.908		1.374e-02		14.029
2		0.00		7.60		4.200e-02		127.590		1.304e-02		23.013
2		0.00		7.20		4.013e-02		127.161		1.185e-02		24.987
2		0.00		6.80		3.741e-02		130.126		1.079e-02		18.402
2		0.00		6.40		3.510e-02		130.320		8.957e-03		7.352
2		0.00		6.00		3.234e-02		129.221		7.261e-03		8.545
2		0.00		5.60		2.806e-02		129.924		6.020e-03		9.324
2		0.00		5.20		2.426e-02		130.986		5.149e-03		9.921
2		0.00		4.80		2.045e-02		129.737		4.370e-03		10.111
2		0.00		4.40		1.645e-02		130.350		3.682e-03		12.843
2		0.00		4.00		1.181e-02		128.955		3.039e-03		17.228
2		0.00		3.60		7.644e-03		126.046		2.160e-03		24.003
2		0.00		3.20		3.126e-03		97.240		1.068e-03		57.524
2		0.00		2.80		2.711e-03		-39.021		1.238e-03		45.883
2		0.00		2.40		6.929e-03		-53.582		2.495e-03		22.663
2		0.00		2.00		1.163e-02		-52.823		3.323e-03		12.768
2		0.00		1.60		1.637e-02		-51.448		4.068e-03		11.831
2		0.00		1.20		2.106e-02		-51.223		5.665e-03		10.792
2		0.00		0.80		2.515e-02		-49.712		6.807e-03		10.147
2		0.00		0.40		2.917e-02		-50.546		8.262e-03		13.741
2		0.00		0.00		3.301e-02		-49.728		9.983e-03		13.460
2		0.00		-0.40		3.748e-02		-50.502		1.135e-02		15.940
2		0.00		-0.80		4.251e-02		-50.826		1.140e-02		7.395
2		0.00		-1.20		4.633e-02		-51.535		1.122e-02		6.504
2		0.00		-1.60		5.163e-02		-52.123		1.112e-02		5.975
2		0.00		-2.00		5.404e-02		-52.829		1.141e-02		8.433
2		0.00		-2.40		5.450e-02		-54.120		1.283e-02		13.173
2		0.00		-2.80		5.592e-02		-53.298		1.454e-02		13.367
2		0.00		-3.20		5.936e-02		-54.853		1.698e-02		17.440
2		0.00		-3.60		5.945e-02		-51.063		1.665e-02		17.516
2		0.00		-4.00		5.932e-02		-50.938		1.677e-02		18.387
2		0.00		-4.40		6.056e-02		-52.504		1.841e-02		11.687
2		0.00		-4.80		6.046e-02		-49.943		1.690e-02		8.229
2		0.00		-5.20		6.149e-02		-49.298		1.642e-02		8.528
2		0.00		-5.60		6.119e-02		-49.798		1.561e-02		10.283
2		0.00		-6.00		6.051e-02		-51.725		1.559e-02		11.674
2		0.00		-6.40		5.787e-02		-50.606		1.601e-02		14.327
2		0.00		-6.80		5.553e-02		-50.006		1.530e-02		13.668
2		0.00		-7.20		5.782e-02		-50.260		1.748e-02		13.049
2		0.00		-7.60		5.699e-02		-48.123		1.786e-02		15.640
2		0.00		-8.00		5.654e-02		-47.833		1.841e-02		17.732
2		0.00		-8.40		5.491e-02		-45.894		1.841e-02		28.099
2		0.00		-8.80		5.306e-02		-40.952		1.736e-02		25.263
2		0.00		-9.20		5.151e-02		-40.379		1.618e-02		16.843
2		0.00		-9.60		4.640e-02		-44.910		1.408e-02		7.962
2		0.00		-10.00		4.083e-02		-44.699		1.189e-02		8.452
2		0.00		-9.60		4.485e-02		-45.945		1.294e-02		10.120
2		0.00		-9.20		4.931e-02		-44.703		1.342e-02		10.220
2		0.00		-8.80		5.102e-02		-44.894		1.287e-02		11.351
2		0.00		-8.40		5.144e-02		-47.780		1.387e-02		13.761
2		0.00		-8.00		5.239e-02		-48.385		1.472e-02		13.257
2		0.00		-7.60		5.075e-02		-49.128		1.496e-02		15.086
2		0.00		-7.20		4.752e-02		-49.896		1.469e-02		15.064
2		0.00		-6.80		4.512e-02		-51.178		1.471e-02		21.349
2		0.00		-6.40		4.226e-02		-46.216		1.406e-02		25.106
2		0.00		-6.00		4.053e-02		-48.198		1.307e-02		12.431
2		0.00		-5.60		3.775e-02		-47.772		1.160e-02		8.263
2		0.00		-5.20		3.490e-02		-49.153		9.311e-03		8.535
2		0.00		-4.80		3.147e-02		-50.838		7.513e-03		9.124
2		0.00		-4.40		2.817e-02		-50.993		6.296e-03		9.929
2		0.00		-4.00		2.476e-02		-50.583		5.362e-03		10.906
2		0.00		-3.60		2.112e-02		-50.082		4.847e-03		13.633
2		0.00		-3.20		1.794e-02		-51.182		4.282e-03		12.623
2		0.00		-2.80		1.456e-02		-48.925		3.428e-03		13.737
2		0.00		-2.40		1.080e-02		-44.868		2.676e-03		14.660
2		0.00		-2.00		7.243e-03		-46.029		2.290e-03		18.314
2		0.00		-1.60		3.976e-03		-34.703		1.247e-03		28.028
2		0.00		-1.20		1.934e-03		8.160		9.248e-04		76.436
2		0.00		-0.80		4.722e-03		113.835		1.663e-03		28.206
2		0.00		-0.40		8.193e-03		120.952		2.353e-03		13.968
3		0.00		0.00		1.249e-02		129.981		3.034e-03		12.250
3		0.00		0.40		1.598e-02		128.272		3.384e-03		9.213
3		0.00		0.80		1.963e-02		130.326		4.388e-03		9.111
3		0.00		1.20		2.315e-02		129.338		5.619e-03		8.980
3		0.00		1.60		2.657e-02		128.800		6.894e-03		12.377
3		0.00		2.00		2.924e-02		127.461		8.140e-03		18.050
3		0.00		2.40		3.257e-02		127.782		9.429e-03		19.651
3		0.00		2.80		3.576e-02		128.142		1.091e-02		13.637
3		0.00		3.20		3.908e-02		130.481		1.168e-02		7.412
3		0.00		3.60		4.194e-02		130.913		1.126e-02		7.055
3		0.00		4.00		4.468e-02		130.981		1.101e-02		7.548
3		0.00		4.40		4.638e-02		130.978		1.109e-02		6.981
3		0.00		4.80		4.788e-02		130.199		1.157e-02		8.746
3		0.00		5.20		5.030e-02		129.777		1.283e-02		11.022
3		0.00		5.60		5.319e-02		129.071		1.522e-02		13.564
3		0.00		6.00		5.409e-02		127.886		1.629e-02		20.977
3		0.00		6.40		5.641e-02		130.132		1.703e-02		19.990
3		0.00		6.80		5.927e-02		128.513		1.837e-02		19.733
3		0.00		7.20		6.086e-02		130.881		1.801e-02		10.009
3		0.00		7.60		6.188e-02		131.234		1.699e-02		15.606
3		0.00		8.00		6.233e-02		132.846		1.642e-02		10.480
3		0.00		8.40		6.271e-02		131.021		1.600e-02		11.322
3		0.00		8.80		6.141e-02		129.368		1.617e-02		20.583
3		0.00		9.20		6.140e-02		126.016		1.816e-02		22.000
3		0.00		9.60		5.971e-02		124.600		2.059e-02		17.092
3		0.00		10.00		5.398e-02		125.195		2.003e-02		19.079
3		0.00		9.60		5.360e-02		124.971		1.996e-02		32.429
3		0.00		9.20		5.366e-02		123.205		1.965e-02		29.215
3		0.00		8.80		5.209e-02		126.961		1.770e-02		21.858
3		0.00		8.40		5.013e-02		130.184		1.580e-02		8.620
3		0.00		8.00		4.818e-02		130.807		1.260e-02		8.640
3		0.00		7.60		4.518e-02		130.692		1.058e-02		8.884
3		0.00		7.20		4.287e-02		131.273		9.379e-03		8.729
3		0.00		6.80		3.968e-02		130.527		8.523e-03		9.123
3		0.00		6.40		3.671e-02		130.931		8.206e-03		8.545
3		0.00		6.00		3.323e-02		130.573		7.812e-03		9.197
3		0.00		5.60		2.968e-02		130.037		7.069e-03		12.076
3		0.00		5.20		2.601e-02		128.376		6.494e-03		18.950
3		0.00		4.80		2.151e-02		128.265		5.382e-03		19.118
3		0.00		4.40		1.775e-02		130.425		4.499e-03		17.455
3		0.00		4.00		1.325e-02		133.187		3.252e-03		9.390
3		0.00		3.60		9.103e-03		133.123		2.096e-03		12.464
3		0.00		3.20		4.379e-03		122.856		1.259e-03		33.041
3		0.00		2.80		1.911e-03		-4.319		8.904e-04		64.540
3		0.00		2.40		5.799e-03		-63.783		1.825e-03		19.768
3		0.00		2.00		1.051e-02		-54.494		2.616e-03		9.804
3		0.00		1.60		1.567e-02		-49.463		3.257e-03		10.594
3		0.00		1.20		2.060e-02		-48.756		4.270e-03		9.679
3		0.00		0.80		2.373e-02		-52.148		6.341e-03		10.998
3		0.00		0.40		2.909e-02		-48.539		6.926e-03		9.556
3		0.00		0.00		3.296e-02		-50.000		8.812e-03		11.991
3		0.00		-0.40		3.633e-02		-49.682		1.021e-02		11.182
3		0.00		-0.80		4.060e-02		-51.263		1.185e-02		11.482
3		0.00		-1.20		4.494e-02		-50.393		1.268e-02		8.594
3		0.00		-1.60		4.958e-02		-52.164		1.256e-02		6.741
3		0.00		-2.00		5.331e-02		-51.683		1.239e-02		6.060
3		0.00		-2.40		5.669e-02		-52.384		1.221e-02		5.578
3		0.00		-2.80		5.795e-02		-51.633		1.146e-02		6.514
3		0.00		-3.20		5.928e-02		-54.398		1.293e-02		10.865
3		0.00		-3.60		6.005e-02		-54.736		1.435e-02		12.763
3		0.00		-4.00		5.978e-02		-52.713		1.498e-02		12.755
3		0.00		-4.40		6.209e-02		-52.620		1.623e-02		10.024
3		0.00		-4.80		6.064e-02		-49.300		1.629e-02		8.579
3		0.00		-5.20		5.917e-02		-49.787		1.722e-02		14.576
3		0.00		-5.60		5.949e-02		-49.217		1.890e-02		14.228
3		0.00		-6.00		5.922e-02		-45.776		1.869e-02		12.715
3		0.00		-6.40		5.990e-02		-47.737		1.893e-02		8.609
3		0.00		-6.80		6.053e-02		-48.467		1.861e-02		6.546
3		0.00		-7.20		6.214e-02		-47.786		1.700e-02		7.614
3		0.00		-7.60		6.081e-02		-47.147		1.573e-02		8.178
3		0.00		-8.00		5.784e-02		-48.829		1.559e-02		12.033
3		0.00		-8.40		5.554e-02		-48.228		1.513e-02		11.126
3		0.00		-8.80		5.315e-02		-45.665		1.548e-02		10.134
3		0.00		-9.20		5.088e-02		-44.459		1.605e-02		11.257
3		0.00		-9.60		4.622e-02		-47.593		1.495e-02		17.577
3		0.00		-10.00		4.035e-02		-44.968		1.271e-02		18.211
3		0.00		-9.60		4.631e-02		-38.341		1.476e-02		20.552
3		0.00		-9.20		5.065e-02		-41.865		1.560e-02		17.882
3		0.00		-8.80		5.347e-02		-44.295		1.544e-02		6.439
3		0.00		-8.40		5.443e-02		-45.742		1.383e-02		7.622
3		0.00		-8.00		5.369e-02		-45.377		1.298e-02		8.813
3		0.00		-7.60		5.268e-02		-46.634		1.178e-02		9.379
3		0.00		-7.20		5.027e-02		-46.881		1.166e-02		9.503
3		0.00		-6.80		4.744e-02		-47.361		1.196e-02		9.723
3		0.00		-6.40		4.422e-02		-47.981		1.237e-02		11.373
3		0.00		-6.00		4.158e-02		-48.746		1.211e-02		14.284
3		0.00		-5.60		3.809e-02		-50.675		1.147e-02		20.553
3		0.00		-5.20		3.555e-02		-49.505		1.052e-02		12.480
3		0.00		-4.80		3.265e-02		-48.538		8.329e-03		7.602
3		0.00		-4.40		3.001e-02		-49.766		6.740e-03		7.655
3		0.00		-4.00		2.623e-02		-50.312		5.443e-03		8.347
3		0.00		-3.60		2.261e-02		-49.123		4.745e-03		10.710
3		0.00		-3.20		1.874e-02		-49.056		4.082e-03		10.622
3		0.00		-2.80		1.511e-02		-46.713		3.551e-03		12.095
3		0.00		-2.40		1.174e-02		-47.378		2.884e-03		15.432
3		0.00		-2.00		8.004e-03		-45.487		1.966e-03		15.043
3		0.00		-1.60		4.643e-03		-45.518		1.328e-03		23.162
3		0.00		-1.20		1.921e-03		2.951		7.416e-04		74.158
3		0.00		-0.80		4.349e-03		120.144		1.292e-03		30.124
3		0.00		-0.40		8.117e-03		123.957		2.048e-03		12.874
4		0.00		0.00		1.215e-02		127.692		2.512e-03		10.908
4		0.00		0.40		1.615e-02		127.302		3.355e-03		7.130
4		0.00		0.80		1.986e-02		128.265		4.073e-03		8.290
4		0.00		1.20		2.368e-02		130.431		5.259e-03		10.095
4		0.00		1.60		2.628e-02		127.781		7.100e-03		15.344
4		0.00		2.00		2.953e-02		128.866		8.770e-03		18.229
4		0.00		2.40		3.296e-02		129.919		9.698e-03		8.667
4		0.00		2.80		3.634e-02		130.131		9.943e-03		6.866
4		0.00		3.20		3.943e-02		131.469		9.967e-03		6.852
4		0.00		3.60		4.129e-02		131.232		9.813e-03		7.160
4		0.00		4.00		4.344e-02		130.590		1.053e-02		8.432
4		0.00		4.40		4.502e-02		130.026		1.175e-02		9.039
4		0.00		4.80		4.793e-02		129.878		1.372e-02		10.363
4		0.00		5.20		5.006e-02		128.827		1.556e-02		14.202
4		0.00		5.60		5.208e-02		129.388		1.577e-02		18.131
4		0.00		6.00		5.581e-02		127.706		1.681e-02		20.409
4		0.00		6.40		5.791e-02		129.657		1.680e-02		10.537
4		0.00		6.80		5.942e-02		131.696		1.578e-02		6.506
4		0.00		7.20		6.157e-02		133.408		1.539e-02		7.217
4		0.00		7.60		6.231e-02		131.483		1.551e-02		10.276
4		0.00		8.00		6.263e-02		129.199		1.611e-02		11.996
4		0.00		8.40		6.252e-02		128.529		1.688e-02		17.479
4		0.00		8.80		6.559e-02		127.617		1.950e-02		25.002
4		0.00		9.20		6.509e-02		124.375		2.058e-02		17.529
4		0.00		9.60		6.332e-02		125.449		2.236e-02		17.547
4		0.00		10.00		5.720e-02		127.775		2.039e-02		22.728
4		0.00		9.60		5.864e-02		126.166		2.073e-02		18.990
4		0.00		9.20		5.731e-02		129.609		1.834e-02		12.031
4		0.00		8.80		5.543e-02		131.252		1.645e-02		8.239
4		0.00		8.40		5.229e-02		132.619		1.344e-02		7.509
4		0.00		8.00		4.856e-02		131.164		1.233e-02		9.529
4		0.00		7.60		4.625e-02		131.890		1.115e-02		9.162
4		0.00		7.20		4.366e-02		129.796		1.172e-02		9.582
4		0.00		6.80		4.054e-02		131.143		1.147e-02		9.645
4		0.00		6.40		3.713e-02		129.115		1.120e-02		18.791
4		0.00		6.00		3.407e-02		127.559		9.530e-03		23.957
4		0.00		5.60		3.152e-02		131.169		8.805e-03		17.449
4		0.00		5.20		2.762e-02		132.243		6.710e-03		7.383
4		0.00		4.80		2.428e-02		132.306		4.992e-03		9.274
4		0.00		4.40		1.993e-02		132.559		3.696e-03		8.931
4		0.00		4.00		1.531e-02		132.582		2.829e-03		7.798
4		0.00		3.60		1.096e-02		133.811		2.287e-03		10.406
4		0.00		3.20		6.479e-03		128.879		1.605e-03		13.603
4		0.00		2.80		2.371e-03		71.244		1.023e-03		66.105
4		0.00		2.40		3.636e-03		-51.677		1.482e-03		32.901
4		0.00		2.00		8.264e-03		-50.629		2.639e-03		15.875
4		0.00		1.60		1.276e-02		-52.936		4.036e-03		10.726
4		0.00		1.20		1.734e-02		-51.029		4.456e-03		9.408
4		0.00		0.80		2.181e-02		-48.259		5.242e-03		8.944
4		0.00		0.40		2.630e-02		-48.768		6.251e-03		9.004
4		0.00		0.00		3.005e-02		-49.741		7.317e-03		8.561
4		0.00		-0.40		3.396e-02		-50.516		9.046e-03		10.262
4		0.00		-0.80		3.745e-02		-51.581		1.090e-02		14.789
4		0.00		-1.20		4.150e-02		-52.766		1.272e-02		12.871
4		0.00		-1.60		4.521e-02		-53.102		1.315e-02		7.721
4		0.00		-2.00		4.936e-02		-51.733		1.177e-02		6.288
4		0.00		-2.40		5.168e-02		-52.055		1.148e-02		7.856
4		0.00		-2.80		5.412e-02		-52.764		1.234e-02		9.740
4		0.00		-3.20		5.538e-02		-52.828		1.468e-02		13.148
4		0.00		-3.60		5.703e-02		-51.095		1.667e-02		15.726
4		0.00		-4.00		6.010e-02		-49.041		1.695e-02		13.224
4		0.00		-4.40		6.140e-02		-51.901		1.675e-02		8.185
4		0.00		-4.80		6.229e-02		-49.491		1.435e-02		8.544
4		0.00		-5.20		6.171e-02		-50.393		1.469e-02		11.677
4		0.00		-5.60		5.939e-02		-48.726		1.395e-02		11.965
4		0.00		-6.00		5.919e-02		-50.345		1.588e-02		12.669
4		0.00		-6.40		5.801e-02		-49.636		1.706e-02		15.380
4		0.00		-6.80		5.899e-02		-45.737		1.827e-02		17.760
4		0.00		-7.20		6.095e-02		-46.610		1.911e-02		10.060
4		0.00		-7.60		6.083e-02		-45.833		1.646e-02		7.158
4		0.00		-8.00		5.993e-02		-45.488		1.542e-02		9.138
4		0.00		-8.40		5.621e-02		-48.372		1.524e-02		12.214
4		0.00		-8.80		5.471e-02		-45.379		1.590e-02		9.781
4		0.00		-9.20		5.100e-02		-46.487		1.695e-02		18.296
4		0.00		-9.60		4.744e-02		-38.855		1.615e-02		21.401
4		0.00		-10.00		4.146e-02		-41.610		1.356e-02		13.222
4		0.00		-9.60		4.656e-02		-45.727		1.403e-02		6.183
4		0.00		-9.20		5.223e-02		-43.271		1.345e-02		6.767
4		0.00		-8.80		5.348e-02		-45.064		1.276e-02		9.956
4		0.00		-8.40		5.472e-02		-45.434		1.363e-02		9.382
4		0.00		-8.00		5.438e-02		-46.494		1.487e-02		12.417
4		0.00		-7.60		5.352e-02		-47.728		1.501e-02		16.198
4		0.00		-7.20		5.200e-02		-45.994		1.505e-02		19.886
4		0.00		-6.80		5.020e-02		-46.753		1.342e-02		9.926
4		0.00		-6.40		4.831e-02		-46.495		1.086e-02		6.616
4		0.00		-6.00		4.514e-02		-46.954		9.037e-03		6.851
4		0.00		-5.60		4.084e-02		-46.670		7.990e-03		8.356
4		0.00		-5.20		3.693e-02		-48.218		8.724e-03		8.440
4		0.00		-4.80		3.331e-02		-47.546		8.939e-03		10.339
4		0.00		-4.40		2.929e-02		-49.272		8.616e-03		12.456
4		0.00		-4.00		2.641e-02		-51.460		7.658e-03		10.796
4		0.00		-3.60		2.277e-02		-48.493		5.723e-03		7.280
4		0.00		-3.20		1.959e-02		-49.167		4.210e-03		9.304
4		0.00		-2.80		1.615e-02		-46.868		3.470e-03		10.498
4		0.00		-2.40		1.281e-02		-47.141		2.992e-03		10.171
4		0.00		-2.00		8.441e-03		-46.354		2.376e-03		15.621
4		0.00		-1.60		4.497e-03		-32.657		1.270e-03		22.314
4		0.00		-1.20		1.951e-03		5.764		8.128e-04		54.368
4		0.00		-0.80		4.194e-03		102.933		1.348e-03		43.907
4		0.00		-0.40		8.140e-03		125.149		2.115e-03		12.351
5		0.00		0.00		1.196e-02		127.318		2.553e-03		9.821
5		0.00		0.40		1.634e-02		125.964		3.197e-03		8.633
5		0.00		0.80		1.990e-02		128.665		3.840e-03		9.099
5		0.00		1.20		2.351e-02		130.271		4.903e-03		9.482
5		0.00		1.60		2.657e-02		129.341		6.155e-03		13.560
5		0.00		2.00		3.006e-02		129.863		7.542e-03		18.742
5		0.00		2.40		3.400e-02		129.064		8.683e-03		15.712
5		0.00		2.80		3.709e-02		129.823		9.268e-03		7.849
5		0.00		3.20		4.015e-02		131.987		8.946e-03		7.155
5		0.00		3.60		4.277e-02		131.493		9.047e-03		6.522
5		0.00		4.00		4.464e-02		131.283		9.659e-03		7.791
5		0.00		4.40		4.679e-02		131.779		1.101e-02		8.330
5		0.00		4.80		4.892e-02		130.173		1.373e-02		11.458
5		0.00		5.20		5.012e-02		127.481		1.557e-02		19.757
5		0.00		5.60		5.259e-02		128.060		1.689e-02		20.568
5		0.00		6.00		5.558e-02		131.622		1.741e-02		7.406
5		0.00		6.40		5.812e-02		131.516		1.646e-02		7.068
5		0.00		6.80		5.869e-02		131.501		1.491e-02		8.525
5		0.00		7.20		5.996e-02		130.739		1.491e-02		10.073
5		0.00		7.60		5.922e-02		130.519		1.558e-02		12.542
5		0.00		8.00		6.185e-02		129.288		1.698e-02		13.419
5		0.00		8.40		6.285e-02		130.348		1.941e-02		17.804
5		0.00		8.80		6.457e-02		129.812		2.076e-02		21.014
5		0.00		9.20		6.601e-02		127.602		2.167e-02		21.242
5		0.00		9.60		6.520e-02		128.041		2.024e-02		19.753
5		0.00		10.00		6.079e-02		133.085		1.811e-02		9.502
5		0.00		9.60		6.069e-02		128.841		1.634e-02		10.975
5		0.00		9.20		6.046e-02		128.984		1.556e-02		12.715
5		0.00		8.80		5.616e-02		130.444		1.520e-02		11.588
5		0.00		8.40		5.283e-02		129.715		1.654e-02		14.895
5		0.00		8.00		5.012e-02		128.052		1.628e-02		19.006
5		0.00		7.60		4.838e-02		126.648		1.599e-02		26.260
5		0.00		7.20		4.594e-02		128.101		1.455e-02		20.049
5		0.00		6.80		4.307e-02		131.263		1.216e-02		7.083
5		0.00		6.40		4.041e-02		132.007		9.876e-03		7.610
5		0.00		6.00		3.687e-02		130.996		8.066e-03		8.153
5		0.00		5.60		3.330e-02		131.118		7.019e-03		8.018
5		0.00		5.20		2.910e-02		130.865		6.759e-03		8.402
5		0.00		4.80		2.528e-02		132.562		6.257e-03		8.837
5		0.00		4.40		2.128e-02		131.787		5.476e-03		12.519
5		0.00		4.00		1.725e-02		130.266		4.007e-03		20.162
5		0.00		3.60		1.300e-02		128.829		3.304e-03		18.540
5		0.00		3.20		8.252e-03		133.448		2.239e-03		26.942
5		0.00		2.80		3.850e-03		120.939		1.146e-03		33.795
5		0.00		2.40		2.392e-03		-44.357		1.045e-03		46.999
5		0.00		2.00		5.938e-03		-52.383		1.712e-03		16.853
5		0.00		1.60		1.129e-02		-49.998		2.609e-03		10.485
5		0.00		1.20		1.585e-02		-48.823		3.205e-03		10.034
5		0.00		0.80		2.030e-02		-47.236		4.350e-03		9.340
5		0.00		0.40		2.521e-02		-47.468		5.586e-03		8.073
5		0.00		0.00		2.935e-02		-48.338		7.132e-03		8.987
5		0.00		-0.40		3.347e-02		-49.866		8.971e-03		12.447
5		0.00		-0.80		3.737e-02		-50.950		1.033e-02		12.098
5		0.00		-1.20		4.143e-02		-51.202		1.184e-02		9.289
5		0.00		-1.60		4.592e-02		-49.977		1.246e-02		7.220
5		0.00		-2.00		4.963e-02		-51.448		1.212e-02		5.788
5		0.00		-2.40		5.427e-02		-51.027		1.177e-02		5.571
5		0.00		-2.80		5.620e-02		-51.720		1.147e-02		6.235
5		0.00		-3.20		5.773e-02		-54.466		1.339e-02		10.069
5		0.00		-3.60		5.845e-02		-53.308		1.388e-02		10.579
5		0.00		-4.00		5.948e-02		-52.428		1.528e-02		11.902
5		0.00		-4.40		6.217e-02		-50.555		1.595e-02		9.986
5		0.00		-4.80		6.199e-02		-48.330		1.692e-02		9.680
5		0.00		-5.20		6.233e-02		-46.628		1.806e-02		12.650
5		0.00		-5.60		6.312e-02		-46.702		1.763e-02		10.810
5		0.00		-6.00		6.462e-02		-46.097		1.806e-02		8.014
5		0.00		-6.40		6.390e-02		-47.512		1.648e-02		6.782
5		0.00		-6.80		6.376e-02		-46.177		1.568e-02		6.356
5		0.00		-7.20		6.357e-02		-47.899		1.467e-02		7.702
5		0.00		-7.60		6.220e-02		-48.534		1.529e-02		11.092
5		0.00		-8.00		5.979e-02		-47.218		1.543e-02		10.584
5		0.00		-8.40		5.816e-02		-45.848		1.607e-02		10.780
5		0.00		-8.80		5.567e-02		-45.658		1.671e-02		10.831
5		0.00		-9.20		5.127e-02		-45.589		1.744e-02		14.553
5		0.00		-9.60		4.687e-02		-48.853		1.707e-02		23.276
5		0.00		-10.00		3.997e-02		-39.243		1.424e-02		23.225
5		0.00		-9.60		4.569e-02		-38.327		1.631e-02		22.563
5		0.00		-9.20		4.987e-02		-42.420		1.688e-02		11.879
5		0.00		-8.80		5.284e-02		-44.575		1.579e-02		6.675
5		0.00		-8.40		5.501e-02		-44.933		1.410e-02		7.650
5		0.00		-8.00		5.496e-02		-48.022		1.301e-02		9.338
5		0.00		-7.60		5.271e-02		-46.893		1.197e-02		10.393
5		0.00		-7.20		5.075e-02		-46.728		1.174e-02		9.769
5		0.00		-6.80		4.893e-02		-46.328		1.198e-02		8.749
5		0.00		-6.40		4.598e-02		-46.426		1.204e-02		10.795
5		0.00		-6.00		4.316e-02		-47.298		1.158e-02		15.336
5		0.00		-5.60		4.034e-02		-47.970		1.073e-02		15.324
5		0.00		-5.20		3.749e-02		-47.822		9.320e-03		8.520
5		0.00		-4.80		3.460e-02		-48.653		7.864e-03		7.305
5		0.00		-4.40		3.097e-02		-48.615		6.132e-03		7.309
5		0.00		-4.00		2.699e-02		-48.012		5.060e-03		7.283
5		0.00		-3.60		2.336e-02		-49.162		4.316e-03		8.541
5		0.00		-3.20		2.005e-02		-46.839		3.952e-03		9.675
5		0.00		-2.80		1.587e-02		-44.328		3.249e-03		10.147
5		0.00		-2.40		1.221e-02		-44.016		2.856e-03		13.053
5		0.00		-2.00		8.269e-03		-36.661		2.293e-03		14.895
5		0.00		-1.60		4.447e-03		-38.059		1.550e-03		27.099
5		0.00		-1.20		1.838e-03		3.941		6.800e-04		65.487
5		0.00		-0.80		4.231e-03		109.787		1.625e-03		29.929
5		0.00		-0.40		8.301e-03		125.440		2.037e-03		11.453
6		0.00		0.00		1.205e-02		129.545		2.790e-03		8.886
6		0.00		0.40		1.617e-02		128.473		3.012e-03		7.794
6		0.00		0.80		1.990e-02		129.796		4.296e-03		10.128
6		0.00		1.20		2.362e-02		130.346		5.493e-03		12.173
6		0.00		1.60		2.692e-02		128.355		6.622e-03		15.603
6		0.00		2.00		3.064e-02		128.793		7.998e-03		12.278
6		0.00		2.40		3.436e-02		131.296		8.051e-03		6.605
6		0.00		2.80		3.789e-02		132.344		8.122e-03		5.699
6		0.00		3.20		4.111e-02		131.293		8.213e-03		6.060
6		0.00		3.60		4.295e-02		131.961		8.777e-03		6.649
6		0.00		4.00		4.540e-02		131.625		1.071e-02		6.198
6		0.00		4.40		4.746e-02		130.611		1.296e-02		10.217
6		0.00		4.80		4.867e-02		128.111		1.486e-02		17.344
6		0.00		5.20		5.163e-02		126.226		1.666e-02		23.763
6		0.00		5.60		5.389e-02		129.905		1.718e-02		11.968
6		0.00		6.00		5.588e-02		131.399		1.615e-02		5.823
6		0.00		6.40		5.745e-02		132.634		1.526e-02		6.875
6		0.00		6.80		5.847e-02		130.821		1.502e-02		9.947
6		0.00		7.20		5.727e-02		130.750		1.527e-02		13.527
6		0.00		7.60		6.030e-02		130.573		1.754e-02		12.621
6		0.00		8.00		6.032e-02		128.963		1.903e-02		29.011
6		0.00		8.40		6.271e-02		129.245		1.901e-02		18.262
6		0.00		8.80		6.329e-02		129.133		1.945e-02		26.928
6		0.00		9.20		6.407e-02		131.530		1.971e-02		25.606
6		0.00		9.60		6.449e-02		129.962		2.089e-02		23.300
6		0.00		10.00		6.244e-02		131.083		1.950e-02		8.637
6		0.00		9.60		6.280e-02		130.338		1.755e-02		9.008
6		0.00		9.20		6.185e-02		130.362		1.538e-02		9.451
6		0.00		8.80		5.930e-02		131.006		1.377e-02		10.615
6		0.00		8.40		5.484e-02		129.673		1.352e-02		13.152
6		0.00		8.00		5.276e-02		131.582		1.333e-02		9.515
6		0.00		7.60		4.895e-02		128.971		1.480e-02		14.585
6		0.00		7.20		4.652e-02		127.704		1.418e-02		21.167
6		0.00		6.80		4.362e-02		128.846		1.352e-02		19.701
6		0.00		6.40		4.090e-02		130.591		1.226e-02		13.122
6		0.00		6.00		3.811e-02		131.700		1.002e-02		6.554
6		0.00		5.60		3.471e-02		131.728		7.755e-03		7.435
6		0.00		5.20		3.093e-02		133.377		6.267e-03		7.197
6		0.00		4.80		2.719e-02		132.999		5.760e-03		9.040
6		0.00		4.40		2.260e-02		132.972		4.890e-03		7.766
6		0.00		4.00		1.829e-02		131.899		4.318e-03		8.560
6		0.00		3.60		1.356e-02		131.144		3.448e-03		15.084
6		0.00		3.20		9.203e-03		130.846		2.160e-03		19.515
6		0.00		2.80		4.737e-03		123.040		1.484e-03		37.840
6		0.00		2.40		2.086e-03		-29.125		7.412e-04		57.602
6		0.00		2.00		5.822e-03		-48.627		1.908e-03		17.284
6		0.00		1.60		1.068e-02		-52.379		2.381e-03		12.500
6		0.00		1.20		1.556e-02		-51.431		3.088e-03		10.557
6		0.00		0.80		1.991e-02		-49.098		3.744e-03		9.652
6		0.00		0.40		2.469e-02		-47.614		5.038e-03		9.353
6		0.00		0.00		2.875e-02		-48.192		6.647e-03		11.904
6		0.00		-0.40		3.330e-02		-51.073		8.159e-03		15.917
6		0.00		-0.80		3.690e-02		-49.428		1.014e-02		7.577
6		0.00		-1.20		4.117e-02		-50.613		1.038e-02		6.679
6		0.00		-1.60		4.568e-02		-51.674		1.001e-02		5.727
6		0.00		-2.00		4.796e-02		-50.915		1.008e-02		7.244
6		0.00		-2.40		5.058e-02		-52.220		1.223e-02		9.725
6		0.00		-2.80		5.248e-02		-52.363		1.389e-02		11.650
6		0.00		-3.20		5.516e-02		-51.583		1.627e-02		14.448
6		0.00		-3.60		5.669e-02		-52.491		1.785e-02		17.461
6		0.00		-4.00		5.933e-02		-52.288		1.776e-02		7.424
6		0.00		-4.40		6.024e-02		-50.967		1.491e-02		7.296
6		0.00		-4.80		6.101e-02		-50.632		1.321e-02		8.212
6		0.00		-5.20		5.935e-02		-51.423		1.436e-02		12.480
6		0.00		-5.60		6.085e-02		-49.934		1.581e-02		11.087
6		0.00		-6.00		6.084e-02		-48.408		1.709e-02		11.316
6		0.00		-6.40		6.031e-02		-45.068		1.750e-02		15.454
6		0.00		-6.80		6.083e-02		-46.988		1.789e-02		10.066
6		0.00		-7.20		6.123e-02		-46.806		1.529e-02		5.636
6		0.00		-7.60		6.242e-02		-47.063		1.403e-02		7.520
6		0.00		-8.00		6.046e-02		-46.710		1.327e-02		9.988
6		0.00		-8.40		6.016e-02		-45.366		1.547e-02		8.958
6		0.00		-8.80		5.585e-02		-45.323		1.648e-02		13.367
6		0.00		-9.20		5.267e-02		-44.083		1.706e-02		22.914
6		0.00		-9.60		4.935e-02		-42.949		1.665e-02		21.091
6		0.00		-10.00		4.274e-02		-43.149		1.325e-02		6.775
6		0.00		-9.60		4.766e-02		-44.053		1.375e-02		6.676
6		0.00		-9.20		5.050e-02		-42.538		1.315e-02		7.904
6		0.00		-8.80		5.181e-02		-44.297		1.316e-02		10.332
6		0.00		-8.40		5.328e-02		-46.581		1.530e-02		12.589
6		0.00		-8.00		5.446e-02		-47.221		1.615e-02		18.560
6		0.00		-7.60		5.457e-02		-47.829		1.680e-02		18.317
6		0.00		-7.20		5.233e-02		-46.923		1.529e-02		7.804
6		0.00		-6.80		5.119e-02		-45.873		1.141e-02		6.484
6		0.00		-6.40		4.901e-02		-46.252		9.626e-03		5.718
6		0.00		-6.00		4.576e-02		-47.903		8.703e-03		7.622
6		0.00		-5.60		4.201e-02		-46.400		8.416e-03		7.794
6		0.00		-5.20		3.883e-02		-46.515		8.239e-03		8.345
6		0.00		-4.80		3.511e-02		-48.712		8.513e-03		12.425
6		0.00		-4.40		3.151e-02		-49.192		8.034e-03		10.768
6		0.00		-4.00		2.777e-02		-48.764		6.511e-03		7.331
6		0.00		-3.60		2.437e-02		-47.833		4.953e-03		7.133
6		0.00		-3.20		2.121e-02		-48.138		3.787e-03		7.404
6		0.00		-2.80		1.685e-02		-46.703		3.296e-03		9.695
6		0.00		-2.40		1.272e-02		-42.983		2.903e-03		10.805
6		0.00		-2.00		8.980e-03		-43.401		2.271e-03		12.531
6		0.00		-1.60		4.674e-03		-29.379		1.452e-03		20.151
6		0.00		-1.20		1.914e-03		-7.124		7.972e-04		54.283
6		0.00		-0.80		3.827e-03		102.061		1.560e-03		41.577
6		0.00		-0.40		7.995e-03		122.224		2.251e-03		14.426
7		0.00		0.00		1.177e-02		126.131		2.456e-03		10.200
7		0.00		0.40		1.601e-02		128.317		3.489e-03		7.802
7		0.00		0.80		2.005e-02		128.678		4.353e-03		9.249
7		0.00		1.20		2.342e-02		129.289		5.580e-03		9.136
7		0.00		1.60		2.703e-02		128.873		6.752e-03		15.220
7		0.00		2.00		3.089e-02		129.279		7.639e-03		15.435
7		0.00		2.40		3.495e-02		130.808		8.768e-03		7.053
7		0.00		2.80		3.829e-02		131.350		8.266e-03		7.184
7		0.00		3.20		4.144e-02		131.719		7.642e-03		5.898
7		0.00		3.60		4.391e-02		132.022		8.417e-03		6.785
7		0.00		4.00		4.666e-02		132.661		9.720e-03		7.586
7		0.00		4.40		4.815e-02		131.428		1.185e-02		7.942
7		0.00		4.80		5.022e-02		130.076		1.336e-02		15.096
7		0.00		5.20		5.297e-02		129.391		1.496e-02		18.589
7		0.00		5.60		5.565e-02		130.767		1.585e-02		8.051
7		0.00		6.00		5.667e-02		133.166		1.459e-02		5.747
7		0.00		6.40		5.752e-02		133.127		1.429e-02		6.894
7		0.00		6.80		5.694e-02		130.651		1.475e-02		11.196
7		0.00		7.20		5.780e-02		130.189		1.635e-02		11.754
7		0.00		7.60		5.914e-02		128.524		1.862e-02		13.318
7		0.00		8.00		6.032e-02		132.149		1.965e-02		15.026
7		0.00		8.40		6.237e-02		127.885		2.056e-02		24.128
7		0.00		8.80		6.302e-02		125.282		2.126e-02		34.254
7		0.00		9.20		6.488e-02		130.547		2.096e-02		23.855
7		0.00		9.60		6.461e-02		129.772		2.013e-02		9.565
7		0.00		10.00		6.183e-02		129.371		1.762e-02		10.861
7		0.00		9.60		6.142e-02		129.095		1.545e-02		11.002
7		0.00		9.20		6.113e-02		127.778		1.666e-02		11.315
7		0.00		8.80		6.032e-02		130.058		1.720e-02		10.067
7		0.00		8.40		5.550e-02		128.816		1.658e-02		19.211
7		0.00		8.00		5.377e-02		129.504		1.566e-02		22.039
7		0.00		7.60		5.167e-02		128.959		1.516e-02		21.147
7		0.00		7.20		4.859e-02		130.881		1.296e-02		11.410
7		0.00		6.80		4.610e-02		131.867		1.072e-02		7.330
7		0.00		6.40		4.272e-02		132.007		8.327e-03		7.255
7		0.00		6.00		3.908e-02		131.890		7.555e-03		6.888
7		0.00		5.60		3.503e-02		131.939		7.900e-03		7.877
7		0.00		5.20		3.048e-02		132.000		7.634e-03		8.929
7		0.00		4.80		2.616e-02		130.739		7.282e-03		15.971
7		0.00		4.40		2.226e-02		130.471		6.153e-03		20.210
7		0.00		4.00		1.854e-02		130.446		5.157e-03		14.826
7		0.00		3.60		1.404e-02		132.340		3.494e-03		7.180
7		0.00		3.20		9.407e-03		134.931		2.333e-03		11.831
7		0.00		2.80		4.920e-03		127.300		1.318e-03		26.241
7		0.00		2.40		1.727e-03		-21.195		7.226e-04		72.471
7		0.00		2.00		5.530e-03		-51.987		1.724e-03		22.278
7		0.00		1.60		1.052e-02		-51.368		2.606e-03		14.314
7		0.00		1.20		1.540e-02		-48.496		3.895e-03		12.136
7		0.00		0.80		1.985e-02		-49.424		5.105e-03		10.330
7		0.00		0.40		2.441e-02		-50.359		6.014e-03		8.236
7		0.00		0.00		2.981e-02		-51.426		6.301e-03		6.672
7		0.00		-0.40		3.457e-02		-49.553		5.956e-03		6.342
7		0.00		-0.80		3.856e-02		-50.833		6.888e-03		7.246
7		0.00		-1.20		4.288e-02		-50.868		7.899e-03		7.818
7		0.00		-1.60		4.554e-02		-51.529		9.715e-03		9.836
7		0.00		-2.00		4.871e-02		-50.713		1.186e-02		12.060
7		0.00		-2.40		5.119e-02		-52.377		1.419e-02		13.827
7		0.00		-2.80		5.480e-02		-52.444		1.587e-02		11.980
7		0.00		-3.20		5.741e-02		-52.508		1.557e-02		6.745
7		0.00		-3.60		5.896e-02		-52.147		1.385e-02		6.582
7		0.00		-4.00		5.936e-02		-51.204		1.259e-02		8.412
7		0.00		-4.40		5.919e-02		-52.303		1.388e-02		11.689
7		0.00		-4.80		5.950e-02		-51.795		1.497e-02		12.073
7		0.00		-5.20		6.025e-02		-48.952		1.564e-02		10.328
7		0.00		-5.60		5.954e-02		-47.518		1.740e-02		11.845
7		0.00		-6.00		5.981e-02		-48.116		1.784e-02		16.333
7		0.00		-6.40		6.218e-02		-46.817		1.833e-02		13.206
7		0.00		-6.80		6.112e-02		-45.766		1.584e-02		6.480
7		0.00		-7.20		6.298e-02		-45.558		1.477e-02		6.630
7		0.00		-7.60		6.305e-02		-47.637		1.384e-02		6.862
7		0.00		-8.00		6.223e-02		-46.464		1.434e-02		10.440
7		0.00		-8.40		6.000e-02		-43.734		1.410e-02		11.297
7		0.00		-8.80		5.844e-02		-43.655		1.548e-02		10.003
7		0.00		-9.20		5.422e-02		-43.858		1.621e-02		11.998
7		0.00		-9.60		5.017e-02		-45.619		1.591e-02		17.663
7		0.00		-10.00		4.355e-02		-40.171		1.364e-02		14.272
7		0.00		-9.60		4.910e-02		-40.902		1.586e-02		14.063
7		0.00		-9.20		5.309e-02		-44.028		1.655e-02		6.728
7		0.00		-8.80		5.492e-02		-43.708		1.535e-02		6.421
7		0.00		-8.40		5.677e-02		-46.703		1.421e-02		8.451
7		0.00		-8.00		5.553e-02		-47.049		1.442e-02		10.506
7		0.00		-7.60		5.431e-02		-46.729		1.349e-02		8.785
7		0.00		-7.20		5.279e-02		-46.747		1.432e-02		10.325
7		0.00		-6.80		4.916e-02		-47.133		1.460e-02		14.276
7		0.00		-6.40		4.774e-02		-48.443		1.391e-02		16.959
7		0.00		-6.00		4.532e-02		-48.653		1.318e-02		14.892
7		0.00		-5.60		4.267e-02		-47.047		1.145e-02		5.914
7		0.00		-5.20		4.017e-02		-48.505		8.510e-03		5.805
7		0.00		-4.80		3.684e-02		-47.548		6.766e-03		5.818
7		0.00		-4.40		3.245e-02		-49.649		5.625e-03		9.202
7		0.00		-4.00		2.876e-02		-48.203		5.284e-03		7.739
7		0.00		-3.60		2.506e-02		-47.538		4.938e-03		7.808
7		0.00		-3.20		2.094e-02		-46.097		4.468e-03		10.962
7		0.00		-2.80		1.726e-02		-48.307		4.055e-03		17.303
7		0.00		-2.40		1.303e-02		-44.953		3.052e-03		12.337
7		0.00		-2.00		9.613e-03		-38.483		2.339e-03		11.815
7		0.00		-1.60		5.739e-03		-37.422		1.459e-03		15.846
7		0.00		-1.20		2.186e-03		-12.671		9.263e-04		62.528
7		0.00		-0.80		3.471e-03		104.734		1.237e-03		28.475
7		0.00		-0.40		7.447e-03		128.376		1.914e-03		12.799
8		0.00		0.00		1.169e-02		126.286		2.711e-03		11.915
8		0.00		0.40		1.559e-02		128.475		3.928e-03		14.446
8		0.00		0.80		1.954e-02		127.575		5.220e-03		15.793
8		0.00		1.20		2.362e-02		127.621		6.291e-03		10.673
8		0.00		1.60		2.773e-02		129.970		6.076e-03		6.054
8		0.00		2.00		3.167e-02		130.908		6.156e-03		6.082
8		0.00		2.40		3.491e-02		129.541		6.985e-03		7.172
8		0.00		2.80		3.790e-02		131.788		7.818e-03		5.988
8		0.00		3.20		4.055e-02		131.645		9.460e-03		7.249
8		0.00		3.60		4.360e-02		130.186		1.082e-02		14.240
8		0.00		4.00		4.637e-02		129.924		1.234e-02		13.711
8		0.00		4.40		4.988e-02		131.774		1.284e-02		4.929
8		0.00		4.80		5.255e-02		132.454		1.154e-02		4.901
8		0.00		5.20		5.431e-02		132.852		1.136e-02		5.670
8		0.00		5.60		5.528e-02		133.248		1.158e-02		6.386
8		0.00		6.00		5.627e-02		132.119		1.414e-02		9.828
8		0.00		6.40		5.761e-02		132.384		1.640e-02		14.575
8		0.00		6.80		5.948e-02		129.138		1.823e-02		25.645
8		0.00		7.20		6.187e-02		130.121		1.957e-02		19.379
8		0.00		7.60		6.374e-02		131.332		2.008e-02		8.653
8		0.00		8.00		6.187e-02		134.037		1.687e-02		9.061
8		0.00		8.40		6.246e-02		132.269		1.579e-02		12.884
8		0.00		8.80		6.207e-02		129.840		1.735e-02		20.226
8		0.00		9.20		6.483e-02		123.412		2.169e-02		36.818
8		0.00		9.60		6.189e-02		130.749		2.183e-02		14.041
8		0.00		10.00		5.958e-02		128.911		2.206e-02		23.164
8		0.00		9.60		6.103e-02		129.601		2.100e-02		17.617
8		0.00		9.20		6.201e-02		131.553		2.008e-02		7.966
8		0.00		8.80		6.033e-02		131.941		1.643e-02		7.365
8		0.00		8.40		5.773e-02		130.931		1.363e-02		7.890
8		0.00		8.00		5.442e-02		130.633		1.261e-02		9.738
8		0.00		7.60		5.261e-02		132.518		1.253e-02		8.727
8		0.00		7.20		4.902e-02		130.511		1.300e-02		11.043
8		0.00		6.80		4.664e-02		130.298		1.287e-02		16.814
8		0.00		6.40		4.402e-02		129.788		1.190e-02		14.276
8		0.00		6.00		4.052e-02		132.188		9.810e-03		6.263
8		0.00		5.60		3.702e-02		132.429		7.936e-03		6.816
8		0.00		5.20		3.328e-02		133.391		6.320e-03		7.236
8		0.00		4.80		2.912e-02		133.072		5.597e-03		7.159
8		0.00		4.40		2.414e-02		134.487		4.811e-03		7.337
8		0.00		4.00		1.984e-02		133.688		4.654e-03		12.433
8		0.00		3.60		1.466e-02		130.173		3.700e-03		19.314
8		0.00		3.20		1.035e-02		130.861		2.726e-03		20.189
8		0.00		2.80		5.655e-03		135.296		1.590e-03		17.080
8		0.00		2.40		1.843e-03		20.887		7.821e-04		88.286
8		0.00		2.00		4.961e-03		-57.729		1.593e-03		19.080
8		0.00		1.60		9.853e-03		-48.518		2.261e-03		10.967
8		0.00		1.20		1.480e-02		-48.485		3.106e-03		12.109
8		0.00		0.80		1.972e-02		-48.950		4.485e-03		10.008
8		0.00		0.40		2.415e-02		-48.588		5.435e-03		9.681
8		0.00		0.00		2.904e-02		-49.044		6.955e-03		9.059
8		0.00		-0.40		3.366e-02		-48.653		7.393e-03		7.899
8		0.00		-0.80		3.863e-02		-49.838		7.248e-03		6.763
8		0.00		-1.20		4.394e-02		-50.103		7.117e-03		5.710
8		0.00		-1.60		4.806e-02		-50.958		7.323e-03		5.610
8		0.00		-2.00		5.021e-02		-49.972		9.307e-03		5.753
8		0.00		-2.40		5.348e-02		-49.878		1.166e-02		7.626
8		0.00		-2.80		5.682e-02		-51.198		1.358e-02		12.603
8		0.00		-3.20		5.925e-02		-52.446		1.503e-02		12.021
8		0.00		-3.60		6.042e-02		-50.858		1.650e-02		7.297
8		0.00		-4.00		6.040e-02		-51.438		1.655e-02		7.623
8		0.00		-4.40		6.253e-02		-49.903		1.548e-02		7.456
8		0.00		-4.80		6.213e-02		-49.414		1.427e-02		7.822
8		0.00		-5.20		6.354e-02		-50.580		1.553e-02		10.145
8		0.00		-5.60		6.138e-02		-48.625		1.566e-02		11.992
8		0.00		-6.00		6.122e-02		-49.356		1.751e-02		16.480
8		0.00		-6.40		6.213e-02		-47.088		1.865e-02		12.468
8		0.00		-6.80		6.015e-02		-46.580		1.820e-02		17.975
8		0.00		-7.20		6.134e-02		-44.786		1.951e-02		13.456
8		0.00		-7.60		6.291e-02		-46.332		1.778e-02		8.326
8		0.00		-8.00		6.196e-02		-45.283		1.519e-02		7.061
8		0.00		-8.40		6.120e-02		-45.751		1.388e-02		7.287
8		0.00		-8.80		5.726e-02		-44.482		1.320e-02		9.714
8		0.00		-9.20		5.388e-02		-42.573		1.363e-02		8.619
8		0.00		-9.60		4.887e-02		-43.248		1.370e-02		6.732
8		0.00		-10.00		4.220e-02		-43.303		1.233e-02		14.463
8		0.00		-9.60		4.746e-02		-44.923		1.397e-02		17.956
8		0.00		-9.20		5.300e-02		-42.365		1.532e-02		18.490
8		0.00		-8.80		5.633e-02		-43.812		1.599e-02		15.694
8		0.00		-8.40		5.855e-02		-44.953		1.526e-02		7.343
8		0.00		-8.00		5.792e-02		-45.703		1.330e-02		5.873
8		0.00		-7.60		5.699e-02		-46.114		1.218e-02		6.735
8		0.00		-7.20		5.456e-02		-45.884		1.063e-02		6.490
8		0.00		-6.80		5.046e-02		-45.452		9.339e-03		6.703
8		0.00		-6.40		4.826e-02		-46.065		9.810e-03		8.003
8		0.00		-6.00		4.556e-02		-44.875		9.680e-03		6.814
8		0.00		-5.60		4.190e-02		-46.268		9.901e-03		7.679
8		0.00		-5.20		3.812e-02		-46.998		9.646e-03		9.101
8		0.00		-4.80		3.494e-02		-48.476		9.112e-03		11.727
8		0.00		-4.40		3.130e-02		-50.398		8.314e-03		10.448
8		0.00		-4.00		2.753e-02		-47.558		6.669e-03		7.315
8		0.00		-3.60		2.453e-02		-46.106		5.112e-03		7.643
8		0.00		-3.20		2.107e-02		-46.135		3.752e-03		6.624
8		0.00		-2.80		1.713e-02		-45.297		2.911e-03		8.912
8		0.00		-2.40		1.328e-02		-45.690		2.050e-03		10.926
8		0.00		-2.00		9.068e-03		-42.807		1.568e-03		14.289
8		0.00		-1.60		4.881e-03		-22.786		1.340e-03		16.492
8		0.00		-1.20		1.964e-03		-2.669		7.413e-04		62.598
8		0.00		-0.80		4.303e-03		104.338		1.346e-03		33.961
8		0.00		-0.40		8.232e-03		123.500		2.225e-03		21.328
