# Date of analysis: 2023-11-20 16;16
# 
# Loop index	Read Volt (V)	Write Volt (V)	Amplitude (a.u)	Phase (deg)	Sigma Amp (a.u)	Sigma Pha (deg)	
1		0.00		0.00		1.212e-02		-41.525		2.582e-03		13.706
1		0.00		0.40		6.687e-03		-40.619		1.704e-03		16.281
1		0.00		0.80		2.380e-03		-31.386		9.806e-04		43.622
1		0.00		1.20		4.178e-03		109.586		1.441e-03		24.234
1		0.00		1.60		9.496e-03		121.879		2.232e-03		12.893
1		0.00		2.00		1.473e-02		126.458		2.373e-03		8.639
1		0.00		2.40		1.951e-02		128.620		4.089e-03		13.129
1		0.00		2.80		2.385e-02		127.821		4.982e-03		11.085
1		0.00		3.20		2.852e-02		129.036		5.351e-03		7.734
1		0.00		3.60		3.285e-02		130.123		5.619e-03		7.528
1		0.00		4.00		3.648e-02		131.001		7.568e-03		9.625
1		0.00		4.40		3.995e-02		129.931		9.106e-03		9.380
1		0.00		4.80		4.345e-02		130.963		8.308e-03		5.983
1		0.00		5.20		4.679e-02		132.907		7.880e-03		5.035
1		0.00		5.60		4.799e-02		130.830		1.155e-02		11.309
1		0.00		6.00		5.055e-02		130.302		1.341e-02		10.688
1		0.00		6.40		5.529e-02		132.065		1.081e-02		7.093
1		0.00		6.80		5.463e-02		131.771		1.196e-02		11.726
1		0.00		7.20		5.562e-02		132.597		1.463e-02		15.313
1		0.00		7.60		5.902e-02		133.427		1.586e-02		10.440
1		0.00		8.00		6.156e-02		136.107		1.234e-02		9.507
1		0.00		8.40		6.031e-02		134.716		1.416e-02		15.745
1		0.00		8.80		6.194e-02		132.565		1.834e-02		19.466
1		0.00		9.20		6.603e-02		132.187		1.710e-02		16.928
1		0.00		9.60		6.282e-02		125.460		1.608e-02		34.428
1		0.00		10.00		6.228e-02		129.942		1.612e-02		18.883
1		0.00		9.60		6.385e-02		130.026		1.744e-02		30.141
1		0.00		9.20		6.353e-02		135.053		1.454e-02		13.727
1		0.00		8.80		5.748e-02		128.290		1.420e-02		24.374
1		0.00		8.40		5.837e-02		132.262		1.584e-02		19.072
1		0.00		8.00		5.885e-02		130.065		1.572e-02		19.018
1		0.00		7.60		5.803e-02		133.037		1.215e-02		6.830
1		0.00		7.20		5.281e-02		133.327		1.048e-02		8.173
1		0.00		6.80		5.038e-02		131.442		1.177e-02		13.476
1		0.00		6.40		4.727e-02		131.781		1.098e-02		12.740
1		0.00		6.00		4.419e-02		130.953		8.928e-03		7.315
1		0.00		5.60		3.983e-02		132.084		8.218e-03		7.812
1		0.00		5.20		3.464e-02		129.290		9.113e-03		14.398
1		0.00		4.80		3.073e-02		130.313		7.743e-03		9.752
1		0.00		4.40		2.736e-02		131.173		5.489e-03		7.805
1		0.00		4.00		2.296e-02		130.493		4.926e-03		10.142
1		0.00		3.60		1.794e-02		131.970		4.562e-03		13.303
1		0.00		3.20		1.419e-02		129.508		3.276e-03		10.021
1		0.00		2.80		9.385e-03		129.932		2.069e-03		10.744
1		0.00		2.40		4.886e-03		123.305		1.516e-03		26.037
1		0.00		2.00		2.015e-03		-4.338		8.639e-04		59.104
1		0.00		1.60		5.878e-03		-42.236		1.628e-03		17.668
1		0.00		1.20		1.034e-02		-53.193		2.304e-03		12.845
1		0.00		0.80		1.553e-02		-44.262		3.364e-03		10.663
1		0.00		0.40		2.062e-02		-49.002		4.515e-03		9.923
1		0.00		0.00		2.601e-02		-48.218		4.435e-03		8.372
1		0.00		-0.40		3.088e-02		-48.535		5.088e-03		6.548
1		0.00		-0.80		3.480e-02		-51.637		7.294e-03		9.544
1		0.00		-1.20		3.944e-02		-50.781		8.740e-03		8.884
1		0.00		-1.60		4.525e-02		-51.384		6.906e-03		5.303
1		0.00		-2.00		4.833e-02		-51.105		7.887e-03		5.885
1		0.00		-2.40		5.190e-02		-51.748		1.139e-02		9.802
1		0.00		-2.80		5.568e-02		-52.608		1.271e-02		8.536
1		0.00		-3.20		5.650e-02		-50.577		9.599e-03		6.621
1		0.00		-3.60		6.076e-02		-53.143		1.416e-02		13.408
1		0.00		-4.00		5.858e-02		-50.136		1.593e-02		11.272
1		0.00		-4.40		6.156e-02		-50.223		1.409e-02		12.860
1		0.00		-4.80		6.164e-02		-47.260		1.424e-02		16.432
1		0.00		-5.20		5.939e-02		-46.534		1.816e-02		25.924
1		0.00		-5.60		6.334e-02		-43.698		1.731e-02		16.605
1		0.00		-6.00		6.663e-02		-42.485		1.409e-02		19.242
1		0.00		-6.40		6.762e-02		-40.682		1.835e-02		22.141
1		0.00		-6.80		6.467e-02		-40.750		1.965e-02		22.097
1		0.00		-7.20		6.868e-02		-37.212		1.926e-02		21.680
1		0.00		-7.60		6.507e-02		-40.172		1.724e-02		29.231
1		0.00		-8.00		6.823e-02		-35.714		1.950e-02		27.133
1		0.00		-8.40		6.686e-02		-32.349		1.951e-02		22.603
1		0.00		-8.80		6.740e-02		-36.910		1.926e-02		23.667
1		0.00		-9.20		6.952e-02		-40.504		1.856e-02		20.700
1		0.00		-9.60		6.255e-02		-38.116		1.921e-02		19.942
1		0.00		-10.00		5.969e-02		-37.079		1.542e-02		15.348
1		0.00		-9.60		6.139e-02		-38.137		1.562e-02		17.339
1		0.00		-9.20		6.377e-02		-32.301		1.790e-02		21.988
1		0.00		-8.80		6.064e-02		-40.641		1.762e-02		29.229
1		0.00		-8.40		6.814e-02		-40.888		1.760e-02		19.278
1		0.00		-8.00		6.942e-02		-36.249		1.541e-02		15.503
1		0.00		-7.60		6.254e-02		-41.794		1.614e-02		19.940
1		0.00		-7.20		6.393e-02		-42.149		1.714e-02		16.550
1		0.00		-6.80		6.502e-02		-44.517		1.506e-02		12.574
1		0.00		-6.40		6.114e-02		-50.761		1.774e-02		20.352
1		0.00		-6.00		5.879e-02		-49.355		1.644e-02		16.551
1		0.00		-5.60		5.992e-02		-49.012		1.528e-02		8.715
1		0.00		-5.20		5.519e-02		-48.913		1.057e-02		6.181
1		0.00		-4.80		5.144e-02		-50.830		1.167e-02		9.046
1		0.00		-4.40		4.846e-02		-51.848		1.220e-02		9.477
1		0.00		-4.00		4.474e-02		-52.648		9.816e-03		7.387
1		0.00		-3.60		3.990e-02		-51.156		6.919e-03		6.226
1		0.00		-3.20		3.513e-02		-50.406		8.140e-03		8.882
1		0.00		-2.80		3.086e-02		-49.948		7.122e-03		7.691
1		0.00		-2.40		2.744e-02		-48.713		4.479e-03		8.760
1		0.00		-2.00		2.229e-02		-48.316		3.959e-03		8.675
1		0.00		-1.60		1.761e-02		-43.838		3.786e-03		10.592
1		0.00		-1.20		1.294e-02		-42.895		2.449e-03		9.733
1		0.00		-0.80		7.857e-03		-39.341		1.756e-03		15.741
1		0.00		-0.40		3.434e-03		-32.350		1.166e-03		36.787
2		0.00		0.00		2.556e-03		67.620		1.122e-03		54.619
2		0.00		0.40		6.991e-03		118.053		1.920e-03		20.951
2		0.00		0.80		1.125e-02		127.441		2.489e-03		10.566
2		0.00		1.20		1.556e-02		127.223		3.837e-03		12.757
2		0.00		1.60		2.022e-02		127.550		4.362e-03		9.137
2		0.00		2.00		2.463e-02		127.755		4.271e-03		7.217
2		0.00		2.40		2.723e-02		128.946		6.028e-03		8.997
2		0.00		2.80		3.057e-02		128.806		7.818e-03		11.720
2		0.00		3.20		3.457e-02		129.087		7.095e-03		6.624
2		0.00		3.60		3.862e-02		130.877		7.436e-03		5.905
2		0.00		4.00		4.082e-02		129.958		1.030e-02		13.335
2		0.00		4.40		4.378e-02		130.039		1.106e-02		9.445
2		0.00		4.80		4.708e-02		132.078		8.629e-03		4.837
2		0.00		5.20		4.902e-02		131.213		1.139e-02		10.016
2		0.00		5.60		5.143e-02		130.802		1.376e-02		10.285
2		0.00		6.00		5.425e-02		132.046		1.270e-02		7.218
2		0.00		6.40		5.608e-02		133.704		1.114e-02		9.244
2		0.00		6.80		5.760e-02		131.665		1.503e-02		15.772
2		0.00		7.20		6.077e-02		131.925		1.583e-02		19.391
2		0.00		7.60		6.178e-02		136.544		1.312e-02		10.060
2		0.00		8.00		5.844e-02		127.747		1.444e-02		32.333
2		0.00		8.40		5.859e-02		127.015		1.685e-02		39.407
2		0.00		8.80		6.457e-02		124.582		1.842e-02		43.696
2		0.00		9.20		6.421e-02		124.486		1.550e-02		39.542
2		0.00		9.60		6.667e-02		129.751		1.864e-02		22.354
2		0.00		10.00		6.163e-02		122.016		2.020e-02		40.155
2		0.00		9.60		6.503e-02		132.374		1.807e-02		14.915
2		0.00		9.20		6.573e-02		130.082		1.561e-02		36.760
2		0.00		8.80		6.125e-02		125.832		1.922e-02		28.846
2		0.00		8.40		5.907e-02		131.397		1.723e-02		16.390
2		0.00		8.00		5.783e-02		134.475		1.448e-02		8.838
2		0.00		7.60		5.478e-02		131.592		1.406e-02		12.562
2		0.00		7.20		5.208e-02		129.865		1.539e-02		16.675
2		0.00		6.80		5.088e-02		130.560		1.347e-02		14.882
2		0.00		6.40		4.849e-02		130.886		1.097e-02		8.703
2		0.00		6.00		4.481e-02		132.243		8.997e-03		6.554
2		0.00		5.60		4.058e-02		130.165		1.039e-02		11.953
2		0.00		5.20		3.681e-02		129.936		9.782e-03		11.464
2		0.00		4.80		3.397e-02		132.362		7.698e-03		8.974
2		0.00		4.40		3.085e-02		132.486		6.125e-03		7.157
2		0.00		4.00		2.632e-02		131.770		6.016e-03		11.131
2		0.00		3.60		2.203e-02		129.870		4.925e-03		9.620
2		0.00		3.20		1.822e-02		133.817		3.201e-03		9.529
2		0.00		2.80		1.386e-02		129.057		2.485e-03		10.462
2		0.00		2.40		9.115e-03		129.526		2.024e-03		13.767
2		0.00		2.00		4.337e-03		123.910		1.320e-03		29.465
2		0.00		1.60		1.852e-03		-14.789		8.281e-04		60.702
2		0.00		1.20		6.012e-03		-50.048		1.731e-03		17.188
2		0.00		0.80		1.070e-02		-46.279		2.407e-03		13.454
2		0.00		0.40		1.544e-02		-47.024		3.633e-03		11.117
2		0.00		0.00		2.001e-02		-50.545		3.681e-03		9.786
2		0.00		-0.40		2.488e-02		-48.918		3.987e-03		7.616
2		0.00		-0.80		2.922e-02		-49.265		5.920e-03		7.320
2		0.00		-1.20		3.288e-02		-51.417		8.141e-03		8.725
2		0.00		-1.60		3.737e-02		-51.172		8.356e-03		8.512
2		0.00		-2.00		4.283e-02		-51.212		7.505e-03		7.393
2		0.00		-2.40		4.611e-02		-50.789		8.626e-03		7.057
2		0.00		-2.80		4.954e-02		-52.618		1.224e-02		12.290
2		0.00		-3.20		5.328e-02		-53.656		1.306e-02		9.267
2		0.00		-3.60		5.783e-02		-52.326		1.075e-02		6.964
2		0.00		-4.00		5.837e-02		-50.377		9.983e-03		5.634
2		0.00		-4.40		5.974e-02		-50.898		1.446e-02		10.350
2		0.00		-4.80		6.209e-02		-48.198		1.608e-02		10.617
2		0.00		-5.20		6.493e-02		-48.742		1.557e-02		11.168
2		0.00		-5.60		6.521e-02		-43.827		1.468e-02		14.542
2		0.00		-6.00		6.243e-02		-49.160		1.715e-02		22.216
2		0.00		-6.40		6.644e-02		-39.834		1.842e-02		14.701
2		0.00		-6.80		6.626e-02		-40.621		1.848e-02		20.945
2		0.00		-7.20		6.845e-02		-39.227		1.538e-02		18.009
2		0.00		-7.60		6.490e-02		-35.367		1.822e-02		27.189
2		0.00		-8.00		7.120e-02		-44.130		2.219e-02		25.186
2		0.00		-8.40		6.653e-02		-40.323		1.993e-02		30.603
2		0.00		-8.80		6.848e-02		-42.344		2.048e-02		23.384
2		0.00		-9.20		6.420e-02		-36.967		1.703e-02		20.016
2		0.00		-9.60		5.929e-02		-42.405		1.875e-02		21.136
2		0.00		-10.00		5.636e-02		-43.523		1.798e-02		17.648
2		0.00		-9.60		6.057e-02		-39.954		1.891e-02		21.571
2		0.00		-9.20		6.508e-02		-37.243		1.928e-02		14.029
2		0.00		-8.80		6.679e-02		-44.236		1.942e-02		20.501
2		0.00		-8.40		6.336e-02		-44.349		1.960e-02		24.423
2		0.00		-8.00		6.232e-02		-44.321		2.160e-02		25.579
2		0.00		-7.60		6.610e-02		-42.983		1.822e-02		18.964
2		0.00		-7.20		6.351e-02		-44.290		1.518e-02		12.594
2		0.00		-6.80		6.128e-02		-47.197		1.515e-02		15.587
2		0.00		-6.40		6.212e-02		-48.701		1.518e-02		14.622
2		0.00		-6.00		6.027e-02		-48.148		1.418e-02		8.765
2		0.00		-5.60		5.893e-02		-46.463		1.428e-02		10.151
2		0.00		-5.20		5.666e-02		-50.238		1.138e-02		7.260
2		0.00		-4.80		5.308e-02		-51.249		8.476e-03		6.157
2		0.00		-4.40		4.804e-02		-50.223		7.757e-03		5.305
2		0.00		-4.00		4.357e-02		-50.148		8.570e-03		7.953
2		0.00		-3.60		3.898e-02		-50.939		8.862e-03		9.135
2		0.00		-3.20		3.513e-02		-51.573		6.427e-03		7.161
2		0.00		-2.80		3.103e-02		-49.898		4.519e-03		6.773
2		0.00		-2.40		2.619e-02		-48.872		4.176e-03		7.614
2		0.00		-2.00		2.143e-02		-48.108		4.239e-03		8.881
2		0.00		-1.60		1.628e-02		-47.785		3.711e-03		12.375
2		0.00		-1.20		1.184e-02		-45.797		2.409e-03		11.567
2		0.00		-0.80		6.918e-03		-37.137		1.431e-03		16.074
2		0.00		-0.40		2.812e-03		-19.600		1.194e-03		40.702
3		0.00		0.00		3.413e-03		99.874		1.229e-03		38.405
3		0.00		0.40		7.412e-03		119.116		2.161e-03		18.042
3		0.00		0.80		1.233e-02		127.577		2.553e-03		10.764
3		0.00		1.20		1.678e-02		127.441		2.914e-03		9.479
3		0.00		1.60		2.103e-02		128.698		4.119e-03		8.255
3		0.00		2.00		2.513e-02		129.401		5.754e-03		9.429
3		0.00		2.40		2.868e-02		127.719		7.158e-03		9.562
3		0.00		2.80		3.392e-02		129.124		6.415e-03		6.593
3		0.00		3.20		3.758e-02		130.707		6.453e-03		6.995
3		0.00		3.60		4.013e-02		130.268		8.260e-03		8.470
3		0.00		4.00		4.287e-02		129.448		9.993e-03		11.436
3		0.00		4.40		4.595e-02		130.656		1.047e-02		7.362
3		0.00		4.80		5.026e-02		130.912		8.871e-03		6.312
3		0.00		5.20		5.129e-02		132.322		9.889e-03		8.223
3		0.00		5.60		5.308e-02		131.427		1.314e-02		11.162
3		0.00		6.00		5.579e-02		131.543		1.424e-02		9.736
3		0.00		6.40		5.738e-02		133.810		1.184e-02		7.686
3		0.00		6.80		5.649e-02		133.318		1.267e-02		13.803
3		0.00		7.20		5.892e-02		132.086		1.653e-02		16.122
3		0.00		7.60		5.953e-02		133.648		1.629e-02		24.407
3		0.00		8.00		6.399e-02		134.739		1.639e-02		10.495
3		0.00		8.40		6.319e-02		128.432		1.752e-02		25.854
3		0.00		8.80		6.227e-02		129.788		1.869e-02		22.956
3		0.00		9.20		6.348e-02		128.378		2.013e-02		31.212
3		0.00		9.60		6.187e-02		121.515		1.852e-02		51.574
3		0.00		10.00		6.262e-02		131.837		1.705e-02		21.808
3		0.00		9.60		6.250e-02		127.574		1.802e-02		29.094
3		0.00		9.20		6.181e-02		127.296		2.014e-02		29.594
3		0.00		8.80		6.201e-02		134.740		1.678e-02		16.667
3		0.00		8.40		6.222e-02		134.558		1.429e-02		8.445
3		0.00		8.00		5.908e-02		135.243		1.176e-02		10.279
3		0.00		7.60		5.690e-02		131.219		1.341e-02		14.528
3		0.00		7.20		5.528e-02		131.620		1.406e-02		13.543
3		0.00		6.80		5.390e-02		130.016		1.370e-02		9.162
3		0.00		6.40		5.105e-02		132.587		1.008e-02		6.598
3		0.00		6.00		4.668e-02		133.058		8.474e-03		6.247
3		0.00		5.60		4.283e-02		131.950		9.115e-03		8.694
3		0.00		5.20		3.914e-02		131.021		8.923e-03		12.061
3		0.00		4.80		3.531e-02		132.656		7.299e-03		8.483
3		0.00		4.40		3.166e-02		132.347		5.236e-03		6.660
3		0.00		4.00		2.707e-02		132.368		5.205e-03		8.771
3		0.00		3.60		2.300e-02		131.292		5.494e-03		10.955
3		0.00		3.20		1.820e-02		130.162		3.980e-03		7.946
3		0.00		2.80		1.401e-02		132.437		2.633e-03		9.559
3		0.00		2.40		9.907e-03		127.902		1.933e-03		11.084
3		0.00		2.00		4.910e-03		115.565		1.479e-03		26.247
3		0.00		1.60		1.866e-03		2.802		7.462e-04		70.380
3		0.00		1.20		5.491e-03		-49.877		1.881e-03		20.499
3		0.00		0.80		1.036e-02		-49.421		2.010e-03		11.985
3		0.00		0.40		1.477e-02		-44.813		3.205e-03		10.326
3		0.00		0.00		1.955e-02		-48.393		4.187e-03		8.846
3		0.00		-0.40		2.494e-02		-49.823		4.700e-03		6.860
3		0.00		-0.80		2.988e-02		-49.021		4.411e-03		6.936
3		0.00		-1.20		3.414e-02		-50.094		5.781e-03		6.517
3		0.00		-1.60		3.828e-02		-50.877		8.095e-03		9.487
3		0.00		-2.00		4.211e-02		-52.238		8.979e-03		8.537
3		0.00		-2.40		4.753e-02		-52.232		8.124e-03		5.493
3		0.00		-2.80		5.110e-02		-52.483		8.095e-03		4.990
3		0.00		-3.20		5.337e-02		-51.689		1.140e-02		8.623
3		0.00		-3.60		5.823e-02		-53.388		1.399e-02		10.357
3		0.00		-4.00		6.061e-02		-51.978		1.240e-02		6.348
3		0.00		-4.40		5.978e-02		-48.658		1.064e-02		8.142
3		0.00		-4.80		6.303e-02		-49.729		1.489e-02		13.179
3		0.00		-5.20		6.379e-02		-45.677		1.785e-02		15.240
3		0.00		-5.60		6.389e-02		-44.336		1.706e-02		13.039
3		0.00		-6.00		6.473e-02		-43.191		1.365e-02		14.329
3		0.00		-6.40		6.662e-02		-46.002		2.002e-02		21.969
3		0.00		-6.80		6.189e-02		-48.258		1.892e-02		26.495
3		0.00		-7.20		6.405e-02		-35.229		1.916e-02		24.939
3		0.00		-7.60		6.831e-02		-37.121		1.771e-02		18.936
3		0.00		-8.00		6.703e-02		-37.723		2.036e-02		26.457
3		0.00		-8.40		6.750e-02		-42.458		2.044e-02		26.214
3		0.00		-8.80		6.359e-02		-40.354		2.119e-02		25.027
3		0.00		-9.20		6.533e-02		-39.894		1.964e-02		25.826
3		0.00		-9.60		6.108e-02		-38.968		1.526e-02		18.124
3		0.00		-10.00		6.031e-02		-41.416		1.530e-02		11.748
3		0.00		-9.60		6.261e-02		-42.066		1.708e-02		14.333
3		0.00		-9.20		6.551e-02		-35.981		1.919e-02		22.370
3		0.00		-8.80		6.357e-02		-35.996		1.683e-02		16.965
3		0.00		-8.40		6.551e-02		-40.173		1.546e-02		19.977
3		0.00		-8.00		6.761e-02		-39.560		1.627e-02		19.447
3		0.00		-7.60		6.347e-02		-43.328		1.693e-02		18.523
3		0.00		-7.20		6.606e-02		-42.518		1.769e-02		11.626
3		0.00		-6.80		6.349e-02		-45.281		1.642e-02		9.839
3		0.00		-6.40		6.287e-02		-45.679		1.256e-02		6.136
3		0.00		-6.00		5.933e-02		-47.924		1.186e-02		9.873
3		0.00		-5.60		5.716e-02		-49.888		1.269e-02		11.836
3		0.00		-5.20		5.373e-02		-49.288		1.288e-02		10.642
3		0.00		-4.80		5.080e-02		-50.249		1.314e-02		10.587
3		0.00		-4.40		4.663e-02		-52.406		9.283e-03		6.250
3		0.00		-4.00		4.320e-02		-51.445		6.900e-03		5.453
3		0.00		-3.60		3.831e-02		-50.654		6.825e-03		6.882
3		0.00		-3.20		3.379e-02		-50.284		7.503e-03		8.001
3		0.00		-2.80		2.869e-02		-49.933		7.299e-03		10.244
3		0.00		-2.40		2.526e-02		-51.265		5.339e-03		8.622
3		0.00		-2.00		2.114e-02		-47.018		3.384e-03		6.809
3		0.00		-1.60		1.652e-02		-44.407		2.823e-03		8.121
3		0.00		-1.20		1.158e-02		-44.427		2.451e-03		12.575
3		0.00		-0.80		6.707e-03		-37.036		1.963e-03		20.346
3		0.00		-0.40		2.566e-03		-36.833		1.052e-03		44.242
4		0.00		0.00		3.178e-03		100.519		1.166e-03		36.439
4		0.00		0.40		7.687e-03		124.430		1.881e-03		14.191
4		0.00		0.80		1.161e-02		126.073		2.504e-03		9.714
4		0.00		1.20		1.612e-02		126.182		4.019e-03		12.257
4		0.00		1.60		2.090e-02		129.536		4.583e-03		7.897
4		0.00		2.00		2.516e-02		129.098		4.735e-03		7.093
4		0.00		2.40		2.919e-02		129.780		4.982e-03		6.973
4		0.00		2.80		3.225e-02		130.606		6.600e-03		8.058
4		0.00		3.20		3.475e-02		128.258		9.039e-03		13.670
4		0.00		3.60		3.792e-02		128.198		1.014e-02		11.615
4		0.00		4.00		4.170e-02		130.508		9.944e-03		7.211
4		0.00		4.40		4.506e-02		132.595		8.926e-03		5.189
4		0.00		4.80		4.632e-02		132.264		9.795e-03		6.056
4		0.00		5.20		4.890e-02		130.777		1.238e-02		12.529
4		0.00		5.60		5.123e-02		129.583		1.377e-02		16.755
4		0.00		6.00		5.411e-02		130.241		1.507e-02		10.871
4		0.00		6.40		5.633e-02		131.643		1.321e-02		7.608
4		0.00		6.80		5.782e-02		133.474		1.183e-02		8.414
4		0.00		7.20		5.937e-02		131.571		1.432e-02		14.607
4		0.00		7.60		6.215e-02		132.511		1.545e-02		12.366
4		0.00		8.00		6.425e-02		133.247		1.768e-02		20.041
4		0.00		8.40		6.399e-02		132.995		1.704e-02		26.389
4		0.00		8.80		6.525e-02		136.024		1.552e-02		13.319
4		0.00		9.20		6.720e-02		125.878		1.704e-02		41.809
4		0.00		9.60		6.412e-02		127.831		1.765e-02		30.724
4		0.00		10.00		6.301e-02		135.127		1.827e-02		22.234
4		0.00		9.60		6.458e-02		126.482		1.955e-02		39.945
4		0.00		9.20		6.631e-02		132.017		1.852e-02		17.938
4		0.00		8.80		6.459e-02		132.998		1.736e-02		9.887
4		0.00		8.40		6.069e-02		135.132		1.406e-02		9.113
4		0.00		8.00		5.850e-02		135.613		1.160e-02		10.234
4		0.00		7.60		5.591e-02		131.522		1.350e-02		13.043
4		0.00		7.20		5.395e-02		130.137		1.418e-02		14.689
4		0.00		6.80		5.170e-02		130.741		1.393e-02		13.316
4		0.00		6.40		4.913e-02		131.030		1.291e-02		11.685
4		0.00		6.00		4.592e-02		131.325		1.150e-02		6.900
4		0.00		5.60		4.294e-02		131.358		9.120e-03		6.600
4		0.00		5.20		3.966e-02		133.641		7.547e-03		5.680
4		0.00		4.80		3.535e-02		133.323		6.777e-03		6.217
4		0.00		4.40		3.099e-02		132.925		6.625e-03		9.971
4		0.00		4.00		2.729e-02		131.180		6.496e-03		13.122
4		0.00		3.60		2.330e-02		130.292		5.379e-03		10.901
4		0.00		3.20		1.920e-02		132.000		4.072e-03		8.702
4		0.00		2.80		1.481e-02		132.777		2.710e-03		9.696
4		0.00		2.40		1.065e-02		129.416		2.075e-03		10.798
4		0.00		2.00		5.816e-03		131.508		1.457e-03		14.247
4		0.00		1.60		1.961e-03		43.663		7.504e-04		67.299
4		0.00		1.20		3.884e-03		-41.972		1.288e-03		22.520
4		0.00		0.80		8.620e-03		-40.228		2.062e-03		11.587
4		0.00		0.40		1.341e-02		-49.225		2.735e-03		10.895
4		0.00		0.00		1.816e-02		-48.976		3.375e-03		9.409
4		0.00		-0.40		2.235e-02		-46.715		4.451e-03		8.729
4		0.00		-0.80		2.607e-02		-50.675		6.274e-03		10.024
4		0.00		-1.20		3.075e-02		-50.716		7.856e-03		9.549
4		0.00		-1.60		3.470e-02		-52.546		8.632e-03		8.953
4		0.00		-2.00		3.988e-02		-51.677		8.067e-03		6.236
4		0.00		-2.40		4.359e-02		-51.303		8.112e-03		4.997
4		0.00		-2.80		4.697e-02		-51.468		9.874e-03		7.534
4		0.00		-3.20		4.971e-02		-52.135		1.235e-02		11.047
4		0.00		-3.60		5.385e-02		-52.183		1.433e-02		11.726
4		0.00		-4.00		5.765e-02		-52.801		1.375e-02		7.747
4		0.00		-4.40		6.009e-02		-51.563		1.041e-02		8.238
4		0.00		-4.80		6.094e-02		-51.783		1.229e-02		13.079
4		0.00		-5.20		6.418e-02		-48.814		1.561e-02		11.391
4		0.00		-5.60		6.275e-02		-44.939		1.577e-02		14.575
4		0.00		-6.00		6.480e-02		-44.771		1.744e-02		17.153
4		0.00		-6.40		6.826e-02		-43.821		1.505e-02		12.978
4		0.00		-6.80		6.558e-02		-40.400		1.433e-02		16.726
4		0.00		-7.20		6.516e-02		-36.958		1.633e-02		22.245
4		0.00		-7.60		6.597e-02		-44.566		1.720e-02		22.519
4		0.00		-8.00		6.866e-02		-41.637		1.880e-02		23.662
4		0.00		-8.40		6.631e-02		-38.994		1.949e-02		22.669
4		0.00		-8.80		6.385e-02		-35.187		1.835e-02		23.754
4		0.00		-9.20		6.671e-02		-37.157		1.926e-02		18.278
4		0.00		-9.60		6.043e-02		-39.268		1.939e-02		18.865
4		0.00		-10.00		5.674e-02		-43.304		1.786e-02		21.481
4		0.00		-9.60		6.149e-02		-38.131		1.879e-02		18.977
4		0.00		-9.20		6.559e-02		-38.359		1.889e-02		16.216
4		0.00		-8.80		6.613e-02		-38.385		1.695e-02		16.627
4		0.00		-8.40		6.686e-02		-41.444		1.603e-02		13.015
4		0.00		-8.00		6.357e-02		-42.303		1.769e-02		18.663
4		0.00		-7.60		6.244e-02		-38.850		1.707e-02		19.010
4		0.00		-7.20		6.657e-02		-42.728		1.561e-02		9.489
4		0.00		-6.80		6.319e-02		-44.412		1.162e-02		8.779
4		0.00		-6.40		5.874e-02		-48.513		1.377e-02		14.917
4		0.00		-6.00		5.790e-02		-49.603		1.426e-02		16.577
4		0.00		-5.60		5.728e-02		-48.878		1.366e-02		13.433
4		0.00		-5.20		5.521e-02		-49.594		1.268e-02		7.734
4		0.00		-4.80		5.229e-02		-50.055		9.003e-03		4.674
4		0.00		-4.40		4.733e-02		-49.809		7.684e-03		5.592
4		0.00		-4.00		4.270e-02		-51.732		8.154e-03		7.786
4		0.00		-3.60		3.798e-02		-50.900		8.464e-03		8.319
4		0.00		-3.20		3.350e-02		-49.322		7.767e-03		7.065
4		0.00		-2.80		2.960e-02		-50.675		5.921e-03		7.779
4		0.00		-2.40		2.501e-02		-50.542		4.450e-03		7.444
4		0.00		-2.00		2.041e-02		-47.398		4.292e-03		9.047
4		0.00		-1.60		1.541e-02		-46.053		3.539e-03		8.656
4		0.00		-1.20		1.091e-02		-43.074		2.644e-03		11.658
4		0.00		-0.80		6.759e-03		-41.204		1.633e-03		14.092
4		0.00		-0.40		2.536e-03		-33.528		1.058e-03		48.049
5		0.00		0.00		3.221e-03		89.135		1.478e-03		34.563
5		0.00		0.40		7.544e-03		117.790		2.506e-03		22.083
5		0.00		0.80		1.199e-02		126.592		2.927e-03		11.049
5		0.00		1.20		1.651e-02		127.287		2.955e-03		9.338
5		0.00		1.60		2.116e-02		129.538		3.734e-03		8.612
5		0.00		2.00		2.554e-02		130.172		5.095e-03		9.709
5		0.00		2.40		2.888e-02		128.824		6.375e-03		10.095
5		0.00		2.80		3.327e-02		129.272		6.702e-03		8.050
5		0.00		3.20		3.724e-02		130.195		5.958e-03		5.935
5		0.00		3.60		4.021e-02		131.322		7.285e-03		7.351
5		0.00		4.00		4.291e-02		131.538		9.631e-03		11.315
5		0.00		4.40		4.576e-02		130.612		1.114e-02		7.976
5		0.00		4.80		4.934e-02		131.184		9.040e-03		6.341
5		0.00		5.20		5.119e-02		133.211		9.133e-03		6.452
5		0.00		5.60		5.236e-02		131.711		1.172e-02		10.516
5		0.00		6.00		5.483e-02		130.278		1.455e-02		13.778
5		0.00		6.40		5.791e-02		132.862		1.222e-02		6.378
5		0.00		6.80		5.856e-02		133.961		1.158e-02		10.400
5		0.00		7.20		5.993e-02		131.318		1.624e-02		19.004
5		0.00		7.60		6.074e-02		134.517		1.598e-02		14.143
5		0.00		8.00		6.364e-02		135.165		1.616e-02		9.996
5		0.00		8.40		6.343e-02		128.946		1.585e-02		40.745
5		0.00		8.80		6.495e-02		131.571		1.897e-02		23.353
5		0.00		9.20		6.198e-02		129.464		1.984e-02		30.607
5		0.00		9.60		6.429e-02		129.179		1.804e-02		26.572
5		0.00		10.00		6.232e-02		131.283		1.517e-02		34.065
5		0.00		9.60		6.734e-02		131.438		1.681e-02		23.322
5		0.00		9.20		6.539e-02		128.616		1.850e-02		24.562
5		0.00		8.80		6.413e-02		135.558		1.610e-02		18.429
5		0.00		8.40		6.346e-02		135.826		1.365e-02		9.677
5		0.00		8.00		5.883e-02		136.762		1.211e-02		11.892
5		0.00		7.60		6.000e-02		131.490		1.522e-02		15.004
5		0.00		7.20		5.617e-02		132.828		1.400e-02		12.491
5		0.00		6.80		5.484e-02		132.968		1.166e-02		6.156
5		0.00		6.40		5.127e-02		135.033		8.484e-03		5.562
5		0.00		6.00		4.821e-02		132.557		9.155e-03		8.525
5		0.00		5.60		4.478e-02		131.732		1.012e-02		10.382
5		0.00		5.20		4.025e-02		132.321		9.616e-03		7.023
5		0.00		4.80		3.726e-02		132.638		6.629e-03		5.627
5		0.00		4.40		3.293e-02		133.268		6.314e-03		6.920
5		0.00		4.00		2.799e-02		132.235		6.707e-03		11.381
5		0.00		3.60		2.403e-02		130.309		5.961e-03		10.389
5		0.00		3.20		1.996e-02		130.818		3.517e-03		8.408
5		0.00		2.80		1.594e-02		130.987		2.615e-03		7.241
5		0.00		2.40		1.097e-02		129.771		2.705e-03		13.131
5		0.00		2.00		6.375e-03		119.318		2.010e-03		24.153
5		0.00		1.60		2.360e-03		70.505		1.076e-03		75.485
5		0.00		1.20		3.414e-03		-54.799		1.429e-03		31.425
5		0.00		0.80		8.107e-03		-47.183		2.127e-03		12.316
5		0.00		0.40		1.256e-02		-47.810		2.957e-03		10.533
5		0.00		0.00		1.736e-02		-48.003		3.221e-03		9.767
5		0.00		-0.40		2.229e-02		-47.798		3.170e-03		6.761
5		0.00		-0.80		2.684e-02		-46.489		3.944e-03		7.743
5		0.00		-1.20		3.091e-02		-49.979		6.038e-03		7.727
5		0.00		-1.60		3.536e-02		-51.012		6.733e-03		7.579
5		0.00		-2.00		4.013e-02		-51.614		5.887e-03		6.169
5		0.00		-2.40		4.372e-02		-50.448		7.815e-03		8.594
5		0.00		-2.80		4.784e-02		-51.750		1.021e-02		8.565
5		0.00		-3.20		5.126e-02		-53.084		1.166e-02		8.010
5		0.00		-3.60		5.552e-02		-52.453		8.287e-03		5.925
5		0.00		-4.00		5.737e-02		-52.488		1.099e-02		9.072
5		0.00		-4.40		5.740e-02		-52.108		1.496e-02		13.432
5		0.00		-4.80		6.226e-02		-49.825		1.560e-02		9.258
5		0.00		-5.20		6.096e-02		-47.376		1.205e-02		12.205
5		0.00		-5.60		6.609e-02		-45.931		1.276e-02		8.774
5		0.00		-6.00		6.343e-02		-47.841		1.708e-02		17.063
5		0.00		-6.40		6.614e-02		-40.679		1.584e-02		13.513
5		0.00		-6.80		6.493e-02		-47.755		1.744e-02		23.544
5		0.00		-7.20		6.718e-02		-39.682		1.598e-02		18.811
5		0.00		-7.60		6.516e-02		-40.278		1.972e-02		21.264
5		0.00		-8.00		6.778e-02		-37.884		1.778e-02		19.195
5		0.00		-8.40		7.061e-02		-38.712		1.601e-02		20.009
5		0.00		-8.80		6.859e-02		-40.125		1.947e-02		20.008
5		0.00		-9.20		6.367e-02		-33.773		1.749e-02		25.223
5		0.00		-9.60		6.490e-02		-38.527		1.812e-02		17.959
5		0.00		-10.00		5.709e-02		-41.758		1.364e-02		14.706
5		0.00		-9.60		6.328e-02		-41.840		1.737e-02		17.672
5		0.00		-9.20		6.202e-02		-36.856		1.660e-02		21.172
5		0.00		-8.80		6.658e-02		-37.459		1.688e-02		17.537
5		0.00		-8.40		6.550e-02		-41.235		1.661e-02		21.147
5		0.00		-8.00		6.650e-02		-39.835		1.786e-02		16.705
5		0.00		-7.60		6.735e-02		-41.621		1.592e-02		15.055
5		0.00		-7.20		6.627e-02		-44.351		1.602e-02		17.153
5		0.00		-6.80		6.306e-02		-46.301		1.637e-02		16.075
5		0.00		-6.40		6.152e-02		-49.568		1.684e-02		18.620
5		0.00		-6.00		6.097e-02		-46.903		1.461e-02		7.738
5		0.00		-5.60		5.872e-02		-48.633		1.142e-02		7.841
5		0.00		-5.20		5.416e-02		-49.915		1.171e-02		8.214
5		0.00		-4.80		5.073e-02		-51.071		1.242e-02		10.838
5		0.00		-4.40		4.801e-02		-51.679		9.971e-03		5.680
5		0.00		-4.00		4.349e-02		-51.440		7.148e-03		5.586
5		0.00		-3.60		3.821e-02		-49.375		8.085e-03		7.537
5		0.00		-3.20		3.361e-02		-51.414		7.917e-03		8.985
5		0.00		-2.80		2.987e-02		-49.582		5.175e-03		6.897
5		0.00		-2.40		2.533e-02		-47.001		4.437e-03		7.590
5		0.00		-2.00		2.026e-02		-47.410		3.918e-03		11.129
5		0.00		-1.60		1.590e-02		-44.795		2.738e-03		9.950
5		0.00		-1.20		1.168e-02		-45.229		1.896e-03		9.979
5		0.00		-0.80		6.907e-03		-45.422		1.599e-03		17.545
5		0.00		-0.40		2.346e-03		-21.974		1.057e-03		42.365
6		0.00		0.00		3.853e-03		103.359		1.452e-03		29.097
6		0.00		0.40		8.164e-03		121.137		1.812e-03		12.785
6		0.00		0.80		1.222e-02		126.204		2.492e-03		14.435
6		0.00		1.20		1.670e-02		128.823		3.507e-03		10.036
6		0.00		1.60		2.154e-02		131.096		3.294e-03		8.556
6		0.00		2.00		2.521e-02		128.830		4.298e-03		6.318
6		0.00		2.40		2.885e-02		128.446		6.474e-03		9.658
6		0.00		2.80		3.303e-02		130.611		6.548e-03		7.019
6		0.00		3.20		3.725e-02		131.936		5.948e-03		5.225
6		0.00		3.60		3.912e-02		130.777		8.788e-03		8.567
6		0.00		4.00		4.107e-02		129.783		1.002e-02		8.958
6		0.00		4.40		4.559e-02		131.712		7.882e-03		5.961
6		0.00		4.80		4.810e-02		132.127		9.131e-03		7.529
6		0.00		5.20		4.961e-02		131.150		1.253e-02		11.299
6		0.00		5.60		5.374e-02		131.702		1.179e-02		6.060
6		0.00		6.00		5.480e-02		132.717		9.929e-03		7.015
6		0.00		6.40		5.531e-02		132.307		1.375e-02		13.849
6		0.00		6.80		5.930e-02		133.582		1.525e-02		8.233
6		0.00		7.20		6.002e-02		134.581		1.206e-02		11.301
6		0.00		7.60		6.133e-02		134.622		1.353e-02		19.633
6		0.00		8.00		6.411e-02		134.679		1.642e-02		14.858
6		0.00		8.40		6.526e-02		131.164		1.469e-02		27.752
6		0.00		8.80		6.412e-02		128.231		1.777e-02		22.658
6		0.00		9.20		6.373e-02		125.601		1.839e-02		40.524
6		0.00		9.60		6.365e-02		125.548		1.747e-02		40.830
6		0.00		10.00		6.351e-02		131.617		1.603e-02		19.407
6		0.00		9.60		6.597e-02		128.515		1.697e-02		24.026
6		0.00		9.20		6.643e-02		131.432		1.835e-02		24.506
6		0.00		8.80		6.341e-02		133.337		1.536e-02		20.812
6		0.00		8.40		6.061e-02		136.023		1.198e-02		11.019
6		0.00		8.00		5.834e-02		131.729		1.548e-02		16.783
6		0.00		7.60		5.704e-02		130.274		1.586e-02		20.133
6		0.00		7.20		5.639e-02		132.102		1.306e-02		8.341
6		0.00		6.80		5.319e-02		133.438		1.116e-02		7.762
6		0.00		6.40		4.880e-02		129.441		1.316e-02		16.293
6		0.00		6.00		4.593e-02		130.886		1.205e-02		7.837
6		0.00		5.60		4.322e-02		132.285		8.180e-03		5.742
6		0.00		5.20		3.929e-02		132.433		8.526e-03		9.274
6		0.00		4.80		3.473e-02		129.913		8.634e-03		13.982
6		0.00		4.40		3.130e-02		131.754		6.700e-03		7.093
6		0.00		4.00		2.813e-02		131.512		4.937e-03		7.742
6		0.00		3.60		2.379e-02		130.377		5.505e-03		12.246
6		0.00		3.20		1.923e-02		131.499		4.138e-03		9.472
6		0.00		2.80		1.529e-02		131.407		2.594e-03		8.622
6		0.00		2.40		1.058e-02		129.926		2.115e-03		11.554
6		0.00		2.00		5.363e-03		122.434		1.471e-03		17.554
6		0.00		1.60		1.929e-03		42.828		7.689e-04		71.676
6		0.00		1.20		3.813e-03		-39.953		1.215e-03		26.988
6		0.00		0.80		8.209e-03		-48.213		1.964e-03		14.105
6		0.00		0.40		1.304e-02		-46.716		2.754e-03		12.823
6		0.00		0.00		1.800e-02		-46.007		2.751e-03		8.690
6		0.00		-0.40		2.227e-02		-48.880		4.370e-03		8.783
6		0.00		-0.80		2.673e-02		-49.900		5.298e-03		8.896
6		0.00		-1.20		3.201e-02		-49.460		4.471e-03		6.765
6		0.00		-1.60		3.565e-02		-49.535		6.199e-03		6.815
6		0.00		-2.00		3.968e-02		-50.717		8.737e-03		7.220
6		0.00		-2.40		4.409e-02		-52.569		7.588e-03		6.490
6		0.00		-2.80		4.835e-02		-49.609		7.749e-03		5.220
6		0.00		-3.20		5.032e-02		-51.606		1.168e-02		9.986
6		0.00		-3.60		5.481e-02		-51.813		1.197e-02		7.242
6		0.00		-4.00		5.811e-02		-51.384		9.124e-03		5.108
6		0.00		-4.40		5.961e-02		-51.963		1.420e-02		12.752
6		0.00		-4.80		6.276e-02		-50.123		1.703e-02		9.524
6		0.00		-5.20		6.187e-02		-46.132		1.045e-02		8.608
6		0.00		-5.60		6.532e-02		-47.835		1.540e-02		14.458
6		0.00		-6.00		6.460e-02		-42.863		1.549e-02		12.532
6		0.00		-6.40		6.936e-02		-41.102		1.430e-02		13.525
6		0.00		-6.80		6.713e-02		-37.363		1.491e-02		15.238
6		0.00		-7.20		6.750e-02		-38.524		1.967e-02		21.335
6		0.00		-7.60		6.956e-02		-45.080		1.746e-02		19.070
6		0.00		-8.00		7.187e-02		-38.213		1.624e-02		19.837
6		0.00		-8.40		6.541e-02		-41.817		1.821e-02		27.644
6		0.00		-8.80		6.477e-02		-32.697		1.797e-02		21.972
6		0.00		-9.20		6.889e-02		-36.077		1.727e-02		18.855
6		0.00		-9.60		6.481e-02		-40.799		1.769e-02		16.528
6		0.00		-10.00		5.931e-02		-39.844		1.678e-02		14.149
6		0.00		-9.60		6.288e-02		-38.632		1.647e-02		16.588
6		0.00		-9.20		6.376e-02		-40.708		1.739e-02		17.082
6		0.00		-8.80		6.517e-02		-41.771		1.929e-02		23.108
6		0.00		-8.40		6.734e-02		-40.510		1.867e-02		16.532
6		0.00		-8.00		7.004e-02		-41.468		1.656e-02		16.234
6		0.00		-7.60		6.432e-02		-41.434		1.692e-02		14.230
6		0.00		-7.20		6.274e-02		-41.869		1.776e-02		17.632
6		0.00		-6.80		6.312e-02		-43.635		1.383e-02		9.325
6		0.00		-6.40		6.155e-02		-49.335		1.559e-02		16.658
6		0.00		-6.00		5.943e-02		-47.691		1.531e-02		10.779
6		0.00		-5.60		5.898e-02		-48.883		1.368e-02		7.066
6		0.00		-5.20		5.427e-02		-49.468		9.633e-03		7.054
6		0.00		-4.80		5.034e-02		-49.953		1.125e-02		9.880
6		0.00		-4.40		4.718e-02		-51.865		1.055e-02		8.099
6		0.00		-4.00		4.410e-02		-51.177		6.469e-03		5.616
6		0.00		-3.60		3.945e-02		-50.438		6.331e-03		6.768
6		0.00		-3.20		3.419e-02		-49.224		7.009e-03		6.717
6		0.00		-2.80		2.999e-02		-49.608		5.007e-03		7.086
6		0.00		-2.40		2.598e-02		-47.134		3.734e-03		7.183
6		0.00		-2.00		2.096e-02		-45.307		3.762e-03		9.965
6		0.00		-1.60		1.665e-02		-46.188		3.194e-03		9.282
6		0.00		-1.20		1.210e-02		-45.683		1.873e-03		9.806
6		0.00		-0.80		7.416e-03		-35.098		1.669e-03		15.734
6		0.00		-0.40		2.670e-03		-38.342		1.140e-03		30.939
7		0.00		0.00		2.724e-03		75.749		1.084e-03		52.444
7		0.00		0.40		7.457e-03		124.926		1.758e-03		13.370
7		0.00		0.80		1.166e-02		125.457		2.635e-03		14.821
7		0.00		1.20		1.651e-02		128.711		2.670e-03		8.056
7		0.00		1.60		2.068e-02		129.029		3.280e-03		6.981
7		0.00		2.00		2.405e-02		128.816		5.413e-03		11.303
7		0.00		2.40		2.815e-02		129.606		5.544e-03		7.762
7		0.00		2.80		3.292e-02		130.427		5.074e-03		6.202
7		0.00		3.20		3.552e-02		130.567		7.933e-03		8.284
7		0.00		3.60		3.901e-02		130.576		8.093e-03		7.563
7		0.00		4.00		4.305e-02		131.470		6.334e-03		5.634
7		0.00		4.40		4.499e-02		131.675		9.887e-03		6.752
7		0.00		4.80		4.782e-02		130.562		1.141e-02		9.792
7		0.00		5.20		5.159e-02		132.958		8.835e-03		5.737
7		0.00		5.60		5.306e-02		132.213		1.185e-02		8.822
7		0.00		6.00		5.548e-02		131.834		1.335e-02		10.387
7		0.00		6.40		5.707e-02		133.281		1.072e-02		8.467
7		0.00		6.80		5.778e-02		132.196		1.370e-02		14.761
7		0.00		7.20		6.123e-02		132.928		1.508e-02		17.743
7		0.00		7.60		6.126e-02		136.164		1.209e-02		10.055
7		0.00		8.00		6.528e-02		129.579		1.691e-02		24.511
7		0.00		8.40		6.444e-02		134.940		1.656e-02		18.679
7		0.00		8.80		6.822e-02		134.614		1.437e-02		20.268
7		0.00		9.20		6.587e-02		132.407		1.800e-02		25.515
7		0.00		9.60		6.308e-02		132.395		1.844e-02		23.942
7		0.00		10.00		6.459e-02		135.503		1.772e-02		17.982
7		0.00		9.60		6.268e-02		129.246		1.777e-02		28.155
7		0.00		9.20		6.339e-02		130.535		1.991e-02		28.100
7		0.00		8.80		6.519e-02		131.793		1.829e-02		11.585
7		0.00		8.40		6.095e-02		133.484		1.452e-02		13.431
7		0.00		8.00		5.786e-02		131.227		1.649e-02		15.710
7		0.00		7.60		5.754e-02		130.859		1.595e-02		13.277
7		0.00		7.20		5.587e-02		132.932		1.200e-02		6.016
7		0.00		6.80		5.149e-02		130.848		1.327e-02		12.405
7		0.00		6.40		4.943e-02		131.052		1.289e-02		14.349
7		0.00		6.00		4.709e-02		132.471		9.395e-03		6.570
7		0.00		5.60		4.323e-02		132.503		8.824e-03		7.239
7		0.00		5.20		3.946e-02		132.152		8.975e-03		9.991
7		0.00		4.80		3.638e-02		131.485		6.716e-03		7.119
7		0.00		4.40		3.319e-02		133.529		5.315e-03		6.297
7		0.00		4.00		2.850e-02		131.729		5.869e-03		11.064
7		0.00		3.60		2.427e-02		131.897		4.936e-03		7.802
7		0.00		3.20		2.075e-02		131.876		3.224e-03		7.505
7		0.00		2.80		1.604e-02		131.917		3.100e-03		11.349
7		0.00		2.40		1.099e-02		129.637		2.424e-03		11.204
7		0.00		2.00		7.036e-03		130.195		1.602e-03		14.843
7		0.00		1.60		2.501e-03		85.644		1.006e-03		57.414
7		0.00		1.20		3.123e-03		-51.488		1.154e-03		35.354
7		0.00		0.80		7.538e-03		-48.930		1.722e-03		14.761
7		0.00		0.40		1.251e-02		-46.439		2.290e-03		9.636
7		0.00		0.00		1.661e-02		-48.794		4.026e-03		11.063
7		0.00		-0.40		2.130e-02		-47.373		3.985e-03		7.993
7		0.00		-0.80		2.592e-02		-49.638		3.856e-03		8.152
7		0.00		-1.20		3.034e-02		-49.586		6.086e-03		7.756
7		0.00		-1.60		3.445e-02		-51.322		7.317e-03		8.237
7		0.00		-2.00		3.918e-02		-51.422		6.138e-03		6.984
7		0.00		-2.40		4.280e-02		-50.318		8.498e-03		7.556
7		0.00		-2.80		4.665e-02		-52.370		1.063e-02		7.548
7		0.00		-3.20		5.137e-02		-52.215		7.587e-03		5.153
7		0.00		-3.60		5.406e-02		-51.051		1.035e-02		6.224
7		0.00		-4.00		5.788e-02		-51.914		1.380e-02		7.579
7		0.00		-4.40		6.108e-02		-51.846		1.098e-02		7.113
7		0.00		-4.80		6.326e-02		-49.741		1.269e-02		8.286
7		0.00		-5.20		6.318e-02		-46.183		1.355e-02		7.026
7		0.00		-5.60		6.537e-02		-44.564		1.154e-02		10.033
7		0.00		-6.00		6.628e-02		-44.291		1.375e-02		14.774
7		0.00		-6.40		6.568e-02		-39.167		1.748e-02		21.245
7		0.00		-6.80		6.760e-02		-40.808		1.551e-02		15.676
7		0.00		-7.20		6.522e-02		-37.252		1.340e-02		18.463
7		0.00		-7.60		6.348e-02		-40.389		1.813e-02		24.420
7		0.00		-8.00		6.756e-02		-41.112		1.820e-02		23.700
7		0.00		-8.40		6.902e-02		-42.787		1.838e-02		26.101
7		0.00		-8.80		6.658e-02		-36.786		1.834e-02		19.433
7		0.00		-9.20		6.255e-02		-31.490		1.971e-02		22.004
7		0.00		-9.60		6.282e-02		-39.548		1.648e-02		14.835
7		0.00		-10.00		5.683e-02		-42.647		1.635e-02		17.058
7		0.00		-9.60		6.010e-02		-37.967		1.794e-02		21.354
7		0.00		-9.20		6.401e-02		-35.816		1.686e-02		15.941
7		0.00		-8.80		6.441e-02		-42.548		1.775e-02		20.016
7		0.00		-8.40		6.563e-02		-41.563		1.885e-02		17.943
7		0.00		-8.00		6.325e-02		-38.998		1.672e-02		17.137
7		0.00		-7.60		6.622e-02		-43.956		1.702e-02		18.183
7		0.00		-7.20		6.577e-02		-43.661		1.689e-02		16.315
7		0.00		-6.80		6.337e-02		-44.950		1.613e-02		12.966
7		0.00		-6.40		6.470e-02		-46.317		1.276e-02		6.603
7		0.00		-6.00		6.039e-02		-47.965		1.067e-02		9.746
7		0.00		-5.60		5.817e-02		-48.028		1.260e-02		9.281
7		0.00		-5.20		5.626e-02		-48.681		1.265e-02		6.849
7		0.00		-4.80		5.305e-02		-50.241		8.172e-03		5.774
7		0.00		-4.40		4.817e-02		-50.298		7.922e-03		6.572
7		0.00		-4.00		4.344e-02		-50.194		8.941e-03		8.111
7		0.00		-3.60		3.968e-02		-51.922		6.871e-03		7.275
7		0.00		-3.20		3.570e-02		-50.735		4.826e-03		6.219
7		0.00		-2.80		3.062e-02		-49.107		5.414e-03		7.707
7		0.00		-2.40		2.597e-02		-46.741		5.210e-03		7.160
7		0.00		-2.00		2.157e-02		-45.833		3.310e-03		8.749
7		0.00		-1.60		1.671e-02		-40.692		2.554e-03		7.076
7		0.00		-1.20		1.177e-02		-41.314		2.458e-03		11.544
7		0.00		-0.80		7.467e-03		-41.060		1.818e-03		15.467
7		0.00		-0.40		3.153e-03		-41.018		1.077e-03		29.920
8		0.00		0.00		2.891e-03		95.744		9.801e-04		40.050
8		0.00		0.40		7.021e-03		114.892		1.667e-03		21.798
8		0.00		0.80		1.137e-02		126.589		2.388e-03		10.169
8		0.00		1.20		1.624e-02		128.591		2.589e-03		9.607
8		0.00		1.60		2.024e-02		127.674		3.599e-03		8.825
8		0.00		2.00		2.412e-02		129.323		5.667e-03		8.837
8		0.00		2.40		2.900e-02		129.611		4.624e-03		6.776
8		0.00		2.80		3.328e-02		131.162		4.874e-03		5.914
8		0.00		3.20		3.636e-02		130.476		7.389e-03		7.345
8		0.00		3.60		3.915e-02		131.152		8.684e-03		9.762
8		0.00		4.00		4.368e-02		131.943		7.033e-03		4.972
8		0.00		4.40		4.688e-02		132.284		7.584e-03		5.188
8		0.00		4.80		4.898e-02		131.112		1.086e-02		10.994
8		0.00		5.20		5.173e-02		131.243		1.204e-02		9.303
8		0.00		5.60		5.579e-02		131.902		9.617e-03		4.920
8		0.00		6.00		5.609e-02		132.474		1.051e-02		7.512
8		0.00		6.40		5.780e-02		130.783		1.407e-02		15.548
8		0.00		6.80		6.014e-02		133.572		1.486e-02		8.530
8		0.00		7.20		5.976e-02		135.182		1.146e-02		7.899
8		0.00		7.60		5.998e-02		131.168		1.487e-02		24.179
8		0.00		8.00		6.100e-02		133.699		1.648e-02		15.771
8		0.00		8.40		6.223e-02		136.018		1.694e-02		19.974
8		0.00		8.80		6.430e-02		136.316		1.438e-02		22.433
8		0.00		9.20		6.298e-02		134.467		1.781e-02		19.655
8		0.00		9.60		6.230e-02		120.249		1.958e-02		58.016
8		0.00		10.00		6.035e-02		139.943		1.756e-02		14.192
8		0.00		9.60		6.579e-02		133.476		1.783e-02		12.276
8		0.00		9.20		6.594e-02		132.799		1.625e-02		14.179
8		0.00		8.80		6.055e-02		131.650		1.775e-02		25.304
8		0.00		8.40		6.226e-02		134.960		1.736e-02		16.747
8		0.00		8.00		6.190e-02		134.188		1.497e-02		7.456
8		0.00		7.60		5.994e-02		134.867		1.119e-02		6.639
8		0.00		7.20		5.651e-02		132.910		1.078e-02		8.373
8		0.00		6.80		5.349e-02		133.120		1.251e-02		9.243
8		0.00		6.40		5.182e-02		131.360		1.239e-02		9.976
8		0.00		6.00		4.892e-02		132.219		9.449e-03		5.074
8		0.00		5.60		4.491e-02		131.676		7.504e-03		5.028
8		0.00		5.20		4.137e-02		133.741		7.703e-03		8.139
8		0.00		4.80		3.702e-02		131.950		7.880e-03		10.250
8		0.00		4.40		3.343e-02		131.788		6.970e-03		9.504
8		0.00		4.00		3.005e-02		131.816		4.565e-03		7.239
8		0.00		3.60		2.551e-02		132.641		3.710e-03		6.344
8		0.00		3.20		2.054e-02		133.348		3.983e-03		8.779
8		0.00		2.80		1.542e-02		131.225		3.678e-03		12.583
8		0.00		2.40		1.144e-02		130.482		2.686e-03		9.600
8		0.00		2.00		7.647e-03		133.182		1.613e-03		11.260
8		0.00		1.60		3.211e-03		103.696		9.924e-04		51.552
8		0.00		1.20		2.598e-03		-28.339		1.097e-03		40.018
8		0.00		0.80		7.034e-03		-48.173		1.976e-03		15.251
8		0.00		0.40		1.200e-02		-49.287		2.402e-03		10.915
8		0.00		0.00		1.684e-02		-48.370		2.319e-03		8.357
8		0.00		-0.40		2.078e-02		-47.421		3.407e-03		8.023
8		0.00		-0.80		2.550e-02		-48.954		5.067e-03		7.273
8		0.00		-1.20		2.958e-02		-49.816		5.946e-03		8.245
8		0.00		-1.60		3.576e-02		-50.503		5.795e-03		6.299
8		0.00		-2.00		4.005e-02		-50.467		6.196e-03		4.903
8		0.00		-2.40		4.370e-02		-50.209		7.413e-03		5.786
8		0.00		-2.80		4.737e-02		-51.541		9.877e-03		9.132
8		0.00		-3.20		5.121e-02		-52.133		1.063e-02		7.012
8		0.00		-3.60		5.584e-02		-53.184		9.352e-03		6.183
8		0.00		-4.00		5.816e-02		-51.539		1.020e-02		7.732
8		0.00		-4.40		5.988e-02		-50.351		1.291e-02		7.233
8		0.00		-4.80		6.050e-02		-49.760		1.558e-02		9.944
8		0.00		-5.20		6.196e-02		-46.119		1.231e-02		8.352
8		0.00		-5.60		6.257e-02		-44.340		1.274e-02		12.608
8		0.00		-6.00		6.470e-02		-42.798		1.540e-02		13.860
8		0.00		-6.40		6.191e-02		-39.574		1.608e-02		16.416
8		0.00		-6.80		6.413e-02		-43.058		1.682e-02		16.593
8		0.00		-7.20		6.565e-02		-39.569		1.742e-02		21.839
8		0.00		-7.60		6.445e-02		-37.527		1.634e-02		23.681
8		0.00		-8.00		7.000e-02		-42.758		1.935e-02		18.126
8		0.00		-8.40		6.531e-02		-41.667		1.955e-02		27.842
8		0.00		-8.80		6.740e-02		-35.472		1.795e-02		16.704
8		0.00		-9.20		6.337e-02		-38.699		1.605e-02		17.007
8		0.00		-9.60		6.045e-02		-37.732		1.683e-02		16.809
8		0.00		-10.00		5.802e-02		-39.763		1.559e-02		11.260
8		0.00		-9.60		6.399e-02		-38.993		1.766e-02		19.674
8		0.00		-9.20		6.473e-02		-38.025		1.591e-02		16.831
8		0.00		-8.80		6.660e-02		-39.294		1.643e-02		19.671
8		0.00		-8.40		6.585e-02		-34.200		1.483e-02		16.236
8		0.00		-8.00		6.619e-02		-36.605		1.900e-02		25.433
8		0.00		-7.60		6.386e-02		-38.236		1.739e-02		17.135
8		0.00		-7.20		6.740e-02		-43.763		1.320e-02		11.418
8		0.00		-6.80		6.275e-02		-46.634		1.273e-02		14.790
8		0.00		-6.40		6.485e-02		-47.009		1.432e-02		11.818
8		0.00		-6.00		6.146e-02		-48.078		1.462e-02		10.214
8		0.00		-5.60		5.998e-02		-48.204		1.389e-02		6.886
8		0.00		-5.20		5.714e-02		-49.457		9.438e-03		5.745
8		0.00		-4.80		5.219e-02		-48.969		7.620e-03		5.056
8		0.00		-4.40		4.784e-02		-50.168		9.334e-03		7.198
8		0.00		-4.00		4.322e-02		-51.949		9.704e-03		7.990
8		0.00		-3.60		3.917e-02		-51.222		7.598e-03		7.180
8		0.00		-3.20		3.613e-02		-50.931		5.244e-03		5.990
8		0.00		-2.80		3.096e-02		-49.063		5.061e-03		6.446
8		0.00		-2.40		2.634e-02		-48.739		4.698e-03		6.017
8		0.00		-2.00		2.097e-02		-46.406		4.365e-03		8.294
8		0.00		-1.60		1.699e-02		-45.761		3.132e-03		7.932
8		0.00		-1.20		1.237e-02		-45.368		1.999e-03		10.159
8		0.00		-0.80		7.891e-03		-38.413		1.768e-03		16.328
8		0.00		-0.40		3.259e-03		-48.487		1.337e-03		29.477
