# Date of analysis: 2024-03-08 10;59
# Segment other properties: height: -61.82942050669858, diff height: 527.5517205789953, deflection: 33.318120320629596, deflection error: 2.88771585788183, adhesion: 46.96834123750021, phase offset: 0
# 
# Loop index	Read Volt (V)	Write Volt (V)	Amplitude (a.u)	Phase (deg)	Sigma Amp (a.u)	Sigma Pha (deg)	
1		0.00		0.00		2.691e-02		-47.082		5.344e-03		13.015
1		0.00		0.40		2.210e-02		-48.734		4.115e-03		9.874
1		0.00		0.80		1.569e-02		-50.826		3.687e-03		12.534
1		0.00		1.20		9.644e-03		-50.479		2.205e-03		16.352
1		0.00		1.60		4.073e-03		-55.634		1.328e-03		26.080
1		0.00		2.00		2.637e-03		84.545		9.994e-04		62.255
1		0.00		2.40		7.976e-03		130.980		1.994e-03		18.215
1		0.00		2.80		1.342e-02		132.569		3.310e-03		16.045
1		0.00		3.20		1.844e-02		130.594		4.637e-03		15.661
1		0.00		3.60		2.361e-02		128.957		6.381e-03		15.272
1		0.00		4.00		2.800e-02		129.775		7.482e-03		13.941
1		0.00		4.40		3.249e-02		130.149		9.011e-03		14.706
1		0.00		4.80		3.651e-02		128.450		1.052e-02		16.049
1		0.00		5.20		3.968e-02		128.728		1.114e-02		16.351
1		0.00		5.60		4.305e-02		129.651		1.245e-02		16.948
1		0.00		6.00		4.566e-02		129.159		1.354e-02		18.542
1		0.00		6.40		4.874e-02		127.758		1.536e-02		20.574
1		0.00		6.80		5.211e-02		129.312		1.571e-02		21.853
1		0.00		7.20		5.396e-02		130.617		1.574e-02		19.093
1		0.00		7.60		5.734e-02		132.353		1.680e-02		18.288
1		0.00		8.00		5.770e-02		131.176		1.699e-02		22.412
1		0.00		8.40		5.629e-02		128.321		1.642e-02		33.399
1		0.00		8.80		5.911e-02		127.249		1.922e-02		32.476
1		0.00		9.20		5.814e-02		121.302		1.942e-02		30.562
1		0.00		9.60		5.730e-02		122.129		1.914e-02		39.861
1		0.00		10.00		5.743e-02		131.882		1.838e-02		18.690
1		0.00		9.60		5.598e-02		117.653		1.875e-02		52.745
1		0.00		9.20		5.676e-02		126.562		1.896e-02		25.368
1		0.00		8.80		5.413e-02		127.070		1.838e-02		20.552
1		0.00		8.40		5.185e-02		127.619		1.775e-02		20.269
1		0.00		8.00		5.042e-02		127.730		1.687e-02		17.794
1		0.00		7.60		4.752e-02		127.519		1.592e-02		20.618
1		0.00		7.20		4.499e-02		128.927		1.459e-02		17.689
1		0.00		6.80		4.219e-02		126.989		1.365e-02		21.345
1		0.00		6.40		3.833e-02		129.129		1.156e-02		18.439
1		0.00		6.00		3.441e-02		128.915		1.037e-02		18.996
1		0.00		5.60		3.066e-02		130.046		8.576e-03		17.716
1		0.00		5.20		2.730e-02		129.797		7.217e-03		16.173
1		0.00		4.80		2.307e-02		129.305		5.940e-03		20.381
1		0.00		4.40		1.875e-02		130.807		4.601e-03		15.957
1		0.00		4.00		1.369e-02		131.067		3.486e-03		19.701
1		0.00		3.60		8.891e-03		132.923		2.367e-03		25.579
1		0.00		3.20		3.707e-03		113.199		1.095e-03		46.918
1		0.00		2.80		3.150e-03		-65.419		1.209e-03		25.800
1		0.00		2.40		8.567e-03		-53.915		2.354e-03		18.066
1		0.00		2.00		1.402e-02		-51.978		3.708e-03		12.830
1		0.00		1.60		1.994e-02		-52.330		5.073e-03		14.050
1		0.00		1.20		2.543e-02		-51.521		6.635e-03		9.746
1		0.00		0.80		3.081e-02		-52.151		7.936e-03		10.597
1		0.00		0.40		3.562e-02		-51.779		8.943e-03		11.684
1		0.00		0.00		4.126e-02		-51.238		1.041e-02		9.788
1		0.00		-0.40		4.621e-02		-51.394		1.173e-02		9.226
1		0.00		-0.80		4.957e-02		-50.974		1.360e-02		10.599
1		0.00		-1.20		5.324e-02		-52.326		1.471e-02		11.059
1		0.00		-1.60		5.467e-02		-51.742		1.650e-02		9.136
1		0.00		-2.00		5.518e-02		-48.221		1.574e-02		8.666
1		0.00		-2.40		5.879e-02		-48.339		1.623e-02		16.289
1		0.00		-2.80		6.165e-02		-48.458		1.822e-02		17.666
1		0.00		-3.20		5.852e-02		-44.392		1.713e-02		14.742
1		0.00		-3.60		5.989e-02		-47.000		1.750e-02		19.746
1		0.00		-4.00		6.157e-02		-44.289		1.789e-02		19.191
1		0.00		-4.40		5.954e-02		-42.233		1.766e-02		17.346
1		0.00		-4.80		5.815e-02		-43.550		1.683e-02		21.278
1		0.00		-5.20		6.554e-02		-43.725		2.055e-02		17.769
1		0.00		-5.60		6.150e-02		-44.397		1.919e-02		23.931
1		0.00		-6.00		5.966e-02		-41.370		1.895e-02		23.641
1		0.00		-6.40		6.232e-02		-46.546		2.120e-02		24.544
1		0.00		-6.80		5.962e-02		-35.105		2.208e-02		23.388
1		0.00		-7.20		6.036e-02		-38.942		2.173e-02		22.722
1		0.00		-7.60		5.709e-02		-40.090		2.038e-02		24.503
1		0.00		-8.00		5.927e-02		-39.533		2.067e-02		25.184
1		0.00		-8.40		5.965e-02		-46.247		2.088e-02		24.817
1		0.00		-8.80		5.675e-02		-43.535		2.099e-02		27.267
1		0.00		-9.20		5.636e-02		-38.408		1.842e-02		16.491
1		0.00		-9.60		5.634e-02		-43.463		1.944e-02		16.074
1		0.00		-10.00		5.111e-02		-41.758		1.575e-02		12.070
1		0.00		-9.60		5.546e-02		-42.967		1.723e-02		11.173
1		0.00		-9.20		5.866e-02		-40.478		1.752e-02		12.182
1		0.00		-8.80		5.996e-02		-45.624		1.740e-02		19.455
1		0.00		-8.40		6.378e-02		-45.289		1.756e-02		17.020
1		0.00		-8.00		6.263e-02		-41.310		1.729e-02		13.609
1		0.00		-7.60		6.222e-02		-45.123		1.732e-02		15.746
1		0.00		-7.20		6.029e-02		-44.289		1.605e-02		11.547
1		0.00		-6.80		5.923e-02		-47.214		1.493e-02		11.320
1		0.00		-6.40		5.806e-02		-47.882		1.508e-02		11.038
1		0.00		-6.00		5.360e-02		-48.258		1.328e-02		9.277
1		0.00		-5.60		5.155e-02		-50.260		1.287e-02		10.258
1		0.00		-5.20		4.764e-02		-50.187		1.122e-02		9.699
1		0.00		-4.80		4.430e-02		-51.036		1.050e-02		8.113
1		0.00		-4.40		4.002e-02		-51.182		9.024e-03		7.709
1		0.00		-4.00		3.589e-02		-52.685		7.699e-03		8.129
1		0.00		-3.60		3.169e-02		-51.520		6.543e-03		8.281
1		0.00		-3.20		2.698e-02		-50.641		5.469e-03		8.907
1		0.00		-2.80		2.288e-02		-51.870		4.558e-03		9.156
1		0.00		-2.40		1.834e-02		-50.110		3.524e-03		9.903
1		0.00		-2.00		1.360e-02		-50.567		2.699e-03		10.298
1		0.00		-1.60		8.763e-03		-48.297		1.801e-03		11.395
1		0.00		-1.20		3.705e-03		-55.202		1.177e-03		30.464
1		0.00		-0.80		2.230e-03		61.719		9.222e-04		77.668
1		0.00		-0.40		6.228e-03		120.978		1.766e-03		16.458
2		0.00		0.00		1.101e-02		125.941		2.270e-03		13.115
2		0.00		0.40		1.579e-02		128.953		3.447e-03		8.281
2		0.00		0.80		2.058e-02		132.185		4.167e-03		8.477
2		0.00		1.20		2.509e-02		131.441		5.218e-03		8.819
2		0.00		1.60		2.934e-02		131.416		6.378e-03		7.894
2		0.00		2.00		3.326e-02		130.788		7.773e-03		9.799
2		0.00		2.40		3.723e-02		130.479		9.120e-03		10.019
2		0.00		2.80		4.054e-02		129.772		1.089e-02		10.502
2		0.00		3.20		4.437e-02		130.815		1.133e-02		10.487
2		0.00		3.60		4.674e-02		130.249		1.251e-02		11.815
2		0.00		4.00		4.941e-02		131.219		1.318e-02		10.006
2		0.00		4.40		5.097e-02		132.189		1.512e-02		13.659
2		0.00		4.80		5.366e-02		131.677		1.593e-02		14.218
2		0.00		5.20		5.526e-02		130.196		1.608e-02		27.043
2		0.00		5.60		5.824e-02		132.955		1.671e-02		18.115
2		0.00		6.00		5.945e-02		131.369		1.732e-02		20.770
2		0.00		6.40		6.111e-02		133.504		1.675e-02		20.957
2		0.00		6.80		6.367e-02		135.528		1.813e-02		13.189
2		0.00		7.20		6.086e-02		134.340		1.718e-02		22.944
2		0.00		7.60		6.294e-02		128.003		1.783e-02		29.018
2		0.00		8.00		6.430e-02		120.671		2.033e-02		42.906
2		0.00		8.40		6.526e-02		124.550		1.819e-02		46.171
2		0.00		8.80		6.597e-02		122.593		1.953e-02		46.576
2		0.00		9.20		6.460e-02		112.127		2.088e-02		51.508
2		0.00		9.60		6.373e-02		122.889		2.154e-02		22.292
2		0.00		10.00		6.098e-02		127.825		1.990e-02		24.138
2		0.00		9.60		6.152e-02		120.335		1.987e-02		48.450
2		0.00		9.20		6.357e-02		129.671		1.939e-02		13.424
2		0.00		8.80		6.111e-02		134.266		1.753e-02		9.978
2		0.00		8.40		5.911e-02		133.288		1.645e-02		8.698
2		0.00		8.00		5.583e-02		133.305		1.558e-02		8.250
2		0.00		7.60		5.408e-02		130.738		1.467e-02		7.834
2		0.00		7.20		5.262e-02		132.241		1.276e-02		6.149
2		0.00		6.80		4.882e-02		131.889		1.117e-02		6.943
2		0.00		6.40		4.666e-02		131.305		1.051e-02		6.913
2		0.00		6.00		4.225e-02		132.382		8.843e-03		6.184
2		0.00		5.60		3.864e-02		132.789		7.989e-03		5.722
2		0.00		5.20		3.404e-02		131.868		6.501e-03		5.643
2		0.00		4.80		2.958e-02		132.995		5.838e-03		7.558
2		0.00		4.40		2.477e-02		132.519		4.796e-03		7.756
2		0.00		4.00		2.009e-02		133.096		3.815e-03		8.554
2		0.00		3.60		1.494e-02		134.822		3.027e-03		10.771
2		0.00		3.20		9.717e-03		135.543		2.144e-03		11.342
2		0.00		2.80		4.501e-03		126.270		1.466e-03		47.882
2		0.00		2.40		1.959e-03		-47.326		8.046e-04		62.512
2		0.00		2.00		6.503e-03		-60.160		1.797e-03		19.907
2		0.00		1.60		1.164e-02		-57.927		2.981e-03		12.235
2		0.00		1.20		1.687e-02		-55.475		4.061e-03		12.301
2		0.00		0.80		2.176e-02		-52.180		5.065e-03		10.194
2		0.00		0.40		2.723e-02		-52.423		6.792e-03		10.947
2		0.00		0.00		3.211e-02		-53.173		8.257e-03		11.861
2		0.00		-0.40		3.704e-02		-51.783		1.009e-02		12.078
2		0.00		-0.80		4.202e-02		-52.264		1.088e-02		12.040
2		0.00		-1.20		4.664e-02		-53.419		1.173e-02		11.813
2		0.00		-1.60		5.115e-02		-53.875		1.297e-02		9.897
2		0.00		-2.00		5.380e-02		-54.212		1.336e-02		7.699
2		0.00		-2.40		5.794e-02		-53.797		1.447e-02		9.391
2		0.00		-2.80		6.074e-02		-52.183		1.304e-02		7.180
2		0.00		-3.20		6.501e-02		-53.541		1.383e-02		7.238
2		0.00		-3.60		6.329e-02		-53.951		1.477e-02		11.589
2		0.00		-4.00		6.733e-02		-49.891		1.577e-02		10.565
2		0.00		-4.40		6.646e-02		-50.398		1.444e-02		14.878
2		0.00		-4.80		6.467e-02		-48.990		1.755e-02		17.476
2		0.00		-5.20		6.550e-02		-48.498		1.754e-02		18.616
2		0.00		-5.60		6.650e-02		-48.268		1.972e-02		19.722
2		0.00		-6.00		6.483e-02		-46.720		1.959e-02		19.910
2		0.00		-6.40		6.566e-02		-44.283		1.899e-02		20.352
2		0.00		-6.80		6.487e-02		-46.908		2.115e-02		24.803
2		0.00		-7.20		6.346e-02		-45.014		2.130e-02		22.108
2		0.00		-7.60		6.286e-02		-48.269		2.000e-02		23.485
2		0.00		-8.00		6.245e-02		-40.417		1.957e-02		22.191
2		0.00		-8.40		6.167e-02		-46.755		1.857e-02		18.880
2		0.00		-8.80		6.136e-02		-40.244		1.683e-02		21.925
2		0.00		-9.20		5.997e-02		-38.201		1.773e-02		21.390
2		0.00		-9.60		5.809e-02		-43.889		1.635e-02		11.663
2		0.00		-10.00		5.227e-02		-43.947		1.484e-02		7.347
2		0.00		-9.60		5.842e-02		-43.026		1.661e-02		9.091
2		0.00		-9.20		6.286e-02		-43.276		1.671e-02		9.974
2		0.00		-8.80		6.259e-02		-40.157		1.535e-02		9.776
2		0.00		-8.40		6.516e-02		-44.891		1.613e-02		12.507
2		0.00		-8.00		6.481e-02		-44.189		1.456e-02		9.075
2		0.00		-7.60		6.441e-02		-44.997		1.709e-02		12.504
2		0.00		-7.20		6.226e-02		-44.665		1.510e-02		6.746
2		0.00		-6.80		5.971e-02		-47.017		1.603e-02		9.752
2		0.00		-6.40		5.591e-02		-49.035		1.639e-02		11.331
2		0.00		-6.00		5.214e-02		-49.330		1.573e-02		13.134
2		0.00		-5.60		4.904e-02		-49.700		1.478e-02		10.108
2		0.00		-5.20		4.601e-02		-51.457		1.317e-02		13.392
2		0.00		-4.80		4.222e-02		-52.482		1.239e-02		13.969
2		0.00		-4.40		3.813e-02		-53.644		1.066e-02		11.731
2		0.00		-4.00		3.395e-02		-53.733		9.278e-03		9.418
2		0.00		-3.60		3.023e-02		-54.169		7.255e-03		7.307
2		0.00		-3.20		2.677e-02		-52.069		5.602e-03		9.395
2		0.00		-2.80		2.282e-02		-51.421		4.240e-03		7.974
2		0.00		-2.40		1.820e-02		-48.397		3.238e-03		8.652
2		0.00		-2.00		1.403e-02		-48.640		2.616e-03		11.412
2		0.00		-1.60		9.217e-03		-44.879		1.951e-03		16.557
2		0.00		-1.20		4.698e-03		-47.147		1.455e-03		21.139
2		0.00		-0.80		1.824e-03		30.058		6.818e-04		82.619
2		0.00		-0.40		5.160e-03		120.502		1.456e-03		24.348
3		0.00		0.00		9.363e-03		126.515		2.700e-03		23.897
3		0.00		0.40		1.417e-02		129.709		3.577e-03		13.036
3		0.00		0.80		1.844e-02		129.838		4.489e-03		9.097
3		0.00		1.20		2.318e-02		130.048		5.057e-03		7.450
3		0.00		1.60		2.693e-02		131.069		5.297e-03		6.705
3		0.00		2.00		3.165e-02		131.054		6.225e-03		6.797
3		0.00		2.40		3.494e-02		130.651		7.385e-03		7.223
3		0.00		2.80		3.861e-02		131.200		9.092e-03		8.295
3		0.00		3.20		4.137e-02		130.720		1.107e-02		11.980
3		0.00		3.60		4.440e-02		130.712		1.213e-02		15.802
3		0.00		4.00		4.744e-02		129.392		1.400e-02		14.990
3		0.00		4.40		4.970e-02		130.598		1.413e-02		9.789
3		0.00		4.80		5.404e-02		131.396		1.246e-02		6.835
3		0.00		5.20		5.697e-02		132.312		1.209e-02		5.640
3		0.00		5.60		5.879e-02		132.977		1.228e-02		8.835
3		0.00		6.00		6.195e-02		132.262		1.507e-02		11.471
3		0.00		6.40		6.295e-02		130.203		1.728e-02		23.004
3		0.00		6.80		6.356e-02		128.610		1.870e-02		28.441
3		0.00		7.20		6.214e-02		131.848		1.831e-02		23.708
3		0.00		7.60		6.380e-02		129.072		1.796e-02		32.999
3		0.00		8.00		6.850e-02		132.933		1.866e-02		21.745
3		0.00		8.40		6.629e-02		134.932		1.656e-02		19.967
3		0.00		8.80		6.764e-02		118.727		1.885e-02		62.444
3		0.00		9.20		6.493e-02		118.068		1.815e-02		46.118
3		0.00		9.60		6.186e-02		119.241		2.014e-02		49.457
3		0.00		10.00		6.043e-02		115.637		2.222e-02		49.864
3		0.00		9.60		5.892e-02		130.157		2.030e-02		31.872
3		0.00		9.20		6.095e-02		116.157		1.994e-02		60.111
3		0.00		8.80		6.046e-02		126.168		1.895e-02		31.562
3		0.00		8.40		5.946e-02		132.463		1.748e-02		9.132
3		0.00		8.00		5.946e-02		133.368		1.544e-02		9.685
3		0.00		7.60		5.762e-02		133.034		1.360e-02		7.326
3		0.00		7.20		5.392e-02		132.842		1.219e-02		8.217
3		0.00		6.80		5.054e-02		132.650		1.139e-02		8.638
3		0.00		6.40		4.685e-02		131.424		1.111e-02		10.344
3		0.00		6.00		4.347e-02		132.283		1.075e-02		11.252
3		0.00		5.60		3.921e-02		132.479		1.009e-02		16.861
3		0.00		5.20		3.562e-02		131.500		8.825e-03		13.208
3		0.00		4.80		3.142e-02		131.538		7.595e-03		8.646
3		0.00		4.40		2.718e-02		133.525		5.819e-03		8.439
3		0.00		4.00		2.255e-02		134.278		4.440e-03		8.333
3		0.00		3.60		1.778e-02		134.586		3.198e-03		7.818
3		0.00		3.20		1.279e-02		134.853		2.714e-03		9.071
3		0.00		2.80		7.628e-03		132.453		1.921e-03		31.729
3		0.00		2.40		2.836e-03		96.179		1.077e-03		78.626
3		0.00		2.00		3.394e-03		-66.376		1.336e-03		28.173
3		0.00		1.60		8.296e-03		-58.983		2.395e-03		16.885
3		0.00		1.20		1.326e-02		-53.935		3.498e-03		11.489
3		0.00		0.80		1.868e-02		-53.660		4.416e-03		10.375
3		0.00		0.40		2.377e-02		-52.210		5.123e-03		8.540
3		0.00		0.00		2.931e-02		-52.732		5.287e-03		7.502
3		0.00		-0.40		3.517e-02		-51.982		5.828e-03		6.532
3		0.00		-0.80		3.897e-02		-51.845		6.502e-03		6.929
3		0.00		-1.20		4.346e-02		-51.423		7.984e-03		6.683
3		0.00		-1.60		4.808e-02		-51.344		9.954e-03		7.197
3		0.00		-2.00		5.228e-02		-52.616		1.190e-02		9.716
3		0.00		-2.40		5.614e-02		-53.253		1.400e-02		11.053
3		0.00		-2.80		5.851e-02		-51.035		1.475e-02		12.980
3		0.00		-3.20		6.017e-02		-51.698		1.530e-02		8.827
3		0.00		-3.60		6.382e-02		-52.535		1.500e-02		9.307
3		0.00		-4.00		6.511e-02		-51.350		1.280e-02		8.331
3		0.00		-4.40		6.793e-02		-51.969		1.498e-02		11.620
3		0.00		-4.80		6.549e-02		-47.342		1.472e-02		14.804
3		0.00		-5.20		6.665e-02		-49.156		1.820e-02		18.626
3		0.00		-5.60		6.227e-02		-45.973		1.832e-02		16.404
3		0.00		-6.00		6.000e-02		-43.687		1.862e-02		20.200
3		0.00		-6.40		6.032e-02		-44.911		1.860e-02		23.152
3		0.00		-6.80		6.342e-02		-44.783		1.759e-02		14.315
3		0.00		-7.20		6.627e-02		-41.415		1.877e-02		14.886
3		0.00		-7.60		6.841e-02		-44.837		1.698e-02		15.309
3		0.00		-8.00		6.583e-02		-42.282		1.689e-02		17.814
3		0.00		-8.40		6.330e-02		-43.070		1.908e-02		20.262
3		0.00		-8.80		6.156e-02		-39.351		1.906e-02		18.511
3		0.00		-9.20		5.987e-02		-41.095		2.000e-02		16.120
3		0.00		-9.60		5.718e-02		-42.589		1.847e-02		15.605
3		0.00		-10.00		5.261e-02		-45.020		1.576e-02		18.851
3		0.00		-9.60		5.715e-02		-41.548		1.703e-02		19.739
3		0.00		-9.20		6.036e-02		-42.621		1.631e-02		9.367
3		0.00		-8.80		6.422e-02		-42.863		1.572e-02		9.162
3		0.00		-8.40		6.424e-02		-42.897		1.374e-02		9.367
3		0.00		-8.00		6.452e-02		-43.691		1.460e-02		10.748
3		0.00		-7.60		6.455e-02		-45.031		1.427e-02		9.391
3		0.00		-7.20		6.169e-02		-43.932		1.461e-02		7.751
3		0.00		-6.80		6.008e-02		-43.883		1.602e-02		13.322
3		0.00		-6.40		5.815e-02		-45.938		1.570e-02		11.567
3		0.00		-6.00		5.463e-02		-47.186		1.501e-02		13.116
3		0.00		-5.60		5.076e-02		-49.112		1.372e-02		8.063
3		0.00		-5.20		4.793e-02		-50.463		1.144e-02		6.168
3		0.00		-4.80		4.480e-02		-50.114		9.411e-03		5.635
3		0.00		-4.40		4.041e-02		-50.978		7.219e-03		5.465
3		0.00		-4.00		3.603e-02		-50.537		6.338e-03		6.312
3		0.00		-3.60		3.218e-02		-51.896		5.645e-03		5.961
3		0.00		-3.20		2.820e-02		-51.335		5.567e-03		7.976
3		0.00		-2.80		2.348e-02		-48.753		4.834e-03		7.999
3		0.00		-2.40		1.893e-02		-49.484		4.223e-03		10.017
3		0.00		-2.00		1.478e-02		-48.372		3.306e-03		12.111
3		0.00		-1.60		1.026e-02		-46.439		2.672e-03		13.175
3		0.00		-1.20		6.162e-03		-38.707		1.659e-03		16.178
3		0.00		-0.80		1.873e-03		-36.200		7.121e-04		51.816
3		0.00		-0.40		3.905e-03		112.450		1.332e-03		35.082
4		0.00		0.00		8.930e-03		128.366		1.958e-03		11.761
4		0.00		0.40		1.336e-02		128.806		2.451e-03		9.056
4		0.00		0.80		1.819e-02		129.932		3.249e-03		7.035
4		0.00		1.20		2.287e-02		131.119		3.732e-03		7.215
4		0.00		1.60		2.724e-02		132.106		4.798e-03		7.053
4		0.00		2.00		3.073e-02		131.707		6.098e-03		6.431
4		0.00		2.40		3.440e-02		131.230		7.936e-03		8.775
4		0.00		2.80		3.793e-02		131.227		9.438e-03		9.557
4		0.00		3.20		4.070e-02		129.769		1.119e-02		13.260
4		0.00		3.60		4.389e-02		130.064		1.224e-02		11.893
4		0.00		4.00		4.706e-02		130.089		1.323e-02		12.205
4		0.00		4.40		4.984e-02		129.720		1.434e-02		8.839
4		0.00		4.80		5.173e-02		130.383		1.456e-02		7.327
4		0.00		5.20		5.550e-02		131.065		1.423e-02		5.526
4		0.00		5.60		5.805e-02		132.886		1.310e-02		6.516
4		0.00		6.00		6.093e-02		134.009		1.286e-02		6.951
4		0.00		6.40		6.416e-02		133.360		1.342e-02		6.819
4		0.00		6.80		6.403e-02		134.968		1.536e-02		13.106
4		0.00		7.20		6.615e-02		132.113		1.644e-02		25.190
4		0.00		7.60		6.741e-02		132.729		1.724e-02		24.392
4		0.00		8.00		6.493e-02		129.363		1.926e-02		34.983
4		0.00		8.40		6.579e-02		126.976		1.972e-02		34.189
4		0.00		8.80		6.352e-02		133.408		1.943e-02		32.742
4		0.00		9.20		6.623e-02		128.923		2.020e-02		32.382
4		0.00		9.60		6.474e-02		120.175		2.015e-02		49.220
4		0.00		10.00		6.082e-02		126.962		1.931e-02		36.991
4		0.00		9.60		6.455e-02		128.615		2.114e-02		23.409
4		0.00		9.20		6.578e-02		124.102		2.117e-02		38.723
4		0.00		8.80		6.211e-02		132.856		1.849e-02		17.263
4		0.00		8.40		5.996e-02		135.428		1.604e-02		9.678
4		0.00		8.00		6.037e-02		133.264		1.532e-02		7.199
4		0.00		7.60		5.695e-02		132.648		1.348e-02		6.514
4		0.00		7.20		5.354e-02		133.273		1.247e-02		5.661
4		0.00		6.80		5.064e-02		132.861		1.211e-02		7.010
4		0.00		6.40		4.710e-02		132.086		1.194e-02		9.179
4		0.00		6.00		4.312e-02		132.823		1.132e-02		9.848
4		0.00		5.60		3.979e-02		131.263		1.020e-02		10.532
4		0.00		5.20		3.568e-02		131.208		9.390e-03		16.475
4		0.00		4.80		3.208e-02		130.828		8.273e-03		15.603
4		0.00		4.40		2.784e-02		132.600		6.908e-03		9.379
4		0.00		4.00		2.399e-02		132.339		5.538e-03		8.421
4		0.00		3.60		1.918e-02		135.452		3.908e-03		7.269
4		0.00		3.20		1.412e-02		136.231		2.983e-03		8.907
4		0.00		2.80		9.375e-03		135.144		1.954e-03		8.567
4		0.00		2.40		4.431e-03		121.984		1.334e-03		45.943
4		0.00		2.00		1.957e-03		-44.166		8.074e-04		56.984
4		0.00		1.60		5.838e-03		-67.244		1.767e-03		18.622
4		0.00		1.20		1.085e-02		-55.884		2.830e-03		16.016
4		0.00		0.80		1.575e-02		-51.410		4.163e-03		12.390
4		0.00		0.40		2.081e-02		-52.101		5.670e-03		9.386
4		0.00		0.00		2.585e-02		-53.453		6.721e-03		8.600
4		0.00		-0.40		3.076e-02		-53.011		6.986e-03		8.190
4		0.00		-0.80		3.610e-02		-52.692		7.324e-03		5.978
4		0.00		-1.20		4.114e-02		-52.612		7.482e-03		5.660
4		0.00		-1.60		4.581e-02		-53.447		8.273e-03		6.367
4		0.00		-2.00		4.956e-02		-52.457		9.147e-03		7.290
4		0.00		-2.40		5.339e-02		-52.475		1.097e-02		8.945
4		0.00		-2.80		5.577e-02		-51.651		1.324e-02		10.790
4		0.00		-3.20		5.884e-02		-52.156		1.478e-02		13.086
4		0.00		-3.60		6.135e-02		-52.223		1.556e-02		10.269
4		0.00		-4.00		6.228e-02		-52.283		1.645e-02		10.597
4		0.00		-4.40		6.548e-02		-50.451		1.562e-02		10.375
4		0.00		-4.80		6.480e-02		-46.760		1.473e-02		10.193
4		0.00		-5.20		6.807e-02		-45.458		1.438e-02		12.881
4		0.00		-5.60		7.087e-02		-46.827		1.622e-02		14.316
4		0.00		-6.00		6.932e-02		-49.810		1.832e-02		18.334
4		0.00		-6.40		6.619e-02		-43.526		1.777e-02		17.582
4		0.00		-6.80		6.616e-02		-42.371		2.107e-02		20.300
4		0.00		-7.20		6.220e-02		-40.373		2.037e-02		21.293
4		0.00		-7.60		6.106e-02		-40.734		1.902e-02		25.478
4		0.00		-8.00		6.077e-02		-35.457		1.798e-02		27.452
4		0.00		-8.40		6.159e-02		-41.762		1.730e-02		16.658
4		0.00		-8.80		6.223e-02		-43.507		1.773e-02		12.971
4		0.00		-9.20		6.153e-02		-41.680		1.843e-02		10.993
4		0.00		-9.60		5.825e-02		-43.327		1.602e-02		6.996
4		0.00		-10.00		5.250e-02		-42.666		1.286e-02		5.262
4		0.00		-9.60		5.795e-02		-43.105		1.462e-02		6.282
4		0.00		-9.20		6.343e-02		-41.585		1.573e-02		6.939
4		0.00		-8.80		6.533e-02		-42.579		1.739e-02		9.754
4		0.00		-8.40		6.434e-02		-40.086		1.805e-02		11.968
4		0.00		-8.00		6.472e-02		-41.112		1.964e-02		18.426
4		0.00		-7.60		6.234e-02		-46.072		1.676e-02		12.081
4		0.00		-7.20		6.184e-02		-47.484		1.637e-02		12.277
4		0.00		-6.80		6.111e-02		-47.705		1.585e-02		8.224
4		0.00		-6.40		5.790e-02		-48.459		1.454e-02		6.958
4		0.00		-6.00		5.652e-02		-49.268		1.217e-02		5.671
4		0.00		-5.60		5.297e-02		-47.853		1.118e-02		5.880
4		0.00		-5.20		4.852e-02		-49.557		9.981e-03		5.066
4		0.00		-4.80		4.457e-02		-49.973		9.033e-03		5.024
4		0.00		-4.40		3.961e-02		-50.767		8.116e-03		5.476
4		0.00		-4.00		3.573e-02		-50.563		7.435e-03		6.972
4		0.00		-3.60		3.165e-02		-50.867		6.705e-03		7.623
4		0.00		-3.20		2.766e-02		-49.070		6.502e-03		9.059
4		0.00		-2.80		2.326e-02		-50.260		5.846e-03		11.356
4		0.00		-2.40		1.924e-02		-49.498		5.023e-03		12.369
4		0.00		-2.00		1.506e-02		-50.348		3.777e-03		13.170
4		0.00		-1.60		1.069e-02		-47.441		2.631e-03		11.297
4		0.00		-1.20		6.224e-03		-48.301		1.674e-03		18.407
4		0.00		-0.80		2.251e-03		-47.647		1.034e-03		63.809
4		0.00		-0.40		3.141e-03		110.939		1.177e-03		33.124
5		0.00		0.00		7.494e-03		130.592		1.680e-03		12.710
5		0.00		0.40		1.207e-02		128.750		2.384e-03		8.893
5		0.00		0.80		1.620e-02		131.266		3.204e-03		8.538
5		0.00		1.20		2.053e-02		129.847		4.320e-03		8.856
5		0.00		1.60		2.451e-02		131.036		5.388e-03		10.745
5		0.00		2.00		2.851e-02		131.332		6.742e-03		11.727
5		0.00		2.40		3.235e-02		130.528		8.009e-03		11.269
5		0.00		2.80		3.598e-02		129.215		9.421e-03		9.904
5		0.00		3.20		3.946e-02		130.148		9.623e-03		6.247
5		0.00		3.60		4.269e-02		131.168		9.310e-03		5.841
5		0.00		4.00		4.626e-02		132.340		9.036e-03		4.854
5		0.00		4.40		4.896e-02		132.896		9.568e-03		5.171
5		0.00		4.80		5.197e-02		133.100		1.138e-02		5.332
5		0.00		5.20		5.316e-02		131.059		1.419e-02		10.932
5		0.00		5.60		5.584e-02		131.980		1.594e-02		12.901
5		0.00		6.00		5.846e-02		129.443		1.678e-02		20.233
5		0.00		6.40		6.136e-02		131.044		1.692e-02		12.357
5		0.00		6.80		6.384e-02		134.057		1.508e-02		6.937
5		0.00		7.20		6.608e-02		134.476		1.409e-02		8.023
5		0.00		7.60		6.562e-02		135.040		1.411e-02		14.042
5		0.00		8.00		6.825e-02		133.307		1.700e-02		30.866
5		0.00		8.40		6.561e-02		131.695		1.840e-02		28.778
5		0.00		8.80		6.634e-02		134.054		1.872e-02		21.158
5		0.00		9.20		6.463e-02		127.330		1.992e-02		39.962
5		0.00		9.60		6.195e-02		131.058		1.756e-02		30.360
5		0.00		10.00		6.689e-02		134.831		1.962e-02		17.831
5		0.00		9.60		6.559e-02		134.016		1.709e-02		16.187
5		0.00		9.20		6.755e-02		131.229		1.735e-02		13.060
5		0.00		8.80		6.436e-02		134.178		1.686e-02		20.577
5		0.00		8.40		6.206e-02		128.659		1.840e-02		35.784
5		0.00		8.00		5.997e-02		133.214		1.751e-02		12.334
5		0.00		7.60		5.567e-02		129.595		1.732e-02		21.769
5		0.00		7.20		5.526e-02		129.081		1.649e-02		17.920
5		0.00		6.80		5.196e-02		129.940		1.520e-02		12.905
5		0.00		6.40		4.889e-02		132.377		1.370e-02		7.302
5		0.00		6.00		4.644e-02		131.815		1.088e-02		5.715
5		0.00		5.60		4.309e-02		132.744		8.584e-03		5.636
5		0.00		5.20		3.884e-02		134.830		7.020e-03		6.318
5		0.00		4.80		3.466e-02		133.670		6.455e-03		7.407
5		0.00		4.40		3.059e-02		133.482		6.070e-03		8.635
5		0.00		4.00		2.535e-02		134.718		5.559e-03		10.692
5		0.00		3.60		2.078e-02		134.471		4.600e-03		14.655
5		0.00		3.20		1.580e-02		134.722		3.719e-03		10.349
5		0.00		2.80		1.135e-02		135.022		2.754e-03		12.308
5		0.00		2.40		5.891e-03		133.904		1.578e-03		21.496
5		0.00		2.00		1.869e-03		-10.995		7.990e-04		99.212
5		0.00		1.60		4.705e-03		-50.968		1.108e-03		23.548
5		0.00		1.20		9.985e-03		-55.936		1.749e-03		11.085
5		0.00		0.80		1.497e-02		-50.554		2.558e-03		10.940
5		0.00		0.40		1.990e-02		-51.139		3.678e-03		10.900
5		0.00		0.00		2.457e-02		-53.526		5.089e-03		8.781
5		0.00		-0.40		2.908e-02		-50.619		6.724e-03		10.967
5		0.00		-0.80		3.388e-02		-51.349		7.810e-03		8.948
5		0.00		-1.20		3.907e-02		-53.212		7.792e-03		7.281
5		0.00		-1.60		4.429e-02		-52.974		7.204e-03		5.446
5		0.00		-2.00		4.925e-02		-53.165		7.284e-03		4.877
5		0.00		-2.40		5.282e-02		-51.917		9.321e-03		6.952
5		0.00		-2.80		5.636e-02		-51.107		1.084e-02		6.209
5		0.00		-3.20		5.877e-02		-51.387		1.334e-02		6.598
5		0.00		-3.60		6.151e-02		-52.266		1.491e-02		11.076
5		0.00		-4.00		6.386e-02		-50.909		1.546e-02		8.379
5		0.00		-4.40		6.266e-02		-50.293		1.696e-02		9.653
5		0.00		-4.80		6.459e-02		-48.435		1.604e-02		9.126
5		0.00		-5.20		6.615e-02		-45.474		1.393e-02		9.806
5		0.00		-5.60		6.894e-02		-46.847		1.516e-02		14.111
5		0.00		-6.00		6.600e-02		-45.948		1.562e-02		17.166
5		0.00		-6.40		6.864e-02		-43.528		1.507e-02		11.662
5		0.00		-6.80		6.904e-02		-44.413		1.845e-02		16.592
5		0.00		-7.20		6.334e-02		-40.154		1.733e-02		15.706
5		0.00		-7.60		6.133e-02		-40.109		1.855e-02		20.955
5		0.00		-8.00		6.434e-02		-41.607		1.928e-02		16.706
5		0.00		-8.40		6.290e-02		-39.289		1.705e-02		12.218
5		0.00		-8.80		6.416e-02		-39.570		1.662e-02		12.862
5		0.00		-9.20		6.303e-02		-41.878		1.756e-02		12.099
5		0.00		-9.60		5.741e-02		-42.468		1.654e-02		7.184
5		0.00		-10.00		5.067e-02		-44.636		1.581e-02		11.381
5		0.00		-9.60		5.430e-02		-43.230		1.858e-02		14.227
5		0.00		-9.20		5.993e-02		-40.595		1.868e-02		24.049
5		0.00		-8.80		6.158e-02		-43.769		1.699e-02		13.733
5		0.00		-8.40		6.376e-02		-43.623		1.533e-02		8.363
5		0.00		-8.00		6.618e-02		-44.421		1.304e-02		7.636
5		0.00		-7.60		6.552e-02		-46.701		1.331e-02		9.680
5		0.00		-7.20		6.354e-02		-43.601		1.232e-02		6.647
5		0.00		-6.80		6.149e-02		-47.666		1.437e-02		12.305
5		0.00		-6.40		5.872e-02		-46.494		1.412e-02		7.020
5		0.00		-6.00		5.494e-02		-49.219		1.403e-02		11.340
5		0.00		-5.60		5.199e-02		-49.015		1.288e-02		7.517
5		0.00		-5.20		4.942e-02		-48.692		9.570e-03		4.803
5		0.00		-4.80		4.558e-02		-49.332		7.541e-03		5.743
5		0.00		-4.40		4.130e-02		-49.703		6.545e-03		5.917
5		0.00		-4.00		3.618e-02		-50.949		6.866e-03		6.058
5		0.00		-3.60		3.164e-02		-50.067		7.034e-03		7.628
5		0.00		-3.20		2.754e-02		-51.313		6.681e-03		10.325
5		0.00		-2.80		2.312e-02		-49.015		5.413e-03		8.501
5		0.00		-2.40		1.990e-02		-50.124		3.541e-03		6.835
5		0.00		-2.00		1.514e-02		-47.741		2.340e-03		8.642
5		0.00		-1.60		1.101e-02		-42.935		1.861e-03		11.443
5		0.00		-1.20		6.236e-03		-45.053		1.602e-03		15.946
5		0.00		-0.80		2.315e-03		-36.795		1.012e-03		50.650
5		0.00		-0.40		3.445e-03		107.927		1.382e-03		56.531
6		0.00		0.00		8.162e-03		128.552		1.915e-03		12.124
6		0.00		0.40		1.270e-02		130.600		2.255e-03		9.741
6		0.00		0.80		1.720e-02		132.112		2.620e-03		7.481
6		0.00		1.20		2.192e-02		130.986		3.702e-03		6.482
6		0.00		1.60		2.548e-02		131.594		5.303e-03		9.269
6		0.00		2.00		2.941e-02		131.183		6.667e-03		9.121
6		0.00		2.40		3.343e-02		131.241		7.433e-03		8.703
6		0.00		2.80		3.800e-02		130.464		7.776e-03		7.028
6		0.00		3.20		4.229e-02		131.754		7.351e-03		4.932
6		0.00		3.60		4.546e-02		131.982		7.938e-03		5.135
6		0.00		4.00		4.750e-02		132.194		9.833e-03		6.871
6		0.00		4.40		5.007e-02		130.410		1.260e-02		12.978
6		0.00		4.80		5.270e-02		131.124		1.381e-02		13.113
6		0.00		5.20		5.508e-02		131.208		1.483e-02		9.661
6		0.00		5.60		5.743e-02		131.996		1.392e-02		6.418
6		0.00		6.00		6.110e-02		133.988		1.307e-02		6.400
6		0.00		6.40		6.035e-02		133.778		1.342e-02		10.385
6		0.00		6.80		6.349e-02		133.643		1.671e-02		11.109
6		0.00		7.20		6.177e-02		126.320		1.992e-02		42.916
6		0.00		7.60		6.373e-02		132.771		1.911e-02		21.364
6		0.00		8.00		6.393e-02		132.628		1.827e-02		29.976
6		0.00		8.40		6.750e-02		137.070		1.698e-02		13.427
6		0.00		8.80		7.090e-02		140.483		1.656e-02		12.190
6		0.00		9.20		6.491e-02		120.423		1.667e-02		52.195
6		0.00		9.60		6.745e-02		129.394		2.056e-02		31.136
6		0.00		10.00		6.649e-02		133.240		2.061e-02		22.274
6		0.00		9.60		6.440e-02		130.416		2.047e-02		23.955
6		0.00		9.20		6.405e-02		130.034		1.858e-02		33.873
6		0.00		8.80		6.408e-02		136.335		1.683e-02		12.035
6		0.00		8.40		6.512e-02		134.818		1.443e-02		7.855
6		0.00		8.00		6.421e-02		134.323		1.351e-02		7.794
6		0.00		7.60		5.987e-02		133.126		1.441e-02		7.917
6		0.00		7.20		5.503e-02		132.240		1.479e-02		10.281
6		0.00		6.80		5.234e-02		129.946		1.476e-02		16.683
6		0.00		6.40		4.928e-02		130.442		1.382e-02		13.657
6		0.00		6.00		4.602e-02		131.563		1.134e-02		6.630
6		0.00		5.60		4.202e-02		132.853		8.911e-03		6.361
6		0.00		5.20		3.865e-02		132.527		7.041e-03		5.734
6		0.00		4.80		3.414e-02		133.510		6.963e-03		6.866
6		0.00		4.40		2.972e-02		133.141		6.896e-03		8.338
6		0.00		4.00		2.470e-02		133.010		6.270e-03		13.883
6		0.00		3.60		1.999e-02		131.523		5.066e-03		14.396
6		0.00		3.20		1.560e-02		132.481		3.302e-03		8.454
6		0.00		2.80		1.109e-02		136.140		2.255e-03		11.113
6		0.00		2.40		6.125e-03		138.019		1.451e-03		16.226
6		0.00		2.00		1.791e-03		32.444		7.575e-04		90.503
6		0.00		1.60		4.838e-03		-51.723		1.416e-03		21.675
6		0.00		1.20		9.840e-03		-51.691		2.506e-03		14.847
6		0.00		0.80		1.457e-02		-49.796		3.098e-03		11.696
6		0.00		0.40		1.991e-02		-51.057		3.664e-03		8.557
6		0.00		0.00		2.509e-02		-51.212		3.886e-03		6.880
6		0.00		-0.40		3.026e-02		-50.659		4.641e-03		6.370
6		0.00		-0.80		3.402e-02		-49.717		6.234e-03		7.095
6		0.00		-1.20		3.809e-02		-51.935		9.073e-03		10.716
6		0.00		-1.60		4.241e-02		-53.211		1.114e-02		10.386
6		0.00		-2.00		4.669e-02		-53.144		1.127e-02		6.694
6		0.00		-2.40		5.175e-02		-53.358		1.028e-02		4.456
6		0.00		-2.80		5.566e-02		-53.349		1.011e-02		5.884
6		0.00		-3.20		5.643e-02		-51.673		1.211e-02		8.827
6		0.00		-3.60		5.888e-02		-53.889		1.543e-02		13.893
6		0.00		-4.00		5.973e-02		-51.891		1.685e-02		12.329
6		0.00		-4.40		6.019e-02		-52.175		1.754e-02		9.529
6		0.00		-4.80		6.343e-02		-50.462		1.602e-02		8.431
6		0.00		-5.20		6.683e-02		-46.815		1.390e-02		8.583
6		0.00		-5.60		6.807e-02		-47.156		1.449e-02		9.930
6		0.00		-6.00		6.756e-02		-44.842		1.603e-02		8.798
6		0.00		-6.40		6.719e-02		-43.666		1.856e-02		13.176
6		0.00		-6.80		6.209e-02		-42.371		1.632e-02		17.496
6		0.00		-7.20		6.308e-02		-41.560		1.614e-02		12.890
6		0.00		-7.60		6.802e-02		-45.311		1.603e-02		13.762
6		0.00		-8.00		7.055e-02		-43.467		1.364e-02		9.232
6		0.00		-8.40		6.898e-02		-42.716		1.572e-02		13.042
6		0.00		-8.80		6.399e-02		-37.920		1.767e-02		12.454
6		0.00		-9.20		6.051e-02		-39.435		1.836e-02		16.282
6		0.00		-9.60		5.635e-02		-39.432		1.768e-02		20.106
6		0.00		-10.00		5.161e-02		-42.410		1.622e-02		13.746
6		0.00		-9.60		5.728e-02		-44.018		1.599e-02		6.451
6		0.00		-9.20		6.143e-02		-42.859		1.643e-02		7.089
6		0.00		-8.80		6.244e-02		-43.370		1.619e-02		12.653
6		0.00		-8.40		6.351e-02		-40.352		1.633e-02		9.208
6		0.00		-8.00		6.100e-02		-42.181		1.808e-02		12.810
6		0.00		-7.60		6.183e-02		-46.341		1.742e-02		12.458
6		0.00		-7.20		6.136e-02		-46.476		1.786e-02		8.709
6		0.00		-6.80		5.862e-02		-46.133		1.442e-02		6.428
6		0.00		-6.40		6.006e-02		-47.728		1.236e-02		5.557
6		0.00		-6.00		5.653e-02		-46.944		9.811e-03		4.922
6		0.00		-5.60		5.281e-02		-47.467		9.645e-03		5.833
6		0.00		-5.20		4.874e-02		-47.938		9.743e-03		6.708
6		0.00		-4.80		4.467e-02		-49.053		9.827e-03		8.489
6		0.00		-4.40		4.016e-02		-50.537		9.306e-03		10.136
6		0.00		-4.00		3.639e-02		-51.533		8.353e-03		8.593
6		0.00		-3.60		3.261e-02		-51.466		6.708e-03		6.676
6		0.00		-3.20		2.859e-02		-50.544		4.800e-03		6.531
6		0.00		-2.80		2.490e-02		-48.866		3.997e-03		7.326
6		0.00		-2.40		2.032e-02		-47.617		3.306e-03		8.189
6		0.00		-2.00		1.546e-02		-47.044		3.126e-03		9.446
6		0.00		-1.60		1.123e-02		-46.572		2.698e-03		14.687
6		0.00		-1.20		6.357e-03		-47.083		1.847e-03		21.483
6		0.00		-0.80		2.840e-03		-44.509		1.141e-03		34.870
6		0.00		-0.40		2.830e-03		106.004		1.110e-03		48.843
7		0.00		0.00		6.946e-03		127.785		1.620e-03		11.751
7		0.00		0.40		1.173e-02		128.620		2.397e-03		9.510
7		0.00		0.80		1.597e-02		128.700		3.166e-03		8.146
7		0.00		1.20		1.974e-02		129.263		4.260e-03		9.888
7		0.00		1.60		2.378e-02		131.326		5.689e-03		11.599
7		0.00		2.00		2.823e-02		131.029		6.668e-03		11.580
7		0.00		2.40		3.241e-02		129.900		7.760e-03		10.231
7		0.00		2.80		3.656e-02		130.331		8.736e-03		7.671
7		0.00		3.20		4.032e-02		131.132		8.424e-03		5.456
7		0.00		3.60		4.393e-02		131.771		8.117e-03		5.310
7		0.00		4.00		4.702e-02		132.801		8.385e-03		5.668
7		0.00		4.40		4.971e-02		133.582		9.170e-03		5.828
7		0.00		4.80		5.232e-02		133.899		1.121e-02		6.042
7		0.00		5.20		5.481e-02		132.525		1.383e-02		8.073
7		0.00		5.60		5.697e-02		131.561		1.542e-02		14.232
7		0.00		6.00		5.909e-02		129.175		1.588e-02		15.020
7		0.00		6.40		6.136e-02		131.963		1.672e-02		8.512
7		0.00		6.80		6.333e-02		133.062		1.650e-02		7.311
7		0.00		7.20		6.381e-02		135.956		1.513e-02		9.517
7		0.00		7.60		6.656e-02		133.709		1.688e-02		10.123
7		0.00		8.00		6.443e-02		129.272		1.894e-02		35.868
7		0.00		8.40		6.332e-02		127.566		2.014e-02		35.712
7		0.00		8.80		6.309e-02		132.126		2.165e-02		30.219
7		0.00		9.20		6.415e-02		129.976		2.059e-02		33.034
7		0.00		9.60		6.411e-02		127.632		1.937e-02		37.492
7		0.00		10.00		6.654e-02		135.965		1.829e-02		11.787
7		0.00		9.60		6.833e-02		135.058		1.690e-02		24.252
7		0.00		9.20		7.106e-02		133.770		1.767e-02		12.562
7		0.00		8.80		6.562e-02		131.336		1.719e-02		28.003
7		0.00		8.40		6.291e-02		130.695		1.856e-02		18.395
7		0.00		8.00		6.123e-02		130.067		1.768e-02		17.876
7		0.00		7.60		5.861e-02		130.311		1.596e-02		16.867
7		0.00		7.20		5.594e-02		131.024		1.486e-02		11.561
7		0.00		6.80		5.386e-02		132.088		1.298e-02		7.524
7		0.00		6.40		5.064e-02		132.849		1.036e-02		5.638
7		0.00		6.00		4.742e-02		133.344		8.853e-03		4.882
7		0.00		5.60		4.231e-02		133.206		9.433e-03		7.336
7		0.00		5.20		3.770e-02		132.461		9.444e-03		8.912
7		0.00		4.80		3.328e-02		130.809		8.814e-03		13.590
7		0.00		4.40		2.866e-02		131.067		7.900e-03		15.751
7		0.00		4.00		2.477e-02		131.319		6.472e-03		11.583
7		0.00		3.60		2.026e-02		133.254		5.183e-03		9.425
7		0.00		3.20		1.582e-02		135.241		3.686e-03		7.607
7		0.00		2.80		1.126e-02		136.349		2.509e-03		10.793
7		0.00		2.40		6.219e-03		135.548		1.556e-03		16.574
7		0.00		2.00		2.005e-03		21.258		7.856e-04		97.963
7		0.00		1.60		3.913e-03		-57.733		1.203e-03		28.560
7		0.00		1.20		8.679e-03		-58.524		2.382e-03		16.026
7		0.00		0.80		1.350e-02		-51.147		3.307e-03		13.511
7		0.00		0.40		1.811e-02		-51.588		4.143e-03		11.111
7		0.00		0.00		2.335e-02		-52.229		4.779e-03		8.197
7		0.00		-0.40		2.886e-02		-51.517		5.014e-03		5.882
7		0.00		-0.80		3.360e-02		-50.266		4.904e-03		6.485
7		0.00		-1.20		3.796e-02		-51.212		5.736e-03		5.929
7		0.00		-1.60		4.213e-02		-50.281		7.015e-03		7.087
7		0.00		-2.00		4.577e-02		-50.671		9.480e-03		7.613
7		0.00		-2.40		5.008e-02		-51.198		1.184e-02		9.452
7		0.00		-2.80		5.253e-02		-52.973		1.384e-02		12.588
7		0.00		-3.20		5.627e-02		-54.185		1.530e-02		8.549
7		0.00		-3.60		6.016e-02		-53.350		1.436e-02		5.452
7		0.00		-4.00		6.215e-02		-51.917		1.306e-02		6.379
7		0.00		-4.40		6.364e-02		-50.566		1.315e-02		7.693
7		0.00		-4.80		6.493e-02		-49.819		1.483e-02		8.505
7		0.00		-5.20		6.497e-02		-46.625		1.500e-02		6.401
7		0.00		-5.60		6.481e-02		-45.166		1.929e-02		12.115
7		0.00		-6.00		6.291e-02		-45.616		1.934e-02		15.620
7		0.00		-6.40		6.148e-02		-44.708		1.693e-02		13.915
7		0.00		-6.80		6.529e-02		-46.457		1.743e-02		10.212
7		0.00		-7.20		6.520e-02		-43.778		1.496e-02		10.178
7		0.00		-7.60		6.886e-02		-44.389		1.469e-02		8.386
7		0.00		-8.00		6.701e-02		-41.237		1.537e-02		10.472
7		0.00		-8.40		6.709e-02		-40.985		1.602e-02		9.778
7		0.00		-8.80		6.253e-02		-37.621		1.776e-02		10.614
7		0.00		-9.20		6.199e-02		-40.652		1.885e-02		10.197
7		0.00		-9.60		5.631e-02		-44.038		1.774e-02		13.762
7		0.00		-10.00		5.063e-02		-43.009		1.530e-02		18.908
7		0.00		-9.60		5.613e-02		-45.922		1.593e-02		12.717
7		0.00		-9.20		5.984e-02		-43.000		1.636e-02		7.317
7		0.00		-8.80		6.358e-02		-43.268		1.585e-02		7.814
7		0.00		-8.40		6.538e-02		-45.179		1.571e-02		9.517
7		0.00		-8.00		6.313e-02		-43.886		1.489e-02		9.426
7		0.00		-7.60		6.304e-02		-44.945		1.685e-02		10.380
7		0.00		-7.20		6.030e-02		-45.675		1.772e-02		12.862
7		0.00		-6.80		5.669e-02		-46.967		1.733e-02		13.797
7		0.00		-6.40		5.501e-02		-48.239		1.581e-02		13.212
7		0.00		-6.00		5.225e-02		-48.404		1.473e-02		9.894
7		0.00		-5.60		4.969e-02		-49.042		1.196e-02		6.842
7		0.00		-5.20		4.751e-02		-49.222		9.058e-03		4.735
7		0.00		-4.80		4.363e-02		-48.686		7.093e-03		4.915
7		0.00		-4.40		3.972e-02		-49.698		6.753e-03		5.623
7		0.00		-4.00		3.546e-02		-49.991		7.187e-03		7.510
7		0.00		-3.60		3.154e-02		-50.131		6.773e-03		8.736
7		0.00		-3.20		2.734e-02		-48.619		6.112e-03		9.164
7		0.00		-2.80		2.311e-02		-48.779		5.401e-03		8.715
7		0.00		-2.40		1.931e-02		-50.461		4.016e-03		7.118
7		0.00		-2.00		1.520e-02		-45.128		2.735e-03		8.817
7		0.00		-1.60		1.074e-02		-43.835		2.027e-03		9.809
7		0.00		-1.20		6.075e-03		-47.123		1.548e-03		19.549
7		0.00		-0.80		2.054e-03		-48.198		8.675e-04		58.675
7		0.00		-0.40		3.078e-03		98.696		1.238e-03		60.465
8		0.00		0.00		7.416e-03		123.696		2.108e-03		20.492
8		0.00		0.40		1.175e-02		128.372		3.059e-03		10.919
8		0.00		0.80		1.604e-02		129.019		3.552e-03		9.645
8		0.00		1.20		2.094e-02		131.130		3.808e-03		8.111
8		0.00		1.60		2.484e-02		132.528		4.298e-03		6.258
8		0.00		2.00		2.866e-02		132.896		5.644e-03		8.049
8		0.00		2.40		3.240e-02		131.463		7.656e-03		10.224
8		0.00		2.80		3.541e-02		131.369		9.250e-03		13.679
8		0.00		3.20		3.959e-02		131.247		9.693e-03		9.614
8		0.00		3.60		4.418e-02		131.643		8.941e-03		6.078
8		0.00		4.00		4.721e-02		132.521		7.981e-03		4.443
8		0.00		4.40		5.024e-02		133.159		8.990e-03		4.160
8		0.00		4.80		5.226e-02		132.550		1.190e-02		6.501
8		0.00		5.20		5.476e-02		131.022		1.387e-02		12.067
8		0.00		5.60		5.720e-02		130.330		1.491e-02		15.223
8		0.00		6.00		6.066e-02		131.413		1.440e-02		6.808
8		0.00		6.40		6.280e-02		133.830		1.342e-02		6.548
8		0.00		6.80		6.488e-02		133.249		1.413e-02		8.607
8		0.00		7.20		6.640e-02		134.892		1.502e-02		7.298
8		0.00		7.60		6.468e-02		133.373		1.886e-02		21.630
8		0.00		8.00		6.131e-02		130.010		1.780e-02		36.072
8		0.00		8.40		6.231e-02		129.442		1.798e-02		30.923
8		0.00		8.80		6.733e-02		134.735		1.773e-02		20.307
8		0.00		9.20		6.788e-02		130.003		1.581e-02		26.773
8		0.00		9.60		6.715e-02		129.366		2.044e-02		20.216
8		0.00		10.00		6.322e-02		133.132		2.069e-02		22.809
8		0.00		9.60		6.260e-02		132.914		2.085e-02		30.627
8		0.00		9.20		6.362e-02		127.596		2.060e-02		40.969
8		0.00		8.80		6.560e-02		127.277		1.971e-02		30.255
8		0.00		8.40		6.472e-02		134.704		1.565e-02		7.058
8		0.00		8.00		6.329e-02		134.078		1.348e-02		8.485
8		0.00		7.60		6.044e-02		132.518		1.426e-02		9.464
8		0.00		7.20		5.774e-02		131.385		1.479e-02		10.137
8		0.00		6.80		5.433e-02		131.069		1.426e-02		13.320
8		0.00		6.40		5.086e-02		130.841		1.306e-02		11.100
8		0.00		6.00		4.812e-02		131.200		1.118e-02		6.009
8		0.00		5.60		4.495e-02		133.022		8.891e-03		5.347
8		0.00		5.20		4.039e-02		133.376		7.307e-03		5.802
8		0.00		4.80		3.601e-02		134.166		6.933e-03		6.781
8		0.00		4.40		3.142e-02		133.764		6.626e-03		10.847
8		0.00		4.00		2.647e-02		132.272		6.001e-03		15.298
8		0.00		3.60		2.192e-02		131.387		5.388e-03		12.823
8		0.00		3.20		1.741e-02		133.582		3.925e-03		9.697
8		0.00		2.80		1.335e-02		134.464		2.469e-03		9.316
8		0.00		2.40		7.972e-03		132.227		1.678e-03		11.902
8		0.00		2.00		3.027e-03		97.866		1.155e-03		70.171
8		0.00		1.60		2.879e-03		-58.348		1.188e-03		36.381
8		0.00		1.20		7.287e-03		-56.414		2.047e-03		15.375
8		0.00		0.80		1.186e-02		-52.247		3.129e-03		13.131
8		0.00		0.40		1.723e-02		-51.431		3.765e-03		8.747
8		0.00		0.00		2.261e-02		-52.556		4.119e-03		7.966
8		0.00		-0.40		2.756e-02		-50.110		4.126e-03		7.625
8		0.00		-0.80		3.270e-02		-50.586		4.359e-03		6.163
8		0.00		-1.20		3.705e-02		-49.950		5.806e-03		6.537
8		0.00		-1.60		4.178e-02		-50.301		7.433e-03		6.883
8		0.00		-2.00		4.539e-02		-50.472		9.925e-03		8.797
8		0.00		-2.40		4.936e-02		-51.254		1.105e-02		9.257
8		0.00		-2.80		5.428e-02		-53.354		1.280e-02		9.201
8		0.00		-3.20		5.756e-02		-51.958		1.181e-02		4.822
8		0.00		-3.60		6.270e-02		-53.266		1.130e-02		4.411
8		0.00		-4.00		6.486e-02		-52.662		1.208e-02		7.803
8		0.00		-4.40		6.533e-02		-49.792		1.356e-02		7.351
8		0.00		-4.80		6.581e-02		-47.210		1.399e-02		6.847
8		0.00		-5.20		6.362e-02		-45.196		1.856e-02		13.665
8		0.00		-5.60		6.251e-02		-46.811		1.884e-02		17.181
8		0.00		-6.00		6.072e-02		-46.786		1.764e-02		18.264
8		0.00		-6.40		6.203e-02		-44.373		1.671e-02		10.878
8		0.00		-6.80		6.445e-02		-42.696		1.701e-02		13.815
8		0.00		-7.20		6.691e-02		-45.176		1.591e-02		12.443
8		0.00		-7.60		6.910e-02		-41.507		1.630e-02		14.029
8		0.00		-8.00		6.808e-02		-44.024		1.639e-02		15.378
8		0.00		-8.40		6.834e-02		-43.662		1.820e-02		13.714
8		0.00		-8.80		6.548e-02		-42.388		1.696e-02		13.639
8		0.00		-9.20		6.259e-02		-41.849		1.890e-02		14.050
8		0.00		-9.60		5.747e-02		-42.192		1.733e-02		15.280
8		0.00		-10.00		5.184e-02		-41.260		1.482e-02		20.476
8		0.00		-9.60		5.740e-02		-45.731		1.588e-02		15.799
8		0.00		-9.20		6.189e-02		-42.788		1.682e-02		11.926
8		0.00		-8.80		6.385e-02		-43.229		1.495e-02		8.287
8		0.00		-8.40		6.658e-02		-42.423		1.368e-02		8.275
8		0.00		-8.00		6.677e-02		-46.076		1.327e-02		9.618
8		0.00		-7.60		6.546e-02		-45.392		1.290e-02		8.536
8		0.00		-7.20		6.334e-02		-47.778		1.389e-02		10.619
8		0.00		-6.80		6.054e-02		-46.600		1.325e-02		7.936
8		0.00		-6.40		5.625e-02		-46.958		1.406e-02		7.650
8		0.00		-6.00		5.349e-02		-46.737		1.365e-02		7.060
8		0.00		-5.60		5.006e-02		-48.233		1.337e-02		9.213
8		0.00		-5.20		4.607e-02		-49.918		1.241e-02		9.587
8		0.00		-4.80		4.241e-02		-51.229		1.160e-02		10.218
8		0.00		-4.40		3.829e-02		-51.795		9.639e-03		7.765
8		0.00		-4.00		3.460e-02		-51.554		7.622e-03		6.676
8		0.00		-3.60		3.134e-02		-49.674		5.680e-03		6.402
8		0.00		-3.20		2.766e-02		-50.308		4.401e-03		6.602
8		0.00		-2.80		2.342e-02		-47.630		3.580e-03		6.000
8		0.00		-2.40		1.893e-02		-46.765		3.280e-03		9.295
8		0.00		-2.00		1.459e-02		-48.284		2.656e-03		8.728
8		0.00		-1.60		9.791e-03		-45.589		2.129e-03		12.991
8		0.00		-1.20		5.465e-03		-43.259		1.469e-03		15.900
8		0.00		-0.80		1.963e-03		-15.875		9.331e-04		54.486
8		0.00		-0.40		3.430e-03		108.836		1.159e-03		44.625
