# Date of analysis: 2023-10-17 09;56
# 
# Loop index	Read Volt (V)	Write Volt (V)	Amplitude (a.u)	Phase (deg)	
1		0.00		0.00		3.867e-02		-52.444
1		0.00		0.40		3.767e-02		-52.259
1		0.00		0.80		3.630e-02		-53.493
1		0.00		1.20		3.639e-02		-51.465
1		0.00		1.60		3.564e-02		-53.338
1		0.00		2.00		3.507e-02		-51.719
1		0.00		2.40		3.548e-02		-53.153
1		0.00		2.80		3.475e-02		-52.673
1		0.00		3.20		3.425e-02		-54.193
1		0.00		3.60		3.424e-02		-54.303
1		0.00		4.00		3.446e-02		-52.344
1		0.00		4.40		3.482e-02		-55.092
1		0.00		4.80		3.587e-02		-56.152
1		0.00		5.20		3.713e-02		-55.298
1		0.00		5.60		3.924e-02		-56.722
1		0.00		6.00		4.168e-02		-55.663
1		0.00		6.40		4.408e-02		-54.606
1		0.00		6.80		4.738e-02		-53.928
1		0.00		7.20		5.040e-02		-52.413
1		0.00		7.60		5.332e-02		-51.980
1		0.00		8.00		5.591e-02		-52.169
1		0.00		8.40		5.868e-02		-50.837
1		0.00		8.80		5.962e-02		-50.013
1		0.00		9.20		6.133e-02		-48.677
1		0.00		9.60		6.125e-02		-48.124
1		0.00		10.00		6.209e-02		-46.888
1		0.00		9.60		6.107e-02		-48.133
1		0.00		9.20		5.999e-02		-49.474
1		0.00		8.80		5.797e-02		-48.578
1		0.00		8.40		5.743e-02		-49.050
1		0.00		8.00		5.626e-02		-50.005
1		0.00		7.60		5.283e-02		-50.747
1		0.00		7.20		5.216e-02		-51.698
1		0.00		6.80		5.170e-02		-51.359
1		0.00		6.40		4.953e-02		-52.250
1		0.00		6.00		4.991e-02		-50.798
1		0.00		5.60		4.874e-02		-51.771
1		0.00		5.20		4.732e-02		-50.598
1		0.00		4.80		4.651e-02		-50.893
1		0.00		4.40		4.629e-02		-50.250
1		0.00		4.00		4.530e-02		-51.040
1		0.00		3.60		4.428e-02		-50.858
1		0.00		3.20		4.328e-02		-51.373
1		0.00		2.80		4.262e-02		-51.270
1		0.00		2.40		4.116e-02		-50.226
1		0.00		2.00		4.016e-02		-50.835
1		0.00		1.60		3.908e-02		-50.517
1		0.00		1.20		3.785e-02		-51.072
1		0.00		0.80		3.742e-02		-51.101
1		0.00		0.40		3.740e-02		-51.793
1		0.00		0.00		3.639e-02		-50.958
1		0.00		-0.40		3.477e-02		-52.073
1		0.00		-0.80		3.131e-02		-50.001
1		0.00		-1.20		2.894e-02		-51.808
1		0.00		-1.60		2.707e-02		-52.227
1		0.00		-2.00		2.329e-02		-51.661
1		0.00		-2.40		2.075e-02		-51.720
1		0.00		-2.80		1.727e-02		-53.278
1		0.00		-3.20		1.451e-02		-49.760
1		0.00		-3.60		1.149e-02		-48.238
1		0.00		-4.00		7.291e-03		-50.025
1		0.00		-4.40		4.723e-03		-55.249
1		0.00		-4.80		2.591e-03		-31.901
1		0.00		-5.20		3.006e-03		62.971
1		0.00		-5.60		5.066e-03		103.189
1		0.00		-6.00		8.012e-03		121.130
1		0.00		-6.40		1.008e-02		119.683
1		0.00		-6.80		1.250e-02		120.710
1		0.00		-7.20		1.501e-02		120.234
1		0.00		-7.60		1.700e-02		122.191
1		0.00		-8.00		1.834e-02		122.806
1		0.00		-8.40		1.981e-02		122.565
1		0.00		-8.80		2.052e-02		120.995
1		0.00		-9.20		2.148e-02		123.035
1		0.00		-9.60		2.173e-02		122.293
1		0.00		-10.00		2.394e-02		125.197
1		0.00		-9.60		2.317e-02		127.141
1		0.00		-9.20		2.305e-02		125.248
1		0.00		-8.80		2.253e-02		124.321
1		0.00		-8.40		2.236e-02		124.694
1		0.00		-8.00		2.208e-02		125.046
1		0.00		-7.60		2.092e-02		124.455
1		0.00		-7.20		2.001e-02		127.145
1		0.00		-6.80		1.820e-02		127.121
1		0.00		-6.40		1.635e-02		126.488
1		0.00		-6.00		1.459e-02		124.104
1		0.00		-5.60		1.412e-02		125.539
1		0.00		-5.20		1.315e-02		127.523
1		0.00		-4.80		1.249e-02		123.638
1		0.00		-4.40		1.125e-02		125.961
1		0.00		-4.00		9.990e-03		126.999
1		0.00		-3.60		9.012e-03		129.036
1		0.00		-3.20		8.369e-03		124.536
1		0.00		-2.80		7.710e-03		125.654
1		0.00		-2.40		7.083e-03		131.789
1		0.00		-2.00		6.287e-03		124.415
1		0.00		-1.60		5.698e-03		125.616
1		0.00		-1.20		4.649e-03		116.188
1		0.00		-0.80		4.219e-03		115.763
1		0.00		-0.40		3.563e-03		111.287
2		0.00		0.00		2.956e-03		87.786
2		0.00		0.40		2.169e-03		53.353
2		0.00		0.80		1.770e-03		32.608
2		0.00		1.20		1.798e-03		18.758
2		0.00		1.60		2.222e-03		-38.833
2		0.00		2.00		2.177e-03		-45.711
2		0.00		2.40		3.144e-03		-66.617
2		0.00		2.80		3.685e-03		-65.016
2		0.00		3.20		4.878e-03		-60.563
2		0.00		3.60		6.309e-03		-50.208
2		0.00		4.00		8.045e-03		-57.068
2		0.00		4.40		9.934e-03		-49.155
2		0.00		4.80		1.217e-02		-53.459
2		0.00		5.20		1.540e-02		-52.609
2		0.00		5.60		1.873e-02		-54.035
2		0.00		6.00		2.325e-02		-51.248
2		0.00		6.40		2.574e-02		-50.694
2		0.00		6.80		2.929e-02		-53.164
2		0.00		7.20		3.314e-02		-52.782
2		0.00		7.60		3.804e-02		-53.789
2		0.00		8.00		4.121e-02		-52.214
2		0.00		8.40		4.451e-02		-53.667
2		0.00		8.80		4.735e-02		-53.155
2		0.00		9.20		4.917e-02		-52.900
2		0.00		9.60		5.113e-02		-52.079
2		0.00		10.00		5.257e-02		-52.560
2		0.00		9.60		5.130e-02		-52.507
2		0.00		9.20		5.035e-02		-51.902
2		0.00		8.80		4.828e-02		-54.198
2		0.00		8.40		4.739e-02		-52.509
2		0.00		8.00		4.656e-02		-52.740
2		0.00		7.60		4.565e-02		-51.938
2		0.00		7.20		4.439e-02		-51.831
2		0.00		6.80		4.303e-02		-50.529
2		0.00		6.40		4.130e-02		-50.187
2		0.00		6.00		3.989e-02		-51.393
2		0.00		5.60		3.921e-02		-50.216
2		0.00		5.20		3.830e-02		-51.118
2		0.00		4.80		3.706e-02		-50.896
2		0.00		4.40		3.654e-02		-50.276
2		0.00		4.00		3.566e-02		-50.733
2		0.00		3.60		3.445e-02		-51.393
2		0.00		3.20		3.442e-02		-52.069
2		0.00		2.80		3.324e-02		-51.678
2		0.00		2.40		3.262e-02		-50.943
2		0.00		2.00		3.207e-02		-51.568
2		0.00		1.60		3.158e-02		-50.508
2		0.00		1.20		3.157e-02		-49.814
2		0.00		0.80		3.141e-02		-50.478
2		0.00		0.40		3.097e-02		-49.757
2		0.00		0.00		3.041e-02		-51.735
2		0.00		-0.40		2.925e-02		-51.480
2		0.00		-0.80		2.710e-02		-50.013
2		0.00		-1.20		2.532e-02		-50.059
2		0.00		-1.60		2.289e-02		-49.567
2		0.00		-2.00		1.951e-02		-50.124
2		0.00		-2.40		1.648e-02		-50.581
2		0.00		-2.80		1.328e-02		-53.761
2		0.00		-3.20		1.107e-02		-52.805
2		0.00		-3.60		8.328e-03		-50.370
2		0.00		-4.00		4.538e-03		-37.757
2		0.00		-4.40		3.103e-03		-31.489
2		0.00		-4.80		2.659e-03		36.910
2		0.00		-5.20		4.410e-03		95.906
2		0.00		-5.60		6.706e-03		118.672
2		0.00		-6.00		8.630e-03		123.365
2		0.00		-6.40		1.043e-02		121.984
2		0.00		-6.80		1.226e-02		120.272
2		0.00		-7.20		1.311e-02		121.318
2		0.00		-7.60		1.568e-02		123.794
2		0.00		-8.00		1.712e-02		122.995
2		0.00		-8.40		1.797e-02		125.445
2		0.00		-8.80		1.946e-02		125.135
2		0.00		-9.20		1.840e-02		127.810
2		0.00		-9.60		2.067e-02		127.205
2		0.00		-10.00		2.246e-02		128.166
2		0.00		-9.60		2.402e-02		127.748
2		0.00		-9.20		2.226e-02		128.453
2		0.00		-8.80		2.238e-02		127.733
2		0.00		-8.40		2.155e-02		127.690
2		0.00		-8.00		2.112e-02		131.339
2		0.00		-7.60		1.982e-02		129.253
2		0.00		-7.20		1.866e-02		129.289
2		0.00		-6.80		1.667e-02		127.704
2		0.00		-6.40		1.590e-02		127.206
2		0.00		-6.00		1.458e-02		125.616
2		0.00		-5.60		1.324e-02		125.831
2		0.00		-5.20		1.240e-02		121.553
2		0.00		-4.80		1.140e-02		120.674
2		0.00		-4.40		1.065e-02		120.712
2		0.00		-4.00		9.323e-03		122.388
2		0.00		-3.60		9.048e-03		125.297
2		0.00		-3.20		8.020e-03		129.399
2		0.00		-2.80		7.118e-03		130.898
2		0.00		-2.40		6.390e-03		123.141
2		0.00		-2.00		5.590e-03		130.898
2		0.00		-1.60		4.627e-03		124.731
2		0.00		-1.20		3.704e-03		107.545
2		0.00		-0.80		3.121e-03		87.865
2		0.00		-0.40		2.528e-03		74.316
3		0.00		0.00		2.361e-03		70.352
3		0.00		0.40		1.982e-03		37.269
3		0.00		0.80		1.819e-03		9.667
3		0.00		1.20		1.653e-03		-23.419
3		0.00		1.60		2.067e-03		-44.752
3		0.00		2.00		2.514e-03		-58.932
3		0.00		2.40		3.075e-03		-55.072
3		0.00		2.80		3.854e-03		-61.165
3		0.00		3.20		4.737e-03		-60.988
3		0.00		3.60		5.980e-03		-58.416
3		0.00		4.00		8.128e-03		-51.589
3		0.00		4.40		9.867e-03		-53.748
3		0.00		4.80		1.126e-02		-49.027
3		0.00		5.20		1.272e-02		-47.502
3		0.00		5.60		1.563e-02		-53.208
3		0.00		6.00		1.833e-02		-52.275
3		0.00		6.40		2.122e-02		-50.793
3		0.00		6.80		2.413e-02		-50.138
3		0.00		7.20		2.749e-02		-53.133
3		0.00		7.60		3.116e-02		-53.414
3		0.00		8.00		3.355e-02		-53.965
3		0.00		8.40		3.741e-02		-53.521
3		0.00		8.80		4.039e-02		-52.663
3		0.00		9.20		4.300e-02		-52.138
3		0.00		9.60		4.498e-02		-50.897
3		0.00		10.00		4.703e-02		-50.683
3		0.00		9.60		4.539e-02		-50.476
3		0.00		9.20		4.457e-02		-51.449
3		0.00		8.80		4.269e-02		-50.849
3		0.00		8.40		4.094e-02		-51.444
3		0.00		8.00		3.936e-02		-50.292
3		0.00		7.60		3.757e-02		-49.683
3		0.00		7.20		3.640e-02		-50.733
3		0.00		6.80		3.532e-02		-52.790
3		0.00		6.40		3.505e-02		-53.253
3		0.00		6.00		3.470e-02		-52.473
3		0.00		5.60		3.443e-02		-52.428
3		0.00		5.20		3.355e-02		-50.440
3		0.00		4.80		3.331e-02		-49.440
3		0.00		4.40		3.300e-02		-49.792
3		0.00		4.00		3.150e-02		-50.949
3		0.00		3.60		3.050e-02		-50.723
3		0.00		3.20		2.893e-02		-49.578
3		0.00		2.80		2.830e-02		-49.812
3		0.00		2.40		2.774e-02		-50.196
3		0.00		2.00		2.725e-02		-50.886
3		0.00		1.60		2.702e-02		-52.338
3		0.00		1.20		2.653e-02		-52.571
3		0.00		0.80		2.675e-02		-52.578
3		0.00		0.40		2.753e-02		-51.939
3		0.00		0.00		2.768e-02		-50.311
3		0.00		-0.40		2.683e-02		-51.221
3		0.00		-0.80		2.567e-02		-49.348
3		0.00		-1.20		2.328e-02		-49.765
3		0.00		-1.60		2.084e-02		-51.133
3		0.00		-2.00		1.822e-02		-51.108
3		0.00		-2.40		1.539e-02		-47.987
3		0.00		-2.80		1.317e-02		-49.382
3		0.00		-3.20		9.644e-03		-53.058
3		0.00		-3.60		7.353e-03		-47.992
3		0.00		-4.00		4.782e-03		-47.471
3		0.00		-4.40		2.947e-03		-23.648
3		0.00		-4.80		2.596e-03		5.255
3		0.00		-5.20		3.403e-03		80.339
3		0.00		-5.60		5.038e-03		116.722
3		0.00		-6.00		7.152e-03		123.456
3		0.00		-6.40		9.050e-03		122.097
3		0.00		-6.80		1.174e-02		123.115
3		0.00		-7.20		1.475e-02		126.491
3		0.00		-7.60		1.622e-02		127.706
3		0.00		-8.00		1.779e-02		126.807
3		0.00		-8.40		1.864e-02		127.214
3		0.00		-8.80		1.910e-02		130.637
3		0.00		-9.20		2.048e-02		129.424
3		0.00		-9.60		2.093e-02		128.623
3		0.00		-10.00		2.159e-02		128.168
3		0.00		-9.60		2.148e-02		124.009
3		0.00		-9.20		2.128e-02		126.896
3		0.00		-8.80		2.144e-02		126.992
3		0.00		-8.40		2.087e-02		128.417
3		0.00		-8.00		1.967e-02		128.057
3		0.00		-7.60		1.900e-02		128.708
3		0.00		-7.20		1.779e-02		127.079
3		0.00		-6.80		1.663e-02		125.433
3		0.00		-6.40		1.525e-02		126.284
3		0.00		-6.00		1.412e-02		126.846
3		0.00		-5.60		1.298e-02		128.543
3		0.00		-5.20		1.149e-02		127.415
3		0.00		-4.80		1.039e-02		130.933
3		0.00		-4.40		9.187e-03		126.153
3		0.00		-4.00		8.569e-03		124.822
3		0.00		-3.60		7.841e-03		120.492
3		0.00		-3.20		6.836e-03		125.638
3		0.00		-2.80		6.392e-03		127.347
3		0.00		-2.40		5.495e-03		122.299
3		0.00		-2.00		4.467e-03		123.515
3		0.00		-1.60		3.800e-03		116.392
3		0.00		-1.20		3.369e-03		103.073
3		0.00		-0.80		3.068e-03		79.493
3		0.00		-0.40		2.388e-03		55.950
4		0.00		0.00		2.139e-03		37.332
4		0.00		0.40		1.872e-03		-7.084
4		0.00		0.80		1.897e-03		-25.856
4		0.00		1.20		2.121e-03		-46.236
4		0.00		1.60		2.690e-03		-47.110
4		0.00		2.00		3.256e-03		-52.252
4		0.00		2.40		3.759e-03		-54.850
4		0.00		2.80		4.544e-03		-46.693
4		0.00		3.20		5.540e-03		-62.231
4		0.00		3.60		6.662e-03		-44.201
4		0.00		4.00		8.102e-03		-53.030
4		0.00		4.40		9.248e-03		-48.367
4		0.00		4.80		1.001e-02		-53.930
4		0.00		5.20		1.161e-02		-46.933
4		0.00		5.60		1.437e-02		-51.900
4		0.00		6.00		1.697e-02		-50.467
4		0.00		6.40		2.034e-02		-50.668
4		0.00		6.80		2.369e-02		-50.521
4		0.00		7.20		2.614e-02		-50.833
4		0.00		7.60		2.920e-02		-49.873
4		0.00		8.00		3.170e-02		-50.033
4		0.00		8.40		3.413e-02		-50.613
4		0.00		8.80		3.644e-02		-51.691
4		0.00		9.20		3.868e-02		-54.739
4		0.00		9.60		4.139e-02		-53.809
4		0.00		10.00		4.375e-02		-51.688
4		0.00		9.60		4.356e-02		-50.231
4		0.00		9.20		4.215e-02		-50.228
4		0.00		8.80		3.891e-02		-51.423
4		0.00		8.40		3.758e-02		-51.294
4		0.00		8.00		3.596e-02		-50.426
4		0.00		7.60		3.545e-02		-53.385
4		0.00		7.20		3.527e-02		-53.044
4		0.00		6.80		3.531e-02		-50.948
4		0.00		6.40		3.500e-02		-50.118
4		0.00		6.00		3.373e-02		-51.082
4		0.00		5.60		3.259e-02		-50.219
4		0.00		5.20		3.206e-02		-49.987
4		0.00		4.80		3.099e-02		-52.235
4		0.00		4.40		3.065e-02		-51.958
4		0.00		4.00		3.115e-02		-51.430
4		0.00		3.60		3.098e-02		-50.328
4		0.00		3.20		3.021e-02		-50.398
4		0.00		2.80		2.928e-02		-50.203
4		0.00		2.40		2.884e-02		-49.102
4		0.00		2.00		2.828e-02		-50.057
4		0.00		1.60		2.734e-02		-50.443
4		0.00		1.20		2.735e-02		-53.072
4		0.00		0.80		2.790e-02		-51.733
4		0.00		0.40		2.816e-02		-50.163
4		0.00		0.00		2.759e-02		-49.963
4		0.00		-0.40		2.721e-02		-50.129
4		0.00		-0.80		2.543e-02		-49.247
4		0.00		-1.20		2.334e-02		-50.443
4		0.00		-1.60		2.133e-02		-50.172
4		0.00		-2.00		1.939e-02		-50.325
4		0.00		-2.40		1.709e-02		-51.783
4		0.00		-2.80		1.374e-02		-55.239
4		0.00		-3.20		1.177e-02		-52.127
4		0.00		-3.60		8.985e-03		-47.732
4		0.00		-4.00		6.611e-03		-47.912
4		0.00		-4.40		3.846e-03		-35.315
4		0.00		-4.80		2.588e-03		-10.623
4		0.00		-5.20		2.714e-03		50.663
4		0.00		-5.60		4.441e-03		109.501
4		0.00		-6.00		6.729e-03		124.764
4		0.00		-6.40		8.616e-03		124.315
4		0.00		-6.80		1.090e-02		128.787
4		0.00		-7.20		1.310e-02		129.311
4		0.00		-7.60		1.508e-02		128.233
4		0.00		-8.00		1.674e-02		128.736
4		0.00		-8.40		1.788e-02		125.918
4		0.00		-8.80		1.905e-02		123.400
4		0.00		-9.20		2.029e-02		123.054
4		0.00		-9.60		2.191e-02		125.350
4		0.00		-10.00		2.234e-02		126.194
4		0.00		-9.60		2.234e-02		130.292
4		0.00		-9.20		2.216e-02		128.060
4		0.00		-8.80		2.185e-02		129.109
4		0.00		-8.40		2.084e-02		128.710
4		0.00		-8.00		2.031e-02		129.266
4		0.00		-7.60		1.982e-02		128.804
4		0.00		-7.20		1.869e-02		127.131
4		0.00		-6.80		1.802e-02		126.076
4		0.00		-6.40		1.592e-02		124.807
4		0.00		-6.00		1.466e-02		124.531
4		0.00		-5.60		1.332e-02		128.141
4		0.00		-5.20		1.228e-02		130.294
4		0.00		-4.80		1.138e-02		128.387
4		0.00		-4.40		1.049e-02		129.391
4		0.00		-4.00		9.532e-03		129.322
4		0.00		-3.60		8.673e-03		125.522
4		0.00		-3.20		7.669e-03		130.709
4		0.00		-2.80		6.786e-03		130.709
4		0.00		-2.40		5.712e-03		122.275
4		0.00		-2.00		5.197e-03		123.950
4		0.00		-1.60		4.546e-03		120.307
4		0.00		-1.20		3.817e-03		106.363
4		0.00		-0.80		3.061e-03		103.107
4		0.00		-0.40		2.627e-03		96.117
5		0.00		0.00		2.209e-03		45.252
5		0.00		0.40		1.915e-03		22.556
5		0.00		0.80		1.782e-03		-13.140
5		0.00		1.20		1.871e-03		-29.618
5		0.00		1.60		2.476e-03		-56.278
5		0.00		2.00		2.893e-03		-50.016
5		0.00		2.40		3.517e-03		-58.124
5		0.00		2.80		4.351e-03		-54.909
5		0.00		3.20		5.159e-03		-54.763
5		0.00		3.60		5.513e-03		-52.782
5		0.00		4.00		6.725e-03		-53.707
5		0.00		4.40		7.626e-03		-51.497
5		0.00		4.80		8.449e-03		-54.508
5		0.00		5.20		9.878e-03		-48.437
5		0.00		5.60		1.208e-02		-49.081
5		0.00		6.00		1.503e-02		-50.575
5		0.00		6.40		1.814e-02		-50.011
5		0.00		6.80		2.155e-02		-49.618
5		0.00		7.20		2.650e-02		-52.274
5		0.00		7.60		2.866e-02		-50.873
5		0.00		8.00		3.184e-02		-50.058
5		0.00		8.40		3.377e-02		-50.443
5		0.00		8.80		3.701e-02		-49.858
5		0.00		9.20		4.016e-02		-49.978
5		0.00		9.60		4.176e-02		-50.138
5		0.00		10.00		4.367e-02		-49.918
5		0.00		9.60		4.264e-02		-51.188
5		0.00		9.20		4.090e-02		-50.719
5		0.00		8.80		4.011e-02		-50.714
5		0.00		8.40		3.897e-02		-51.987
5		0.00		8.00		3.742e-02		-53.249
5		0.00		7.60		3.616e-02		-52.551
5		0.00		7.20		3.473e-02		-52.931
5		0.00		6.80		3.460e-02		-52.133
5		0.00		6.40		3.393e-02		-52.598
5		0.00		6.00		3.448e-02		-51.321
5		0.00		5.60		3.402e-02		-50.678
5		0.00		5.20		3.368e-02		-51.145
5		0.00		4.80		3.321e-02		-50.911
5		0.00		4.40		3.276e-02		-48.397
5		0.00		4.00		3.254e-02		-50.171
5		0.00		3.60		3.199e-02		-48.303
5		0.00		3.20		3.114e-02		-48.794
5		0.00		2.80		3.037e-02		-47.941
5		0.00		2.40		2.938e-02		-49.577
5		0.00		2.00		2.859e-02		-50.756
5		0.00		1.60		2.734e-02		-50.151
5		0.00		1.20		2.721e-02		-51.038
5		0.00		0.80		2.689e-02		-51.691
5		0.00		0.40		2.658e-02		-52.048
5		0.00		0.00		2.656e-02		-52.683
5		0.00		-0.40		2.597e-02		-52.268
5		0.00		-0.80		2.457e-02		-51.193
5		0.00		-1.20		2.274e-02		-53.148
5		0.00		-1.60		2.039e-02		-49.211
5		0.00		-2.00		1.867e-02		-53.439
5		0.00		-2.40		1.620e-02		-48.188
5		0.00		-2.80		1.390e-02		-51.312
5		0.00		-3.20		1.142e-02		-48.422
5		0.00		-3.60		8.524e-03		-55.848
5		0.00		-4.00		6.675e-03		-51.439
5		0.00		-4.40		4.384e-03		-45.306
5		0.00		-4.80		3.371e-03		-16.240
5		0.00		-5.20		2.514e-03		31.340
5		0.00		-5.60		3.837e-03		93.938
5		0.00		-6.00		5.401e-03		126.110
5		0.00		-6.40		8.157e-03		126.101
5		0.00		-6.80		1.153e-02		125.455
5		0.00		-7.20		1.347e-02		128.178
5		0.00		-7.60		1.439e-02		129.053
5		0.00		-8.00		1.621e-02		128.546
5		0.00		-8.40		1.789e-02		125.102
5		0.00		-8.80		1.831e-02		126.785
5		0.00		-9.20		1.902e-02		123.615
5		0.00		-9.60		2.080e-02		123.416
5		0.00		-10.00		2.215e-02		125.424
5		0.00		-9.60		2.205e-02		125.415
5		0.00		-9.20		2.193e-02		126.213
5		0.00		-8.80		2.102e-02		128.002
5		0.00		-8.40		2.058e-02		128.777
5		0.00		-8.00		2.051e-02		129.456
5		0.00		-7.60		2.071e-02		130.417
5		0.00		-7.20		1.884e-02		130.356
5		0.00		-6.80		1.707e-02		128.578
5		0.00		-6.40		1.562e-02		128.836
5		0.00		-6.00		1.369e-02		126.326
5		0.00		-5.60		1.259e-02		127.231
5		0.00		-5.20		1.171e-02		128.171
5		0.00		-4.80		1.067e-02		126.500
5		0.00		-4.40		9.834e-03		127.013
5		0.00		-4.00		8.776e-03		123.824
5		0.00		-3.60		7.961e-03		125.527
5		0.00		-3.20		7.298e-03		129.906
5		0.00		-2.80		6.598e-03		123.547
5		0.00		-2.40		5.690e-03		124.041
5		0.00		-2.00		5.143e-03		125.097
5		0.00		-1.60		4.385e-03		123.085
5		0.00		-1.20		3.704e-03		108.646
5		0.00		-0.80		3.201e-03		95.516
5		0.00		-0.40		2.517e-03		71.104
6		0.00		0.00		2.358e-03		66.086
6		0.00		0.40		1.897e-03		25.435
6		0.00		0.80		1.838e-03		6.472
6		0.00		1.20		1.817e-03		-21.169
6		0.00		1.60		2.344e-03		-44.687
6		0.00		2.00		2.482e-03		-49.333
6		0.00		2.40		3.048e-03		-54.853
6		0.00		2.80		3.967e-03		-53.837
6		0.00		3.20		5.115e-03		-58.894
6		0.00		3.60		5.568e-03		-54.983
6		0.00		4.00		6.454e-03		-56.590
6		0.00		4.40		7.604e-03		-47.912
6		0.00		4.80		8.845e-03		-50.623
6		0.00		5.20		1.049e-02		-50.201
6		0.00		5.60		1.224e-02		-50.640
6		0.00		6.00		1.438e-02		-51.348
6		0.00		6.40		1.642e-02		-50.572
6		0.00		6.80		1.894e-02		-50.171
6		0.00		7.20		2.259e-02		-49.783
6		0.00		7.60		2.545e-02		-50.328
6		0.00		8.00		2.899e-02		-53.504
6		0.00		8.40		3.313e-02		-53.453
6		0.00		8.80		3.615e-02		-51.505
6		0.00		9.20		3.958e-02		-51.741
6		0.00		9.60		4.156e-02		-51.103
6		0.00		10.00		4.327e-02		-50.173
6		0.00		9.60		4.295e-02		-49.779
6		0.00		9.20		4.248e-02		-50.009
6		0.00		8.80		4.076e-02		-49.774
6		0.00		8.40		3.877e-02		-49.620
6		0.00		8.00		3.762e-02		-50.611
6		0.00		7.60		3.590e-02		-48.989
6		0.00		7.20		3.455e-02		-50.531
6		0.00		6.80		3.390e-02		-52.565
6		0.00		6.40		3.366e-02		-53.128
6		0.00		6.00		3.341e-02		-52.722
6		0.00		5.60		3.360e-02		-50.076
6		0.00		5.20		3.248e-02		-51.094
6		0.00		4.80		3.217e-02		-49.209
6		0.00		4.40		3.184e-02		-49.999
6		0.00		4.00		3.052e-02		-49.755
6		0.00		3.60		2.999e-02		-49.973
6		0.00		3.20		2.944e-02		-48.173
6		0.00		2.80		2.853e-02		-49.259
6		0.00		2.40		2.818e-02		-49.694
6		0.00		2.00		2.774e-02		-52.002
6		0.00		1.60		2.704e-02		-51.940
6		0.00		1.20		2.746e-02		-49.902
6		0.00		0.80		2.710e-02		-51.409
6		0.00		0.40		2.728e-02		-49.721
6		0.00		0.00		2.689e-02		-49.612
6		0.00		-0.40		2.586e-02		-50.372
6		0.00		-0.80		2.406e-02		-51.320
6		0.00		-1.20		2.239e-02		-49.075
6		0.00		-1.60		2.089e-02		-48.742
6		0.00		-2.00		1.948e-02		-49.376
6		0.00		-2.40		1.713e-02		-47.431
6		0.00		-2.80		1.328e-02		-47.518
6		0.00		-3.20		1.148e-02		-47.482
6		0.00		-3.60		9.187e-03		-42.562
6		0.00		-4.00		5.679e-03		-54.883
6		0.00		-4.40		3.366e-03		-31.616
6		0.00		-4.80		2.567e-03		10.630
6		0.00		-5.20		2.948e-03		63.633
6		0.00		-5.60		5.428e-03		125.898
6		0.00		-6.00		7.541e-03		125.238
6		0.00		-6.40		8.720e-03		125.788
6		0.00		-6.80		1.159e-02		128.259
6		0.00		-7.20		1.328e-02		126.408
6		0.00		-7.60		1.399e-02		125.145
6		0.00		-8.00		1.567e-02		122.672
6		0.00		-8.40		1.719e-02		123.098
6		0.00		-8.80		1.938e-02		124.645
6		0.00		-9.20		1.968e-02		127.496
6		0.00		-9.60		2.153e-02		128.130
6		0.00		-10.00		2.278e-02		126.292
6		0.00		-9.60		2.264e-02		128.845
6		0.00		-9.20		2.200e-02		129.164
6		0.00		-8.80		2.198e-02		129.681
6		0.00		-8.40		2.010e-02		129.789
6		0.00		-8.00		2.004e-02		128.053
6		0.00		-7.60		1.953e-02		128.226
6		0.00		-7.20		1.828e-02		124.521
6		0.00		-6.80		1.731e-02		124.882
6		0.00		-6.40		1.589e-02		125.805
6		0.00		-6.00		1.521e-02		128.966
6		0.00		-5.60		1.343e-02		129.838
6		0.00		-5.20		1.250e-02		129.184
6		0.00		-4.80		1.134e-02		130.962
6		0.00		-4.40		1.071e-02		132.310
6		0.00		-4.00		9.100e-03		126.046
6		0.00		-3.60		8.494e-03		131.817
6		0.00		-3.20		7.447e-03		125.245
6		0.00		-2.80		6.640e-03		124.922
6		0.00		-2.40		6.234e-03		123.933
6		0.00		-2.00		5.333e-03		119.382
6		0.00		-1.60		5.119e-03		124.265
6		0.00		-1.20		4.389e-03		102.125
6		0.00		-0.80		3.442e-03		101.109
6		0.00		-0.40		2.995e-03		95.997
7		0.00		0.00		2.488e-03		57.086
7		0.00		0.40		2.183e-03		60.986
7		0.00		0.80		1.897e-03		-5.620
7		0.00		1.20		1.988e-03		-35.664
7		0.00		1.60		2.226e-03		-49.404
7		0.00		2.00		2.691e-03		-49.310
7		0.00		2.40		3.261e-03		-63.703
7		0.00		2.80		3.807e-03		-64.557
7		0.00		3.20		4.550e-03		-65.303
7		0.00		3.60		5.286e-03		-48.083
7		0.00		4.00		5.887e-03		-50.681
7		0.00		4.40		6.839e-03		-54.720
7		0.00		4.80		8.682e-03		-54.135
7		0.00		5.20		9.694e-03		-50.216
7		0.00		5.60		1.125e-02		-47.548
7		0.00		6.00		1.303e-02		-47.531
7		0.00		6.40		1.648e-02		-50.318
7		0.00		6.80		1.964e-02		-49.608
7		0.00		7.20		2.291e-02		-49.650
7		0.00		7.60		2.582e-02		-49.433
7		0.00		8.00		2.946e-02		-50.629
7		0.00		8.40		3.258e-02		-50.603
7		0.00		8.80		3.647e-02		-49.817
7		0.00		9.20		3.899e-02		-49.234
7		0.00		9.60		4.138e-02		-49.633
7		0.00		10.00		4.165e-02		-50.137
7		0.00		9.60		4.088e-02		-49.782
7		0.00		9.20		3.941e-02		-49.617
7		0.00		8.80		3.896e-02		-51.282
7		0.00		8.40		3.812e-02		-50.859
7		0.00		8.00		3.650e-02		-53.708
7		0.00		7.60		3.645e-02		-53.369
7		0.00		7.20		3.476e-02		-52.773
7		0.00		6.80		3.386e-02		-52.071
7		0.00		6.40		3.373e-02		-51.725
7		0.00		6.00		3.403e-02		-51.863
7		0.00		5.60		3.398e-02		-51.600
7		0.00		5.20		3.341e-02		-50.769
7		0.00		4.80		3.324e-02		-49.215
7		0.00		4.40		3.309e-02		-49.659
7		0.00		4.00		3.244e-02		-49.060
7		0.00		3.60		3.176e-02		-49.672
7		0.00		3.20		3.143e-02		-51.033
7		0.00		2.80		3.065e-02		-50.416
7		0.00		2.40		3.017e-02		-50.270
7		0.00		2.00		2.964e-02		-49.478
7		0.00		1.60		2.960e-02		-50.304
7		0.00		1.20		2.943e-02		-51.362
7		0.00		0.80		2.945e-02		-49.703
7		0.00		0.40		2.852e-02		-50.250
7		0.00		0.00		2.791e-02		-50.473
7		0.00		-0.40		2.690e-02		-49.937
7		0.00		-0.80		2.550e-02		-50.474
7		0.00		-1.20		2.407e-02		-50.698
7		0.00		-1.60		2.201e-02		-50.321
7		0.00		-2.00		1.960e-02		-50.250
7		0.00		-2.40		1.724e-02		-49.292
7		0.00		-2.80		1.441e-02		-53.401
7		0.00		-3.20		1.133e-02		-47.017
7		0.00		-3.60		8.764e-03		-51.350
7		0.00		-4.00		5.386e-03		-52.137
7		0.00		-4.40		3.265e-03		-46.505
7		0.00		-4.80		2.507e-03		8.949
7		0.00		-5.20		3.233e-03		61.724
7		0.00		-5.60		5.215e-03		113.354
7		0.00		-6.00		7.167e-03		125.721
7		0.00		-6.40		9.196e-03		129.124
7		0.00		-6.80		1.105e-02		125.658
7		0.00		-7.20		1.308e-02		125.786
7		0.00		-7.60		1.447e-02		129.151
7		0.00		-8.00		1.599e-02		127.967
7		0.00		-8.40		1.732e-02		128.400
7		0.00		-8.80		1.846e-02		128.814
7		0.00		-9.20		1.945e-02		128.150
7		0.00		-9.60		2.120e-02		128.390
7		0.00		-10.00		2.210e-02		127.771
7		0.00		-9.60		2.153e-02		128.289
7		0.00		-9.20		2.098e-02		130.909
7		0.00		-8.80		2.060e-02		128.485
7		0.00		-8.40		2.040e-02		127.085
7		0.00		-8.00		1.940e-02		130.017
7		0.00		-7.60		1.973e-02		127.211
7		0.00		-7.20		1.800e-02		127.971
7		0.00		-6.80		1.704e-02		128.327
7		0.00		-6.40		1.618e-02		126.797
7		0.00		-6.00		1.458e-02		128.110
7		0.00		-5.60		1.309e-02		124.567
7		0.00		-5.20		1.178e-02		121.530
7		0.00		-4.80		1.099e-02		126.241
7		0.00		-4.40		1.002e-02		123.388
7		0.00		-4.00		9.088e-03		127.602
7		0.00		-3.60		8.270e-03		117.299
7		0.00		-3.20		7.715e-03		120.644
7		0.00		-2.80		6.935e-03		129.736
7		0.00		-2.40		6.357e-03		122.297
7		0.00		-2.00		5.657e-03		122.285
7		0.00		-1.60		4.900e-03		117.029
7		0.00		-1.20		4.315e-03		116.099
7		0.00		-0.80		3.425e-03		109.800
7		0.00		-0.40		3.009e-03		96.578
8		0.00		0.00		2.153e-03		69.355
8		0.00		0.40		2.110e-03		51.180
8		0.00		0.80		1.784e-03		10.682
8		0.00		1.20		1.981e-03		-26.539
8		0.00		1.60		2.055e-03		-42.451
8		0.00		2.00		2.577e-03		-57.067
8		0.00		2.40		3.115e-03		-62.022
8		0.00		2.80		3.542e-03		-63.669
8		0.00		3.20		4.289e-03		-54.359
8		0.00		3.60		5.293e-03		-48.972
8		0.00		4.00		6.202e-03		-45.892
8		0.00		4.40		6.996e-03		-55.811
8		0.00		4.80		7.986e-03		-51.282
8		0.00		5.20		9.738e-03		-55.448
8		0.00		5.60		1.133e-02		-51.683
8		0.00		6.00		1.406e-02		-51.848
8		0.00		6.40		1.648e-02		-50.748
8		0.00		6.80		1.965e-02		-53.418
8		0.00		7.20		2.243e-02		-51.623
8		0.00		7.60		2.535e-02		-51.919
8		0.00		8.00		2.817e-02		-52.438
8		0.00		8.40		3.107e-02		-52.533
8		0.00		8.80		3.373e-02		-51.416
8		0.00		9.20		3.606e-02		-52.639
8		0.00		9.60		3.909e-02		-52.653
8		0.00		10.00		4.060e-02		-53.383
8		0.00		9.60		4.040e-02		-53.888
8		0.00		9.20		3.954e-02		-53.343
8		0.00		8.80		3.839e-02		-54.004
8		0.00		8.40		3.693e-02		-52.708
8		0.00		8.00		3.607e-02		-53.724
8		0.00		7.60		3.560e-02		-53.381
8		0.00		7.20		3.474e-02		-51.806
8		0.00		6.80		3.415e-02		-51.598
8		0.00		6.40		3.271e-02		-50.002
8		0.00		6.00		3.238e-02		-50.720
8		0.00		5.60		3.182e-02		-51.473
8		0.00		5.20		3.150e-02		-50.125
8		0.00		4.80		3.108e-02		-50.316
8		0.00		4.40		3.003e-02		-51.151
8		0.00		4.00		2.974e-02		-50.065
8		0.00		3.60		2.951e-02		-49.299
8		0.00		3.20		2.884e-02		-49.043
8		0.00		2.80		2.807e-02		-49.699
8		0.00		2.40		2.803e-02		-50.568
8		0.00		2.00		2.793e-02		-49.408
8		0.00		1.60		2.767e-02		-50.608
8		0.00		1.20		2.801e-02		-49.969
8		0.00		0.80		2.753e-02		-50.365
8		0.00		0.40		2.731e-02		-49.921
8		0.00		0.00		2.662e-02		-47.336
8		0.00		-0.40		2.715e-02		-49.363
8		0.00		-0.80		2.590e-02		-50.218
8		0.00		-1.20		2.339e-02		-51.370
8		0.00		-1.60		2.093e-02		-49.966
8		0.00		-2.00		1.877e-02		-47.788
8		0.00		-2.40		1.588e-02		-49.109
8		0.00		-2.80		1.382e-02		-49.577
8		0.00		-3.20		1.076e-02		-51.554
8		0.00		-3.60		7.888e-03		-49.402
8		0.00		-4.00		5.309e-03		-48.029
8		0.00		-4.40		3.846e-03		-45.295
8		0.00		-4.80		2.580e-03		-4.000
8		0.00		-5.20		2.976e-03		72.736
8		0.00		-5.60		5.054e-03		112.095
8		0.00		-6.00		7.727e-03		124.721
8		0.00		-6.40		9.848e-03		125.948
8		0.00		-6.80		1.183e-02		126.941
8		0.00		-7.20		1.310e-02		124.231
8		0.00		-7.60		1.547e-02		125.693
8		0.00		-8.00		1.651e-02		126.537
8		0.00		-8.40		1.805e-02		125.600
8		0.00		-8.80		1.906e-02		126.723
8		0.00		-9.20		2.028e-02		126.271
8		0.00		-9.60		2.155e-02		126.753
8		0.00		-10.00		2.292e-02		127.231
8		0.00		-9.60		2.211e-02		128.666
8		0.00		-9.20		2.251e-02		127.839
8		0.00		-8.80		2.166e-02		129.701
8		0.00		-8.40		2.109e-02		129.238
8		0.00		-8.00		1.977e-02		129.001
8		0.00		-7.60		1.930e-02		128.680
8		0.00		-7.20		1.888e-02		129.478
8		0.00		-6.80		1.788e-02		128.025
8		0.00		-6.40		1.650e-02		130.431
8		0.00		-6.00		1.570e-02		129.617
8		0.00		-5.60		1.476e-02		127.521
8		0.00		-5.20		1.332e-02		129.438
8		0.00		-4.80		1.276e-02		127.331
8		0.00		-4.40		1.161e-02		130.362
8		0.00		-4.00		1.098e-02		127.201
8		0.00		-3.60		9.791e-03		127.292
8		0.00		-3.20		8.862e-03		128.244
8		0.00		-2.80		7.725e-03		123.940
8		0.00		-2.40		7.235e-03		129.853
8		0.00		-2.00		6.200e-03		122.462
8		0.00		-1.60		5.492e-03		127.705
8		0.00		-1.20		4.723e-03		116.892
8		0.00		-0.80		4.245e-03		106.383
8		0.00		-0.40		3.473e-03		104.418
