# Date of analysis: 2023-10-17 09;56
# 
# Loop index	Read Volt (V)	Write Volt (V)	Amplitude (a.u)	Phase (deg)	
1		0.00		0.00		5.388e-03		-24.957
1		0.00		0.40		4.265e-03		-48.946
1		0.00		0.80		1.711e-03		-3.364
1		0.00		1.20		3.561e-03		93.929
1		0.00		1.60		6.837e-03		113.233
1		0.00		2.00		1.014e-02		116.802
1		0.00		2.40		1.280e-02		118.466
1		0.00		2.80		1.531e-02		119.689
1		0.00		3.20		1.811e-02		121.253
1		0.00		3.60		1.921e-02		116.950
1		0.00		4.00		2.154e-02		117.809
1		0.00		4.40		2.257e-02		116.892
1		0.00		4.80		2.481e-02		115.448
1		0.00		5.20		2.710e-02		114.379
1		0.00		5.60		2.797e-02		115.704
1		0.00		6.00		2.992e-02		122.011
1		0.00		6.40		3.191e-02		124.536
1		0.00		6.80		3.285e-02		119.709
1		0.00		7.20		3.278e-02		113.112
1		0.00		7.60		3.225e-02		105.788
1		0.00		8.00		3.301e-02		109.688
1		0.00		8.40		3.325e-02		111.897
1		0.00		8.80		3.301e-02		108.482
1		0.00		9.20		3.234e-02		111.339
1		0.00		9.60		3.029e-02		113.112
1		0.00		10.00		2.833e-02		105.917
1		0.00		9.60		2.914e-02		105.479
1		0.00		9.20		2.934e-02		107.184
1		0.00		8.80		2.842e-02		100.165
1		0.00		8.40		2.634e-02		104.940
1		0.00		8.00		2.419e-02		108.119
1		0.00		7.60		2.276e-02		109.373
1		0.00		7.20		2.238e-02		106.751
1		0.00		6.80		2.087e-02		103.864
1		0.00		6.40		1.962e-02		99.892
1		0.00		6.00		1.833e-02		99.247
1		0.00		5.60		1.763e-02		101.811
1		0.00		5.20		1.688e-02		110.315
1		0.00		4.80		1.456e-02		110.729
1		0.00		4.40		1.291e-02		107.775
1		0.00		4.00		1.020e-02		105.627
1		0.00		3.60		8.867e-03		103.374
1		0.00		3.20		7.042e-03		105.999
1		0.00		2.80		4.473e-03		93.532
1		0.00		2.40		2.188e-03		60.357
1		0.00		2.00		2.495e-03		-53.754
1		0.00		1.60		5.186e-03		-60.671
1		0.00		1.20		8.066e-03		-63.942
1		0.00		0.80		1.231e-02		-67.853
1		0.00		0.40		1.534e-02		-62.197
1		0.00		0.00		1.859e-02		-60.063
1		0.00		-0.40		2.172e-02		-59.803
1		0.00		-0.80		2.429e-02		-62.703
1		0.00		-1.20		2.749e-02		-67.728
1		0.00		-1.60		3.101e-02		-69.124
1		0.00		-2.00		3.294e-02		-61.483
1		0.00		-2.40		3.384e-02		-63.225
1		0.00		-2.80		3.582e-02		-60.502
1		0.00		-3.20		3.767e-02		-68.448
1		0.00		-3.60		4.033e-02		-72.338
1		0.00		-4.00		4.114e-02		-64.299
1		0.00		-4.40		4.135e-02		-60.585
1		0.00		-4.80		4.040e-02		-56.679
1		0.00		-5.20		4.193e-02		-63.110
1		0.00		-5.60		4.358e-02		-70.321
1		0.00		-6.00		4.368e-02		-63.278
1		0.00		-6.40		4.408e-02		-55.161
1		0.00		-6.80		4.107e-02		-49.597
1		0.00		-7.20		4.446e-02		-57.783
1		0.00		-7.60		4.293e-02		-74.771
1		0.00		-8.00		4.335e-02		-68.784
1		0.00		-8.40		4.222e-02		-55.938
1		0.00		-8.80		3.665e-02		-49.401
1		0.00		-9.20		3.320e-02		-52.422
1		0.00		-9.60		2.999e-02		-70.393
1		0.00		-10.00		2.726e-02		-64.691
1		0.00		-9.60		3.154e-02		-58.192
1		0.00		-9.20		3.321e-02		-52.206
1		0.00		-8.80		3.485e-02		-48.078
1		0.00		-8.40		3.557e-02		-69.077
1		0.00		-8.00		3.769e-02		-67.299
1		0.00		-7.60		3.910e-02		-57.000
1		0.00		-7.20		3.519e-02		-57.326
1		0.00		-6.80		3.395e-02		-53.865
1		0.00		-6.40		3.210e-02		-62.764
1		0.00		-6.00		3.356e-02		-66.288
1		0.00		-5.60		3.263e-02		-60.581
1		0.00		-5.20		2.903e-02		-55.895
1		0.00		-4.80		2.533e-02		-55.540
1		0.00		-4.40		2.392e-02		-56.562
1		0.00		-4.00		2.372e-02		-64.074
1		0.00		-3.60		2.199e-02		-62.939
1		0.00		-3.20		1.893e-02		-59.148
1		0.00		-2.80		1.549e-02		-53.579
1		0.00		-2.40		1.309e-02		-54.430
1		0.00		-2.00		1.103e-02		-58.828
1		0.00		-1.60		8.731e-03		-57.056
1		0.00		-1.20		5.457e-03		-57.845
1		0.00		-0.80		2.215e-03		-34.752
1		0.00		-0.40		2.875e-03		70.872
2		0.00		0.00		5.731e-03		98.975
2		0.00		0.40		8.598e-03		110.010
2		0.00		0.80		1.241e-02		112.640
2		0.00		1.20		1.491e-02		116.792
2		0.00		1.60		1.728e-02		119.821
2		0.00		2.00		2.019e-02		114.553
2		0.00		2.40		2.292e-02		114.689
2		0.00		2.80		2.435e-02		118.488
2		0.00		3.20		2.475e-02		118.723
2		0.00		3.60		2.478e-02		117.959
2		0.00		4.00		2.729e-02		113.255
2		0.00		4.40		2.842e-02		115.720
2		0.00		4.80		2.716e-02		115.509
2		0.00		5.20		2.771e-02		116.446
2		0.00		5.60		2.819e-02		109.857
2		0.00		6.00		2.956e-02		104.573
2		0.00		6.40		2.928e-02		113.047
2		0.00		6.80		2.829e-02		109.795
2		0.00		7.20		2.962e-02		104.225
2		0.00		7.60		3.012e-02		101.926
2		0.00		8.00		2.979e-02		100.203
2		0.00		8.40		2.978e-02		106.217
2		0.00		8.80		3.144e-02		110.535
2		0.00		9.20		3.378e-02		107.640
2		0.00		9.60		3.180e-02		102.916
2		0.00		10.00		3.305e-02		102.464
2		0.00		9.60		3.526e-02		114.023
2		0.00		9.20		3.545e-02		112.833
2		0.00		8.80		3.519e-02		109.720
2		0.00		8.40		3.480e-02		110.103
2		0.00		8.00		3.245e-02		115.484
2		0.00		7.60		3.051e-02		117.330
2		0.00		7.20		3.014e-02		117.453
2		0.00		6.80		2.864e-02		113.190
2		0.00		6.40		2.583e-02		115.842
2		0.00		6.00		2.361e-02		121.978
2		0.00		5.60		2.467e-02		120.610
2		0.00		5.20		2.145e-02		118.244
2		0.00		4.80		2.223e-02		111.780
2		0.00		4.40		1.975e-02		119.819
2		0.00		4.00		1.905e-02		123.864
2		0.00		3.60		1.607e-02		123.300
2		0.00		3.20		1.377e-02		123.189
2		0.00		2.80		1.063e-02		118.811
2		0.00		2.40		7.297e-03		109.664
2		0.00		2.00		4.517e-03		74.786
2		0.00		1.60		3.222e-03		-17.673
2		0.00		1.20		5.174e-03		-47.721
2		0.00		0.80		9.487e-03		-56.839
2		0.00		0.40		1.451e-02		-59.115
2		0.00		0.00		1.932e-02		-55.710
2		0.00		-0.40		2.227e-02		-52.282
2		0.00		-0.80		2.575e-02		-55.232
2		0.00		-1.20		2.843e-02		-57.458
2		0.00		-1.60		3.269e-02		-59.149
2		0.00		-2.00		3.467e-02		-54.186
2		0.00		-2.40		3.435e-02		-52.073
2		0.00		-2.80		3.655e-02		-57.303
2		0.00		-3.20		3.756e-02		-63.843
2		0.00		-3.60		3.947e-02		-61.838
2		0.00		-4.00		3.866e-02		-55.444
2		0.00		-4.40		3.933e-02		-52.416
2		0.00		-4.80		4.039e-02		-61.188
2		0.00		-5.20		4.317e-02		-65.917
2		0.00		-5.60		4.516e-02		-58.531
2		0.00		-6.00		4.313e-02		-57.658
2		0.00		-6.40		4.187e-02		-49.113
2		0.00		-6.80		4.402e-02		-55.902
2		0.00		-7.20		4.766e-02		-63.779
2		0.00		-7.60		4.782e-02		-56.091
2		0.00		-8.00		4.441e-02		-41.547
2		0.00		-8.40		4.294e-02		-42.672
2		0.00		-8.80		4.120e-02		-49.506
2		0.00		-9.20		4.144e-02		-61.610
2		0.00		-9.60		3.760e-02		-46.843
2		0.00		-10.00		3.182e-02		-46.428
2		0.00		-9.60		3.324e-02		-36.481
2		0.00		-9.20		3.637e-02		-41.307
2		0.00		-8.80		3.785e-02		-52.840
2		0.00		-8.40		4.079e-02		-54.101
2		0.00		-8.00		3.778e-02		-50.998
2		0.00		-7.60		3.741e-02		-38.738
2		0.00		-7.20		3.640e-02		-42.497
2		0.00		-6.80		3.441e-02		-55.657
2		0.00		-6.40		3.554e-02		-55.780
2		0.00		-6.00		3.300e-02		-51.017
2		0.00		-5.60		3.015e-02		-43.262
2		0.00		-5.20		2.919e-02		-45.876
2		0.00		-4.80		2.696e-02		-58.083
2		0.00		-4.40		2.699e-02		-57.333
2		0.00		-4.00		2.526e-02		-55.241
2		0.00		-3.60		2.216e-02		-43.963
2		0.00		-3.20		2.015e-02		-49.908
2		0.00		-2.80		1.913e-02		-56.151
2		0.00		-2.40		1.737e-02		-56.531
2		0.00		-2.00		1.400e-02		-48.806
2		0.00		-1.60		9.255e-03		-43.619
2		0.00		-1.20		6.319e-03		-44.732
2		0.00		-0.80		3.451e-03		-36.668
2		0.00		-0.40		2.894e-03		31.480
3		0.00		0.00		6.312e-03		115.800
3		0.00		0.40		9.491e-03		118.240
3		0.00		0.80		1.362e-02		121.706
3		0.00		1.20		1.604e-02		121.329
3		0.00		1.60		1.904e-02		123.708
3		0.00		2.00		2.249e-02		126.811
3		0.00		2.40		2.271e-02		127.395
3		0.00		2.80		2.255e-02		128.186
3		0.00		3.20		2.419e-02		122.625
3		0.00		3.60		2.585e-02		121.648
3		0.00		4.00		2.756e-02		121.576
3		0.00		4.40		2.789e-02		117.192
3		0.00		4.80		2.780e-02		115.512
3		0.00		5.20		3.095e-02		116.866
3		0.00		5.60		3.321e-02		118.368
3		0.00		6.00		3.370e-02		116.828
3		0.00		6.40		3.670e-02		117.280
3		0.00		6.80		3.668e-02		117.464
3		0.00		7.20		3.611e-02		111.215
3		0.00		7.60		3.596e-02		116.991
3		0.00		8.00		3.940e-02		113.460
3		0.00		8.40		3.950e-02		112.276
3		0.00		8.80		3.881e-02		109.004
3		0.00		9.20		3.909e-02		110.672
3		0.00		9.60		3.712e-02		113.608
3		0.00		10.00		3.590e-02		104.422
3		0.00		9.60		3.705e-02		111.938
3		0.00		9.20		3.687e-02		111.293
3		0.00		8.80		3.484e-02		110.072
3		0.00		8.40		3.559e-02		117.220
3		0.00		8.00		3.589e-02		119.015
3		0.00		7.60		3.382e-02		107.359
3		0.00		7.20		3.472e-02		118.959
3		0.00		6.80		3.658e-02		115.466
3		0.00		6.40		3.596e-02		117.754
3		0.00		6.00		3.470e-02		121.414
3		0.00		5.60		3.220e-02		119.247
3		0.00		5.20		3.050e-02		125.580
3		0.00		4.80		2.962e-02		125.175
3		0.00		4.40		2.612e-02		130.220
3		0.00		4.00		2.354e-02		124.339
3		0.00		3.60		2.142e-02		123.316
3		0.00		3.20		1.867e-02		127.615
3		0.00		2.80		1.578e-02		127.918
3		0.00		2.40		1.240e-02		116.640
3		0.00		2.00		8.213e-03		84.945
3		0.00		1.60		5.986e-03		66.354
3		0.00		1.20		3.737e-03		-25.043
3		0.00		0.80		6.069e-03		-41.304
3		0.00		0.40		1.109e-02		-55.547
3		0.00		0.00		1.593e-02		-58.997
3		0.00		-0.40		1.961e-02		-55.336
3		0.00		-0.80		2.088e-02		-47.028
3		0.00		-1.20		2.406e-02		-52.396
3		0.00		-1.60		2.723e-02		-59.206
3		0.00		-2.00		2.993e-02		-59.664
3		0.00		-2.40		2.916e-02		-48.526
3		0.00		-2.80		3.082e-02		-43.192
3		0.00		-3.20		3.204e-02		-57.885
3		0.00		-3.60		3.578e-02		-61.388
3		0.00		-4.00		3.817e-02		-51.528
3		0.00		-4.40		3.767e-02		-41.506
3		0.00		-4.80		3.922e-02		-45.796
3		0.00		-5.20		3.853e-02		-62.043
3		0.00		-5.60		4.034e-02		-56.699
3		0.00		-6.00		4.026e-02		-39.346
3		0.00		-6.40		4.226e-02		-40.659
3		0.00		-6.80		4.187e-02		-56.646
3		0.00		-7.20		4.303e-02		-55.628
3		0.00		-7.60		4.215e-02		-53.268
3		0.00		-8.00		4.462e-02		-34.280
3		0.00		-8.40		4.240e-02		-48.931
3		0.00		-8.80		4.140e-02		-55.857
3		0.00		-9.20		3.896e-02		-47.992
3		0.00		-9.60		3.388e-02		-41.161
3		0.00		-10.00		2.992e-02		-41.431
3		0.00		-9.60		3.418e-02		-37.173
3		0.00		-9.20		4.017e-02		-40.123
3		0.00		-8.80		3.780e-02		-49.656
3		0.00		-8.40		4.326e-02		-46.635
3		0.00		-8.00		4.567e-02		-42.683
3		0.00		-7.60		4.541e-02		-43.186
3		0.00		-7.20		4.633e-02		-44.138
3		0.00		-6.80		4.063e-02		-47.562
3		0.00		-6.40		3.947e-02		-41.680
3		0.00		-6.00		4.007e-02		-41.744
3		0.00		-5.60		3.794e-02		-45.380
3		0.00		-5.20		3.583e-02		-47.297
3		0.00		-4.80		3.168e-02		-45.926
3		0.00		-4.40		2.984e-02		-45.665
3		0.00		-4.00		2.812e-02		-49.635
3		0.00		-3.60		2.519e-02		-52.303
3		0.00		-3.20		2.214e-02		-49.593
3		0.00		-2.80		1.889e-02		-45.027
3		0.00		-2.40		1.670e-02		-47.756
3		0.00		-2.00		1.480e-02		-51.081
3		0.00		-1.60		1.122e-02		-49.912
3		0.00		-1.20		7.953e-03		-45.006
3		0.00		-0.80		3.425e-03		-51.857
3		0.00		-0.40		3.334e-03		51.468
4		0.00		0.00		6.107e-03		108.668
4		0.00		0.40		1.034e-02		115.816
4		0.00		0.80		1.269e-02		119.722
4		0.00		1.20		1.749e-02		125.768
4		0.00		1.60		2.140e-02		127.958
4		0.00		2.00		2.447e-02		121.094
4		0.00		2.40		2.739e-02		112.433
4		0.00		2.80		2.940e-02		114.255
4		0.00		3.20		3.048e-02		116.075
4		0.00		3.60		3.109e-02		126.725
4		0.00		4.00		3.034e-02		125.733
4		0.00		4.40		3.026e-02		116.826
4		0.00		4.80		3.095e-02		111.328
4		0.00		5.20		3.039e-02		105.997
4		0.00		5.60		3.379e-02		116.859
4		0.00		6.00		3.654e-02		129.087
4		0.00		6.40		3.709e-02		105.733
4		0.00		6.80		3.580e-02		105.709
4		0.00		7.20		3.500e-02		99.831
4		0.00		7.60		3.702e-02		109.312
4		0.00		8.00		3.774e-02		112.015
4		0.00		8.40		3.932e-02		102.557
4		0.00		8.80		4.104e-02		105.987
4		0.00		9.20		3.901e-02		108.678
4		0.00		9.60		3.876e-02		109.102
4		0.00		10.00		3.732e-02		111.183
4		0.00		9.60		4.190e-02		117.021
4		0.00		9.20		3.861e-02		94.119
4		0.00		8.80		3.513e-02		86.504
4		0.00		8.40		3.628e-02		100.627
4		0.00		8.00		3.424e-02		101.770
4		0.00		7.60		3.761e-02		126.036
4		0.00		7.20		3.421e-02		107.883
4		0.00		6.80		3.320e-02		107.596
4		0.00		6.40		3.143e-02		108.428
4		0.00		6.00		3.013e-02		122.938
4		0.00		5.60		3.213e-02		118.849
4		0.00		5.20		2.925e-02		106.427
4		0.00		4.80		2.799e-02		106.502
4		0.00		4.40		2.517e-02		109.473
4		0.00		4.00		2.330e-02		117.209
4		0.00		3.60		2.127e-02		123.837
4		0.00		3.20		1.793e-02		114.895
4		0.00		2.80		1.485e-02		103.276
4		0.00		2.40		1.014e-02		105.995
4		0.00		2.00		6.026e-03		74.679
4		0.00		1.60		3.864e-03		-31.464
4		0.00		1.20		6.149e-03		-46.888
4		0.00		0.80		1.008e-02		-48.380
4		0.00		0.40		1.405e-02		-47.300
4		0.00		0.00		1.874e-02		-54.118
4		0.00		-0.40		2.343e-02		-50.985
4		0.00		-0.80		2.569e-02		-46.487
4		0.00		-1.20		2.610e-02		-45.566
4		0.00		-1.60		2.868e-02		-47.292
4		0.00		-2.00		3.201e-02		-47.720
4		0.00		-2.40		3.324e-02		-49.588
4		0.00		-2.80		3.541e-02		-49.269
4		0.00		-3.20		3.782e-02		-52.403
4		0.00		-3.60		3.559e-02		-50.276
4		0.00		-4.00		3.806e-02		-46.012
4		0.00		-4.40		3.953e-02		-46.771
4		0.00		-4.80		4.112e-02		-42.125
4		0.00		-5.20		4.331e-02		-48.342
4		0.00		-5.60		4.395e-02		-51.672
4		0.00		-6.00		4.379e-02		-48.771
4		0.00		-6.40		4.454e-02		-45.182
4		0.00		-6.80		4.707e-02		-47.124
4		0.00		-7.20		4.654e-02		-42.874
4		0.00		-7.60		4.702e-02		-42.500
4		0.00		-8.00		4.490e-02		-47.207
4		0.00		-8.40		4.767e-02		-43.670
4		0.00		-8.80		4.520e-02		-40.914
4		0.00		-9.20		3.658e-02		-46.485
4		0.00		-9.60		3.712e-02		-40.264
4		0.00		-10.00		3.185e-02		-38.617
4		0.00		-9.60		3.667e-02		-43.100
4		0.00		-9.20		3.952e-02		-42.889
4		0.00		-8.80		3.920e-02		-46.139
4		0.00		-8.40		4.229e-02		-39.861
4		0.00		-8.00		4.073e-02		-46.697
4		0.00		-7.60		4.110e-02		-45.095
4		0.00		-7.20		4.131e-02		-49.188
4		0.00		-6.80		3.989e-02		-45.851
4		0.00		-6.40		4.030e-02		-47.096
4		0.00		-6.00		3.832e-02		-48.647
4		0.00		-5.60		3.761e-02		-50.416
4		0.00		-5.20		3.436e-02		-46.279
4		0.00		-4.80		3.360e-02		-45.019
4		0.00		-4.40		3.212e-02		-45.154
4		0.00		-4.00		3.019e-02		-44.946
4		0.00		-3.60		2.932e-02		-45.720
4		0.00		-3.20		2.711e-02		-46.836
4		0.00		-2.80		2.442e-02		-48.861
4		0.00		-2.40		2.242e-02		-47.123
4		0.00		-2.00		1.856e-02		-43.096
4		0.00		-1.60		1.542e-02		-44.377
4		0.00		-1.20		1.194e-02		-48.084
4		0.00		-0.80		6.968e-03		-41.782
4		0.00		-0.40		3.622e-03		-35.251
5		0.00		0.00		3.400e-03		51.701
5		0.00		0.40		7.578e-03		111.570
5		0.00		0.80		1.186e-02		119.530
5		0.00		1.20		1.580e-02		119.124
5		0.00		1.60		1.915e-02		122.918
5		0.00		2.00		2.379e-02		125.555
5		0.00		2.40		2.633e-02		115.561
5		0.00		2.80		2.792e-02		109.057
5		0.00		3.20		3.026e-02		110.102
5		0.00		3.60		2.973e-02		109.068
5		0.00		4.00		3.110e-02		113.850
5		0.00		4.40		3.427e-02		122.822
5		0.00		4.80		3.512e-02		120.440
5		0.00		5.20		3.498e-02		119.344
5		0.00		5.60		3.521e-02		107.693
5		0.00		6.00		3.690e-02		99.586
5		0.00		6.40		3.483e-02		94.068
5		0.00		6.80		3.718e-02		99.680
5		0.00		7.20		3.430e-02		101.366
5		0.00		7.60		3.694e-02		104.540
5		0.00		8.00		3.776e-02		107.173
5		0.00		8.40		3.862e-02		97.740
5		0.00		8.80		3.674e-02		90.811
5		0.00		9.20		3.894e-02		79.916
5		0.00		9.60		3.440e-02		75.544
5		0.00		10.00		3.455e-02		95.571
5		0.00		9.60		3.536e-02		94.209
5		0.00		9.20		3.420e-02		99.191
5		0.00		8.80		3.759e-02		120.575
5		0.00		8.40		3.357e-02		97.592
5		0.00		8.00		3.497e-02		92.161
5		0.00		7.60		3.527e-02		107.504
5		0.00		7.20		3.516e-02		104.715
5		0.00		6.80		3.299e-02		109.688
5		0.00		6.40		3.175e-02		109.052
5		0.00		6.00		3.383e-02		108.929
5		0.00		5.60		3.671e-02		118.066
5		0.00		5.20		3.112e-02		102.167
5		0.00		4.80		2.983e-02		93.558
5		0.00		4.40		2.796e-02		101.713
5		0.00		4.00		2.346e-02		104.848
5		0.00		3.60		2.090e-02		111.996
5		0.00		3.20		1.746e-02		116.351
5		0.00		2.80		1.458e-02		110.636
5		0.00		2.40		1.042e-02		104.625
5		0.00		2.00		6.278e-03		65.532
5		0.00		1.60		4.279e-03		-36.949
5		0.00		1.20		6.987e-03		-60.505
5		0.00		0.80		1.134e-02		-51.061
5		0.00		0.40		1.565e-02		-47.007
5		0.00		0.00		1.929e-02		-47.058
5		0.00		-0.40		2.386e-02		-48.638
5		0.00		-0.80		2.680e-02		-52.183
5		0.00		-1.20		2.750e-02		-49.765
5		0.00		-1.60		3.032e-02		-50.031
5		0.00		-2.00		3.128e-02		-42.677
5		0.00		-2.40		3.235e-02		-45.918
5		0.00		-2.80		3.364e-02		-45.228
5		0.00		-3.20		3.475e-02		-48.734
5		0.00		-3.60		3.654e-02		-51.645
5		0.00		-4.00		3.590e-02		-53.225
5		0.00		-4.40		3.694e-02		-46.153
5		0.00		-4.80		4.036e-02		-49.840
5		0.00		-5.20		4.151e-02		-44.117
5		0.00		-5.60		4.279e-02		-46.565
5		0.00		-6.00		4.071e-02		-47.257
5		0.00		-6.40		4.122e-02		-51.317
5		0.00		-6.80		4.117e-02		-46.146
5		0.00		-7.20		4.079e-02		-55.964
5		0.00		-7.60		4.545e-02		-46.145
5		0.00		-8.00		4.239e-02		-40.363
5		0.00		-8.40		4.380e-02		-44.716
5		0.00		-8.80		4.120e-02		-39.118
5		0.00		-9.20		3.510e-02		-32.224
5		0.00		-9.60		3.448e-02		-43.485
5		0.00		-10.00		2.963e-02		-45.645
5		0.00		-9.60		3.898e-02		-44.850
5		0.00		-9.20		3.816e-02		-38.779
5		0.00		-8.80		4.195e-02		-39.807
5		0.00		-8.40		3.959e-02		-49.077
5		0.00		-8.00		4.476e-02		-41.087
5		0.00		-7.60		4.252e-02		-53.242
5		0.00		-7.20		4.337e-02		-37.457
5		0.00		-6.80		4.119e-02		-46.580
5		0.00		-6.40		4.088e-02		-46.547
5		0.00		-6.00		4.015e-02		-45.562
5		0.00		-5.60		3.784e-02		-40.739
5		0.00		-5.20		3.827e-02		-44.963
5		0.00		-4.80		3.689e-02		-45.545
5		0.00		-4.40		3.373e-02		-42.433
5		0.00		-4.00		3.150e-02		-44.257
5		0.00		-3.60		2.861e-02		-48.746
5		0.00		-3.20		2.723e-02		-48.429
5		0.00		-2.80		2.370e-02		-43.091
5		0.00		-2.40		2.129e-02		-42.859
5		0.00		-2.00		1.845e-02		-44.669
5		0.00		-1.60		1.530e-02		-47.483
5		0.00		-1.20		1.249e-02		-48.062
5		0.00		-0.80		9.249e-03		-49.699
5		0.00		-0.40		4.173e-03		-33.889
6		0.00		0.00		3.064e-03		18.361
6		0.00		0.40		6.359e-03		104.996
6		0.00		0.80		1.037e-02		104.197
6		0.00		1.20		1.402e-02		102.828
6		0.00		1.60		1.811e-02		109.427
6		0.00		2.00		2.002e-02		106.057
6		0.00		2.40		2.242e-02		107.914
6		0.00		2.80		2.446e-02		126.127
6		0.00		3.20		2.628e-02		110.001
6		0.00		3.60		2.646e-02		99.452
6		0.00		4.00		2.813e-02		97.426
6		0.00		4.40		2.926e-02		98.200
6		0.00		4.80		3.043e-02		101.586
6		0.00		5.20		3.305e-02		111.808
6		0.00		5.60		3.573e-02		112.770
6		0.00		6.00		3.323e-02		89.644
6		0.00		6.40		3.492e-02		81.986
6		0.00		6.80		3.557e-02		92.946
6		0.00		7.20		3.758e-02		98.910
6		0.00		7.60		4.081e-02		104.877
6		0.00		8.00		4.206e-02		106.049
6		0.00		8.40		3.982e-02		100.776
6		0.00		8.80		4.390e-02		88.716
6		0.00		9.20		4.068e-02		91.222
6		0.00		9.60		3.615e-02		95.491
6		0.00		10.00		3.603e-02		109.541
6		0.00		9.60		4.021e-02		103.475
6		0.00		9.20		3.655e-02		92.246
6		0.00		8.80		3.674e-02		90.098
6		0.00		8.40		3.691e-02		88.112
6		0.00		8.00		3.437e-02		97.060
6		0.00		7.60		3.517e-02		110.298
6		0.00		7.20		3.513e-02		101.692
6		0.00		6.80		3.341e-02		89.540
6		0.00		6.40		3.493e-02		99.475
6		0.00		6.00		3.428e-02		104.437
6		0.00		5.60		3.306e-02		114.561
6		0.00		5.20		3.481e-02		117.936
6		0.00		4.80		3.039e-02		111.036
6		0.00		4.40		2.942e-02		103.586
6		0.00		4.00		2.512e-02		103.098
6		0.00		3.60		2.176e-02		102.106
6		0.00		3.20		1.910e-02		113.131
6		0.00		2.80		1.524e-02		93.989
6		0.00		2.40		1.050e-02		88.586
6		0.00		2.00		6.346e-03		61.053
6		0.00		1.60		4.319e-03		-43.812
6		0.00		1.20		6.532e-03		-45.208
6		0.00		0.80		1.096e-02		-54.537
6		0.00		0.40		1.498e-02		-51.666
6		0.00		0.00		1.923e-02		-49.915
6		0.00		-0.40		2.193e-02		-49.916
6		0.00		-0.80		2.340e-02		-44.256
6		0.00		-1.20		2.503e-02		-45.073
6		0.00		-1.60		2.928e-02		-46.227
6		0.00		-2.00		3.057e-02		-46.702
6		0.00		-2.40		3.237e-02		-51.833
6		0.00		-2.80		3.282e-02		-49.440
6		0.00		-3.20		3.322e-02		-50.072
6		0.00		-3.60		3.669e-02		-45.275
6		0.00		-4.00		3.557e-02		-44.962
6		0.00		-4.40		3.803e-02		-49.914
6		0.00		-4.80		3.984e-02		-52.727
6		0.00		-5.20		4.052e-02		-49.355
6		0.00		-5.60		4.004e-02		-43.995
6		0.00		-6.00		4.476e-02		-43.323
6		0.00		-6.40		4.598e-02		-42.342
6		0.00		-6.80		4.677e-02		-40.373
6		0.00		-7.20		4.592e-02		-44.964
6		0.00		-7.60		4.992e-02		-46.297
6		0.00		-8.00		4.445e-02		-49.287
6		0.00		-8.40		4.256e-02		-46.861
6		0.00		-8.80		3.924e-02		-43.732
6		0.00		-9.20		4.035e-02		-39.105
6		0.00		-9.60		3.760e-02		-40.957
6		0.00		-10.00		3.330e-02		-43.358
6		0.00		-9.60		3.757e-02		-36.387
6		0.00		-9.20		4.103e-02		-41.773
6		0.00		-8.80		4.374e-02		-39.230
6		0.00		-8.40		4.639e-02		-43.764
6		0.00		-8.00		4.759e-02		-35.026
6		0.00		-7.60		4.711e-02		-38.622
6		0.00		-7.20		4.687e-02		-41.451
6		0.00		-6.80		4.733e-02		-44.810
6		0.00		-6.40		4.323e-02		-46.349
6		0.00		-6.00		4.421e-02		-42.614
6		0.00		-5.60		4.277e-02		-42.197
6		0.00		-5.20		3.884e-02		-39.667
6		0.00		-4.80		3.717e-02		-43.355
6		0.00		-4.40		3.494e-02		-46.216
6		0.00		-4.00		3.138e-02		-50.012
6		0.00		-3.60		2.917e-02		-49.467
6		0.00		-3.20		2.638e-02		-45.612
6		0.00		-2.80		2.267e-02		-41.343
6		0.00		-2.40		2.150e-02		-42.391
6		0.00		-2.00		1.869e-02		-46.360
6		0.00		-1.60		1.554e-02		-50.805
6		0.00		-1.20		1.142e-02		-46.018
6		0.00		-0.80		7.909e-03		-42.857
6		0.00		-0.40		4.225e-03		-39.961
7		0.00		0.00		2.967e-03		45.188
7		0.00		0.40		7.013e-03		113.838
7		0.00		0.80		1.175e-02		125.748
7		0.00		1.20		1.601e-02		111.995
7		0.00		1.60		1.959e-02		117.392
7		0.00		2.00		2.187e-02		109.610
7		0.00		2.40		2.590e-02		110.123
7		0.00		2.80		2.931e-02		100.727
7		0.00		3.20		3.175e-02		111.099
7		0.00		3.60		3.422e-02		116.516
7		0.00		4.00		3.622e-02		123.649
7		0.00		4.40		4.028e-02		123.772
7		0.00		4.80		3.954e-02		119.725
7		0.00		5.20		4.086e-02		113.875
7		0.00		5.60		4.244e-02		105.162
7		0.00		6.00		4.011e-02		106.468
7		0.00		6.40		4.121e-02		108.975
7		0.00		6.80		3.955e-02		104.066
7		0.00		7.20		4.299e-02		106.564
7		0.00		7.60		4.248e-02		88.170
7		0.00		8.00		4.382e-02		108.148
7		0.00		8.40		4.754e-02		109.193
7		0.00		8.80		4.732e-02		90.051
7		0.00		9.20		4.543e-02		79.658
7		0.00		9.60		4.214e-02		80.094
7		0.00		10.00		4.164e-02		96.985
7		0.00		9.60		4.243e-02		88.604
7		0.00		9.20		4.312e-02		95.681
7		0.00		8.80		4.206e-02		98.297
7		0.00		8.40		3.972e-02		100.587
7		0.00		8.00		3.986e-02		99.403
7		0.00		7.60		3.677e-02		94.081
7		0.00		7.20		3.964e-02		104.948
7		0.00		6.80		3.332e-02		91.455
7		0.00		6.40		3.345e-02		101.451
7		0.00		6.00		3.222e-02		119.965
7		0.00		5.60		3.408e-02		120.898
7		0.00		5.20		3.238e-02		111.592
7		0.00		4.80		2.935e-02		110.083
7		0.00		4.40		2.745e-02		96.866
7		0.00		4.00		2.642e-02		114.986
7		0.00		3.60		2.342e-02		114.528
7		0.00		3.20		1.844e-02		115.894
7		0.00		2.80		1.442e-02		117.352
7		0.00		2.40		1.120e-02		101.908
7		0.00		2.00		6.242e-03		42.592
7		0.00		1.60		4.066e-03		-58.885
7		0.00		1.20		7.703e-03		-59.997
7		0.00		0.80		1.163e-02		-53.499
7		0.00		0.40		1.633e-02		-48.857
7		0.00		0.00		1.878e-02		-43.539
7		0.00		-0.40		2.222e-02		-45.211
7		0.00		-0.80		2.527e-02		-47.333
7		0.00		-1.20		2.617e-02		-45.894
7		0.00		-1.60		2.736e-02		-45.991
7		0.00		-2.00		3.047e-02		-50.252
7		0.00		-2.40		3.413e-02		-50.779
7		0.00		-2.80		3.343e-02		-47.517
7		0.00		-3.20		3.515e-02		-43.184
7		0.00		-3.60		3.565e-02		-44.532
7		0.00		-4.00		3.625e-02		-45.377
7		0.00		-4.40		3.964e-02		-42.812
7		0.00		-4.80		4.031e-02		-48.545
7		0.00		-5.20		4.428e-02		-48.047
7		0.00		-5.60		4.654e-02		-49.707
7		0.00		-6.00		4.212e-02		-48.122
7		0.00		-6.40		4.297e-02		-44.014
7		0.00		-6.80		4.667e-02		-45.732
7		0.00		-7.20		4.663e-02		-36.328
7		0.00		-7.60		4.687e-02		-39.657
7		0.00		-8.00		4.683e-02		-42.336
7		0.00		-8.40		4.688e-02		-46.242
7		0.00		-8.80		4.160e-02		-41.280
7		0.00		-9.20		3.594e-02		-32.472
7		0.00		-9.60		3.281e-02		-39.399
7		0.00		-10.00		2.985e-02		-44.822
7		0.00		-9.60		3.555e-02		-38.600
7		0.00		-9.20		3.855e-02		-46.544
7		0.00		-8.80		4.174e-02		-43.029
7		0.00		-8.40		3.677e-02		-45.017
7		0.00		-8.00		3.913e-02		-37.759
7		0.00		-7.60		4.430e-02		-49.901
7		0.00		-7.20		4.188e-02		-47.787
7		0.00		-6.80		4.380e-02		-37.442
7		0.00		-6.40		4.116e-02		-48.518
7		0.00		-6.00		3.938e-02		-48.812
7		0.00		-5.60		3.928e-02		-43.517
7		0.00		-5.20		3.630e-02		-41.943
7		0.00		-4.80		3.547e-02		-44.035
7		0.00		-4.40		3.335e-02		-41.864
7		0.00		-4.00		2.962e-02		-47.219
7		0.00		-3.60		2.805e-02		-47.726
7		0.00		-3.20		2.717e-02		-44.785
7		0.00		-2.80		2.316e-02		-42.822
7		0.00		-2.40		2.104e-02		-41.896
7		0.00		-2.00		1.806e-02		-47.198
7		0.00		-1.60		1.430e-02		-43.866
7		0.00		-1.20		1.145e-02		-44.784
7		0.00		-0.80		7.797e-03		-40.241
7		0.00		-0.40		3.076e-03		-29.862
8		0.00		0.00		3.584e-03		73.593
8		0.00		0.40		7.256e-03		105.368
8		0.00		0.80		1.166e-02		114.190
8		0.00		1.20		1.472e-02		108.945
8		0.00		1.60		1.820e-02		115.779
8		0.00		2.00		2.158e-02		119.794
8		0.00		2.40		2.588e-02		119.477
8		0.00		2.80		2.929e-02		118.053
8		0.00		3.20		3.235e-02		105.751
8		0.00		3.60		3.560e-02		106.002
8		0.00		4.00		3.421e-02		103.215
8		0.00		4.40		3.775e-02		106.430
8		0.00		4.80		3.721e-02		114.532
8		0.00		5.20		3.852e-02		113.116
8		0.00		5.60		3.731e-02		96.869
8		0.00		6.00		3.761e-02		91.016
8		0.00		6.40		3.521e-02		80.839
8		0.00		6.80		3.738e-02		79.621
8		0.00		7.20		3.760e-02		97.831
8		0.00		7.60		3.988e-02		100.987
8		0.00		8.00		3.910e-02		87.629
8		0.00		8.40		3.924e-02		62.966
8		0.00		8.80		3.703e-02		63.237
8		0.00		9.20		4.137e-02		93.478
8		0.00		9.60		4.040e-02		93.580
8		0.00		10.00		4.483e-02		97.867
8		0.00		9.60		3.985e-02		66.176
8		0.00		9.20		4.412e-02		101.583
8		0.00		8.80		4.097e-02		75.711
8		0.00		8.40		4.300e-02		87.290
8		0.00		8.00		4.237e-02		97.784
8		0.00		7.60		4.615e-02		113.234
8		0.00		7.20		4.249e-02		104.284
8		0.00		6.80		4.120e-02		98.617
8		0.00		6.40		3.834e-02		92.669
8		0.00		6.00		3.689e-02		101.416
8		0.00		5.60		3.762e-02		115.180
8		0.00		5.20		3.299e-02		118.037
8		0.00		4.80		3.210e-02		115.680
8		0.00		4.40		2.902e-02		97.950
8		0.00		4.00		2.562e-02		101.788
8		0.00		3.60		2.308e-02		110.401
8		0.00		3.20		1.952e-02		113.004
8		0.00		2.80		1.460e-02		108.723
8		0.00		2.40		1.105e-02		93.357
8		0.00		2.00		6.836e-03		68.272
8		0.00		1.60		4.201e-03		-45.993
8		0.00		1.20		6.358e-03		-55.191
8		0.00		0.80		1.168e-02		-48.312
8		0.00		0.40		1.495e-02		-46.612
8		0.00		0.00		1.779e-02		-44.977
8		0.00		-0.40		2.128e-02		-50.017
8		0.00		-0.80		2.523e-02		-52.617
8		0.00		-1.20		2.761e-02		-46.509
8		0.00		-1.60		2.713e-02		-43.547
8		0.00		-2.00		2.973e-02		-44.148
8		0.00		-2.40		3.220e-02		-46.008
8		0.00		-2.80		3.291e-02		-50.872
8		0.00		-3.20		3.333e-02		-53.049
8		0.00		-3.60		3.549e-02		-51.216
8		0.00		-4.00		3.423e-02		-46.562
8		0.00		-4.40		3.755e-02		-49.936
8		0.00		-4.80		3.809e-02		-42.265
8		0.00		-5.20		3.611e-02		-53.834
8		0.00		-5.60		4.072e-02		-45.624
8		0.00		-6.00		4.013e-02		-48.665
8		0.00		-6.40		3.976e-02		-44.312
8		0.00		-6.80		4.410e-02		-41.430
8		0.00		-7.20		4.484e-02		-38.248
8		0.00		-7.60		4.292e-02		-44.717
8		0.00		-8.00		4.500e-02		-46.385
8		0.00		-8.40		4.207e-02		-43.939
8		0.00		-8.80		3.779e-02		-43.919
8		0.00		-9.20		3.672e-02		-45.384
8		0.00		-9.60		3.432e-02		-43.298
8		0.00		-10.00		3.107e-02		-48.225
8		0.00		-9.60		3.682e-02		-36.207
8		0.00		-9.20		3.759e-02		-29.401
8		0.00		-8.80		3.948e-02		-40.641
8		0.00		-8.40		4.297e-02		-36.054
8		0.00		-8.00		4.247e-02		-44.171
8		0.00		-7.60		4.170e-02		-38.280
8		0.00		-7.20		4.025e-02		-42.617
8		0.00		-6.80		3.803e-02		-46.846
8		0.00		-6.40		3.947e-02		-46.127
8		0.00		-6.00		4.038e-02		-41.874
8		0.00		-5.60		3.842e-02		-37.314
8		0.00		-5.20		3.720e-02		-46.550
8		0.00		-4.80		3.380e-02		-51.267
8		0.00		-4.40		3.283e-02		-48.819
8		0.00		-4.00		3.032e-02		-43.708
8		0.00		-3.60		2.890e-02		-44.482
8		0.00		-3.20		2.646e-02		-41.864
8		0.00		-2.80		2.508e-02		-45.455
8		0.00		-2.40		2.245e-02		-47.524
8		0.00		-2.00		1.926e-02		-48.838
8		0.00		-1.60		1.544e-02		-44.551
8		0.00		-1.20		1.079e-02		-42.753
8		0.00		-0.80		6.680e-03		-31.086
8		0.00		-0.40		3.344e-03		-7.625
