# Date of analysis: 2023-10-17 09;56
# 
# Loop index	Read Volt (V)	Write Volt (V)	Amplitude (a.u)	Phase (deg)	
1		0.00		0.00		1.152e-02		-55.919
1		0.00		0.40		1.147e-02		-53.688
1		0.00		0.80		1.112e-02		-53.650
1		0.00		1.20		1.087e-02		-52.135
1		0.00		1.60		1.126e-02		-51.759
1		0.00		2.00		1.141e-02		-55.112
1		0.00		2.40		1.096e-02		-57.175
1		0.00		2.80		1.119e-02		-54.478
1		0.00		3.20		1.174e-02		-47.513
1		0.00		3.60		1.224e-02		-54.856
1		0.00		4.00		1.234e-02		-53.967
1		0.00		4.40		1.282e-02		-55.366
1		0.00		4.80		1.201e-02		-53.577
1		0.00		5.20		1.329e-02		-48.954
1		0.00		5.60		1.421e-02		-53.563
1		0.00		6.00		1.461e-02		-53.242
1		0.00		6.40		1.535e-02		-57.777
1		0.00		6.80		1.599e-02		-55.196
1		0.00		7.20		1.658e-02		-53.323
1		0.00		7.60		1.777e-02		-55.627
1		0.00		8.00		1.912e-02		-56.213
1		0.00		8.40		2.018e-02		-57.483
1		0.00		8.80		2.183e-02		-54.632
1		0.00		9.20		2.389e-02		-53.308
1		0.00		9.60		2.743e-02		-55.916
1		0.00		10.00		2.933e-02		-54.931
1		0.00		9.60		3.045e-02		-55.289
1		0.00		9.20		3.043e-02		-53.445
1		0.00		8.80		3.205e-02		-53.760
1		0.00		8.40		3.213e-02		-54.823
1		0.00		8.00		3.101e-02		-55.638
1		0.00		7.60		3.112e-02		-56.688
1		0.00		7.20		3.071e-02		-51.388
1		0.00		6.80		3.176e-02		-54.908
1		0.00		6.40		3.028e-02		-55.193
1		0.00		6.00		2.904e-02		-55.244
1		0.00		5.60		2.877e-02		-53.828
1		0.00		5.20		2.934e-02		-52.763
1		0.00		4.80		3.023e-02		-54.531
1		0.00		4.40		2.862e-02		-56.255
1		0.00		4.00		2.853e-02		-54.514
1		0.00		3.60		2.831e-02		-51.653
1		0.00		3.20		2.885e-02		-54.782
1		0.00		2.80		2.943e-02		-53.705
1		0.00		2.40		2.752e-02		-55.054
1		0.00		2.00		2.782e-02		-54.383
1		0.00		1.60		2.825e-02		-52.529
1		0.00		1.20		2.863e-02		-55.374
1		0.00		0.80		2.779e-02		-55.453
1		0.00		0.40		2.670e-02		-54.663
1		0.00		0.00		2.656e-02		-51.745
1		0.00		-0.40		2.706e-02		-53.468
1		0.00		-0.80		2.691e-02		-55.519
1		0.00		-1.20		2.563e-02		-56.404
1		0.00		-1.60		2.475e-02		-54.260
1		0.00		-2.00		2.498e-02		-52.517
1		0.00		-2.40		2.416e-02		-54.459
1		0.00		-2.80		2.333e-02		-57.705
1		0.00		-3.20		2.222e-02		-57.874
1		0.00		-3.60		2.065e-02		-53.722
1		0.00		-4.00		2.010e-02		-53.988
1		0.00		-4.40		1.828e-02		-53.226
1		0.00		-4.80		1.619e-02		-52.618
1		0.00		-5.20		1.318e-02		-51.489
1		0.00		-5.60		9.786e-03		-50.308
1		0.00		-6.00		6.708e-03		-52.013
1		0.00		-6.40		3.517e-03		-42.677
1		0.00		-6.80		2.452e-03		39.575
1		0.00		-7.20		4.005e-03		86.234
1		0.00		-7.60		6.192e-03		110.039
1		0.00		-8.00		8.712e-03		118.869
1		0.00		-8.40		1.003e-02		121.185
1		0.00		-8.80		1.148e-02		122.761
1		0.00		-9.20		1.330e-02		122.902
1		0.00		-9.60		1.407e-02		117.681
1		0.00		-10.00		1.563e-02		124.843
1		0.00		-9.60		1.650e-02		123.625
1		0.00		-9.20		1.626e-02		123.294
1		0.00		-8.80		1.598e-02		123.201
1		0.00		-8.40		1.505e-02		118.468
1		0.00		-8.00		1.540e-02		125.077
1		0.00		-7.60		1.563e-02		123.684
1		0.00		-7.20		1.543e-02		119.910
1		0.00		-6.80		1.479e-02		125.478
1		0.00		-6.40		1.425e-02		122.383
1		0.00		-6.00		1.416e-02		127.809
1		0.00		-5.60		1.406e-02		124.405
1		0.00		-5.20		1.373e-02		122.934
1		0.00		-4.80		1.290e-02		125.816
1		0.00		-4.40		1.219e-02		120.363
1		0.00		-4.00		1.219e-02		124.084
1		0.00		-3.60		1.198e-02		124.290
1		0.00		-3.20		1.108e-02		122.163
1		0.00		-2.80		1.024e-02		123.391
1		0.00		-2.40		9.929e-03		119.405
1		0.00		-2.00		1.009e-02		124.470
1		0.00		-1.60		9.777e-03		122.381
1		0.00		-1.20		9.297e-03		123.460
1		0.00		-0.80		9.454e-03		120.425
1		0.00		-0.40		8.487e-03		118.141
2		0.00		0.00		8.992e-03		123.617
2		0.00		0.40		8.622e-03		123.068
2		0.00		0.80		8.195e-03		122.313
2		0.00		1.20		7.866e-03		124.487
2		0.00		1.60		7.247e-03		120.435
2		0.00		2.00		6.720e-03		122.188
2		0.00		2.40		6.113e-03		126.603
2		0.00		2.80		5.179e-03		121.226
2		0.00		3.20		4.348e-03		113.148
2		0.00		3.60		3.762e-03		119.154
2		0.00		4.00		2.680e-03		80.279
2		0.00		4.40		2.463e-03		64.696
2		0.00		4.80		1.770e-03		-3.530
2		0.00		5.20		1.870e-03		-17.939
2		0.00		5.60		2.244e-03		-44.266
2		0.00		6.00		2.812e-03		-41.060
2		0.00		6.40		4.104e-03		-46.103
2		0.00		6.80		5.264e-03		-59.348
2		0.00		7.20		6.788e-03		-61.225
2		0.00		7.60		8.612e-03		-55.288
2		0.00		8.00		9.966e-03		-57.287
2		0.00		8.40		1.205e-02		-61.431
2		0.00		8.80		1.492e-02		-52.835
2		0.00		9.20		1.819e-02		-53.639
2		0.00		9.60		2.222e-02		-56.151
2		0.00		10.00		2.494e-02		-55.859
2		0.00		9.60		2.799e-02		-54.427
2		0.00		9.20		2.817e-02		-53.483
2		0.00		8.80		2.763e-02		-50.826
2		0.00		8.40		2.878e-02		-54.371
2		0.00		8.00		2.971e-02		-54.458
2		0.00		7.60		2.962e-02		-54.779
2		0.00		7.20		2.876e-02		-54.491
2		0.00		6.80		2.810e-02		-53.266
2		0.00		6.40		2.758e-02		-54.730
2		0.00		6.00		2.758e-02		-52.797
2		0.00		5.60		2.768e-02		-51.673
2		0.00		5.20		2.679e-02		-54.848
2		0.00		4.80		2.667e-02		-55.385
2		0.00		4.40		2.618e-02		-54.714
2		0.00		4.00		2.588e-02		-54.625
2		0.00		3.60		2.532e-02		-52.662
2		0.00		3.20		2.474e-02		-53.760
2		0.00		2.80		2.537e-02		-53.909
2		0.00		2.40		2.524e-02		-54.365
2		0.00		2.00		2.491e-02		-54.060
2		0.00		1.60		2.487e-02		-53.942
2		0.00		1.20		2.466e-02		-52.909
2		0.00		0.80		2.512e-02		-54.237
2		0.00		0.40		2.413e-02		-51.898
2		0.00		0.00		2.471e-02		-52.563
2		0.00		-0.40		2.486e-02		-53.616
2		0.00		-0.80		2.528e-02		-54.158
2		0.00		-1.20		2.506e-02		-56.306
2		0.00		-1.60		2.480e-02		-53.153
2		0.00		-2.00		2.417e-02		-51.683
2		0.00		-2.40		2.312e-02		-53.288
2		0.00		-2.80		2.174e-02		-53.277
2		0.00		-3.20		2.114e-02		-54.716
2		0.00		-3.60		1.956e-02		-51.578
2		0.00		-4.00		1.839e-02		-52.528
2		0.00		-4.40		1.651e-02		-53.533
2		0.00		-4.80		1.461e-02		-52.131
2		0.00		-5.20		1.226e-02		-50.767
2		0.00		-5.60		1.013e-02		-49.614
2		0.00		-6.00		7.341e-03		-44.542
2		0.00		-6.40		4.138e-03		-51.491
2		0.00		-6.80		1.972e-03		-15.470
2		0.00		-7.20		3.882e-03		99.460
2		0.00		-7.60		6.102e-03		113.354
2		0.00		-8.00		8.438e-03		118.083
2		0.00		-8.40		1.065e-02		122.271
2		0.00		-8.80		1.245e-02		122.167
2		0.00		-9.20		1.306e-02		125.626
2		0.00		-9.60		1.472e-02		122.962
2		0.00		-10.00		1.587e-02		121.999
2		0.00		-9.60		1.686e-02		122.608
2		0.00		-9.20		1.668e-02		124.629
2		0.00		-8.80		1.717e-02		123.817
2		0.00		-8.40		1.727e-02		124.108
2		0.00		-8.00		1.711e-02		126.449
2		0.00		-7.60		1.697e-02		122.839
2		0.00		-7.20		1.608e-02		121.853
2		0.00		-6.80		1.557e-02		123.712
2		0.00		-6.40		1.469e-02		124.813
2		0.00		-6.00		1.441e-02		121.196
2		0.00		-5.60		1.393e-02		124.361
2		0.00		-5.20		1.332e-02		123.904
2		0.00		-4.80		1.348e-02		126.669
2		0.00		-4.40		1.329e-02		126.566
2		0.00		-4.00		1.241e-02		123.635
2		0.00		-3.60		1.263e-02		124.458
2		0.00		-3.20		1.187e-02		125.481
2		0.00		-2.80		1.175e-02		123.343
2		0.00		-2.40		1.164e-02		129.874
2		0.00		-2.00		1.135e-02		125.152
2		0.00		-1.60		1.062e-02		122.831
2		0.00		-1.20		1.058e-02		124.623
2		0.00		-0.80		1.045e-02		120.898
2		0.00		-0.40		1.036e-02		121.397
3		0.00		0.00		9.900e-03		124.824
3		0.00		0.40		9.959e-03		124.712
3		0.00		0.80		1.001e-02		128.737
3		0.00		1.20		9.115e-03		127.942
3		0.00		1.60		8.856e-03		129.830
3		0.00		2.00		8.318e-03		124.089
3		0.00		2.40		6.900e-03		126.565
3		0.00		2.80		6.442e-03		122.386
3		0.00		3.20		5.743e-03		125.294
3		0.00		3.60		4.682e-03		122.363
3		0.00		4.00		3.883e-03		105.060
3		0.00		4.40		3.369e-03		110.017
3		0.00		4.80		2.534e-03		84.743
3		0.00		5.20		1.829e-03		33.342
3		0.00		5.60		2.011e-03		-34.801
3		0.00		6.00		2.365e-03		-27.796
3		0.00		6.40		3.272e-03		-51.760
3		0.00		6.80		4.468e-03		-61.019
3		0.00		7.20		6.135e-03		-48.946
3		0.00		7.60		7.875e-03		-60.638
3		0.00		8.00		9.355e-03		-54.645
3		0.00		8.40		1.145e-02		-49.093
3		0.00		8.80		1.391e-02		-57.278
3		0.00		9.20		1.715e-02		-57.384
3		0.00		9.60		2.037e-02		-55.011
3		0.00		10.00		2.315e-02		-54.553
3		0.00		9.60		2.484e-02		-55.594
3		0.00		9.20		2.587e-02		-54.503
3		0.00		8.80		2.689e-02		-53.588
3		0.00		8.40		2.606e-02		-53.878
3		0.00		8.00		2.632e-02		-52.627
3		0.00		7.60		2.686e-02		-51.245
3		0.00		7.20		2.632e-02		-51.675
3		0.00		6.80		2.562e-02		-52.795
3		0.00		6.40		2.605e-02		-50.814
3		0.00		6.00		2.592e-02		-53.027
3		0.00		5.60		2.586e-02		-51.763
3		0.00		5.20		2.547e-02		-52.736
3		0.00		4.80		2.546e-02		-54.244
3		0.00		4.40		2.502e-02		-53.509
3		0.00		4.00		2.502e-02		-53.558
3		0.00		3.60		2.536e-02		-54.200
3		0.00		3.20		2.541e-02		-54.068
3		0.00		2.80		2.469e-02		-53.323
3		0.00		2.40		2.445e-02		-55.117
3		0.00		2.00		2.404e-02		-54.993
3		0.00		1.60		2.410e-02		-52.559
3		0.00		1.20		2.430e-02		-54.438
3		0.00		0.80		2.311e-02		-52.414
3		0.00		0.40		2.393e-02		-51.347
3		0.00		0.00		2.364e-02		-51.633
3		0.00		-0.40		2.359e-02		-53.546
3		0.00		-0.80		2.303e-02		-53.339
3		0.00		-1.20		2.279e-02		-53.344
3		0.00		-1.60		2.239e-02		-52.234
3		0.00		-2.00		2.222e-02		-51.548
3		0.00		-2.40		2.217e-02		-51.393
3		0.00		-2.80		2.135e-02		-49.374
3		0.00		-3.20		2.064e-02		-53.275
3		0.00		-3.60		1.932e-02		-53.155
3		0.00		-4.00		1.787e-02		-51.458
3		0.00		-4.40		1.643e-02		-52.032
3		0.00		-4.80		1.487e-02		-49.776
3		0.00		-5.20		1.315e-02		-52.757
3		0.00		-5.60		1.048e-02		-51.570
3		0.00		-6.00		8.665e-03		-53.362
3		0.00		-6.40		6.183e-03		-44.938
3		0.00		-6.80		3.273e-03		-52.900
3		0.00		-7.20		1.834e-03		25.500
3		0.00		-7.60		4.214e-03		111.058
3		0.00		-8.00		7.488e-03		120.401
3		0.00		-8.40		1.004e-02		121.450
3		0.00		-8.80		1.215e-02		120.869
3		0.00		-9.20		1.343e-02		123.290
3		0.00		-9.60		1.473e-02		124.696
3		0.00		-10.00		1.633e-02		123.376
3		0.00		-9.60		1.689e-02		126.103
3		0.00		-9.20		1.706e-02		125.383
3		0.00		-8.80		1.711e-02		123.987
3		0.00		-8.40		1.696e-02		123.760
3		0.00		-8.00		1.651e-02		125.596
3		0.00		-7.60		1.668e-02		126.099
3		0.00		-7.20		1.652e-02		124.967
3		0.00		-6.80		1.583e-02		124.048
3		0.00		-6.40		1.541e-02		123.700
3		0.00		-6.00		1.493e-02		125.709
3		0.00		-5.60		1.481e-02		126.319
3		0.00		-5.20		1.501e-02		124.760
3		0.00		-4.80		1.443e-02		125.006
3		0.00		-4.40		1.357e-02		123.649
3		0.00		-4.00		1.311e-02		126.456
3		0.00		-3.60		1.263e-02		125.290
3		0.00		-3.20		1.254e-02		124.735
3		0.00		-2.80		1.257e-02		126.752
3		0.00		-2.40		1.225e-02		127.011
3		0.00		-2.00		1.184e-02		127.020
3		0.00		-1.60		1.167e-02		121.914
3		0.00		-1.20		1.159e-02		124.914
3		0.00		-0.80		1.122e-02		126.885
3		0.00		-0.40		1.083e-02		124.124
4		0.00		0.00		1.033e-02		126.424
4		0.00		0.40		1.033e-02		125.692
4		0.00		0.80		9.669e-03		120.920
4		0.00		1.20		9.333e-03		119.853
4		0.00		1.60		8.736e-03		123.218
4		0.00		2.00		8.074e-03		122.354
4		0.00		2.40		7.418e-03		123.545
4		0.00		2.80		6.464e-03		122.780
4		0.00		3.20		6.075e-03		122.701
4		0.00		3.60		5.176e-03		125.070
4		0.00		4.00		4.318e-03		121.540
4		0.00		4.40		3.573e-03		117.665
4		0.00		4.80		2.326e-03		80.710
4		0.00		5.20		1.887e-03		27.675
4		0.00		5.60		1.797e-03		-10.455
4		0.00		6.00		2.422e-03		-55.991
4		0.00		6.40		2.848e-03		-51.597
4		0.00		6.80		4.042e-03		-55.962
4		0.00		7.20		5.647e-03		-54.012
4		0.00		7.60		7.193e-03		-51.222
4		0.00		8.00		8.317e-03		-54.423
4		0.00		8.40		1.033e-02		-52.820
4		0.00		8.80		1.247e-02		-51.621
4		0.00		9.20		1.534e-02		-51.072
4		0.00		9.60		1.875e-02		-54.840
4		0.00		10.00		2.191e-02		-52.504
4		0.00		9.60		2.438e-02		-54.415
4		0.00		9.20		2.572e-02		-54.098
4		0.00		8.80		2.611e-02		-53.845
4		0.00		8.40		2.644e-02		-53.395
4		0.00		8.00		2.658e-02		-53.470
4		0.00		7.60		2.567e-02		-51.891
4		0.00		7.20		2.624e-02		-53.031
4		0.00		6.80		2.602e-02		-52.203
4		0.00		6.40		2.578e-02		-51.956
4		0.00		6.00		2.480e-02		-53.271
4		0.00		5.60		2.485e-02		-51.072
4		0.00		5.20		2.492e-02		-52.729
4		0.00		4.80		2.476e-02		-54.155
4		0.00		4.40		2.448e-02		-53.108
4		0.00		4.00		2.463e-02		-53.475
4		0.00		3.60		2.409e-02		-53.833
4		0.00		3.20		2.383e-02		-54.987
4		0.00		2.80		2.320e-02		-53.519
4		0.00		2.40		2.319e-02		-51.783
4		0.00		2.00		2.242e-02		-51.851
4		0.00		1.60		2.271e-02		-52.283
4		0.00		1.20		2.378e-02		-52.669
4		0.00		0.80		2.355e-02		-54.813
4		0.00		0.40		2.432e-02		-52.390
4		0.00		0.00		2.338e-02		-54.344
4		0.00		-0.40		2.400e-02		-52.682
4		0.00		-0.80		2.271e-02		-51.053
4		0.00		-1.20		2.252e-02		-50.032
4		0.00		-1.60		2.249e-02		-50.268
4		0.00		-2.00		2.181e-02		-52.368
4		0.00		-2.40		2.199e-02		-52.163
4		0.00		-2.80		2.077e-02		-53.538
4		0.00		-3.20		2.035e-02		-52.465
4		0.00		-3.60		1.860e-02		-53.359
4		0.00		-4.00		1.714e-02		-49.835
4		0.00		-4.40		1.647e-02		-52.641
4		0.00		-4.80		1.465e-02		-50.030
4		0.00		-5.20		1.303e-02		-53.271
4		0.00		-5.60		1.092e-02		-48.890
4		0.00		-6.00		8.224e-03		-52.585
4		0.00		-6.40		5.570e-03		-43.564
4		0.00		-6.80		3.880e-03		-42.772
4		0.00		-7.20		1.887e-03		-10.822
4		0.00		-7.60		3.281e-03		96.004
4		0.00		-8.00		6.098e-03		120.745
4		0.00		-8.40		8.780e-03		125.104
4		0.00		-8.80		1.075e-02		120.513
4		0.00		-9.20		1.238e-02		121.551
4		0.00		-9.60		1.467e-02		123.654
4		0.00		-10.00		1.613e-02		123.019
4		0.00		-9.60		1.626e-02		125.586
4		0.00		-9.20		1.630e-02		125.761
4		0.00		-8.80		1.607e-02		122.590
4		0.00		-8.40		1.643e-02		123.474
4		0.00		-8.00		1.666e-02		123.493
4		0.00		-7.60		1.631e-02		124.489
4		0.00		-7.20		1.582e-02		126.871
4		0.00		-6.80		1.484e-02		123.188
4		0.00		-6.40		1.452e-02		124.235
4		0.00		-6.00		1.494e-02		124.564
4		0.00		-5.60		1.449e-02		128.021
4		0.00		-5.20		1.472e-02		123.015
4		0.00		-4.80		1.370e-02		124.223
4		0.00		-4.40		1.303e-02		126.026
4		0.00		-4.00		1.294e-02		123.390
4		0.00		-3.60		1.283e-02		124.349
4		0.00		-3.20		1.275e-02		124.467
4		0.00		-2.80		1.221e-02		125.806
4		0.00		-2.40		1.168e-02		124.824
4		0.00		-2.00		1.162e-02		125.210
4		0.00		-1.60		1.126e-02		124.855
4		0.00		-1.20		1.138e-02		125.077
4		0.00		-0.80		1.165e-02		125.155
4		0.00		-0.40		1.092e-02		127.845
5		0.00		0.00		1.028e-02		124.426
5		0.00		0.40		1.014e-02		126.801
5		0.00		0.80		1.007e-02		126.236
5		0.00		1.20		9.563e-03		126.073
5		0.00		1.60		9.416e-03		125.802
5		0.00		2.00		7.958e-03		121.938
5		0.00		2.40		7.607e-03		124.045
5		0.00		2.80		6.807e-03		124.039
5		0.00		3.20		6.096e-03		124.999
5		0.00		3.60		5.295e-03		120.345
5		0.00		4.00		4.477e-03		121.318
5		0.00		4.40		3.603e-03		106.032
5		0.00		4.80		2.783e-03		89.460
5		0.00		5.20		2.391e-03		69.583
5		0.00		5.60		1.696e-03		0.197
5		0.00		6.00		1.751e-03		-15.191
5		0.00		6.40		2.491e-03		-41.364
5		0.00		6.80		4.095e-03		-44.792
5		0.00		7.20		4.949e-03		-49.405
5		0.00		7.60		6.329e-03		-52.738
5		0.00		8.00		8.376e-03		-49.376
5		0.00		8.40		1.019e-02		-53.327
5		0.00		8.80		1.203e-02		-53.917
5		0.00		9.20		1.444e-02		-52.420
5		0.00		9.60		1.708e-02		-56.095
5		0.00		10.00		2.047e-02		-53.288
5		0.00		9.60		2.299e-02		-53.029
5		0.00		9.20		2.342e-02		-54.084
5		0.00		8.80		2.365e-02		-54.207
5		0.00		8.40		2.364e-02		-54.044
5		0.00		8.00		2.321e-02		-53.923
5		0.00		7.60		2.349e-02		-53.376
5		0.00		7.20		2.450e-02		-52.986
5		0.00		6.80		2.431e-02		-54.246
5		0.00		6.40		2.361e-02		-51.988
5		0.00		6.00		2.277e-02		-50.641
5		0.00		5.60		2.298e-02		-50.701
5		0.00		5.20		2.337e-02		-51.863
5		0.00		4.80		2.354e-02		-50.478
5		0.00		4.40		2.300e-02		-53.232
5		0.00		4.00		2.302e-02		-50.976
5		0.00		3.60		2.234e-02		-51.834
5		0.00		3.20		2.240e-02		-53.522
5		0.00		2.80		2.195e-02		-52.016
5		0.00		2.40		2.301e-02		-53.246
5		0.00		2.00		2.259e-02		-50.972
5		0.00		1.60		2.251e-02		-50.345
5		0.00		1.20		2.214e-02		-51.997
5		0.00		0.80		2.222e-02		-50.983
5		0.00		0.40		2.207e-02		-51.933
5		0.00		0.00		2.326e-02		-50.375
5		0.00		-0.40		2.272e-02		-52.854
5		0.00		-0.80		2.187e-02		-51.506
5		0.00		-1.20		2.153e-02		-51.850
5		0.00		-1.60		2.176e-02		-50.534
5		0.00		-2.00		2.199e-02		-53.117
5		0.00		-2.40		2.187e-02		-52.398
5		0.00		-2.80		2.054e-02		-53.955
5		0.00		-3.20		1.961e-02		-50.282
5		0.00		-3.60		1.920e-02		-52.301
5		0.00		-4.00		1.800e-02		-51.566
5		0.00		-4.40		1.764e-02		-53.254
5		0.00		-4.80		1.611e-02		-50.430
5		0.00		-5.20		1.407e-02		-50.034
5		0.00		-5.60		1.158e-02		-50.383
5		0.00		-6.00		7.948e-03		-43.793
5		0.00		-6.40		5.925e-03		-47.210
5		0.00		-6.80		3.480e-03		-51.621
5		0.00		-7.20		1.924e-03		-7.661
5		0.00		-7.60		3.709e-03		93.082
5		0.00		-8.00		6.465e-03		123.921
5		0.00		-8.40		8.705e-03		120.426
5		0.00		-8.80		1.071e-02		122.512
5		0.00		-9.20		1.325e-02		121.756
5		0.00		-9.60		1.468e-02		124.094
5		0.00		-10.00		1.607e-02		123.900
5		0.00		-9.60		1.662e-02		123.440
5		0.00		-9.20		1.649e-02		126.611
5		0.00		-8.80		1.644e-02		125.485
5		0.00		-8.40		1.678e-02		127.064
5		0.00		-8.00		1.677e-02		125.951
5		0.00		-7.60		1.631e-02		125.337
5		0.00		-7.20		1.631e-02		124.268
5		0.00		-6.80		1.536e-02		126.621
5		0.00		-6.40		1.502e-02		125.836
5		0.00		-6.00		1.453e-02		127.131
5		0.00		-5.60		1.440e-02		124.430
5		0.00		-5.20		1.462e-02		126.631
5		0.00		-4.80		1.405e-02		127.072
5		0.00		-4.40		1.390e-02		127.296
5		0.00		-4.00		1.310e-02		125.165
5		0.00		-3.60		1.263e-02		128.423
5		0.00		-3.20		1.210e-02		123.040
5		0.00		-2.80		1.204e-02		124.915
5		0.00		-2.40		1.214e-02		126.188
5		0.00		-2.00		1.202e-02		123.509
5		0.00		-1.60		1.157e-02		126.618
5		0.00		-1.20		1.129e-02		125.433
5		0.00		-0.80		1.110e-02		124.515
5		0.00		-0.40		1.119e-02		126.508
6		0.00		0.00		1.081e-02		124.577
6		0.00		0.40		1.060e-02		122.995
6		0.00		0.80		1.032e-02		127.466
6		0.00		1.20		1.003e-02		121.845
6		0.00		1.60		9.478e-03		124.066
6		0.00		2.00		8.577e-03		125.843
6		0.00		2.40		8.219e-03		130.642
6		0.00		2.80		7.306e-03		130.306
6		0.00		3.20		6.188e-03		124.726
6		0.00		3.60		5.363e-03		123.697
6		0.00		4.00		4.449e-03		122.231
6		0.00		4.40		3.745e-03		113.801
6		0.00		4.80		2.664e-03		92.006
6		0.00		5.20		2.051e-03		77.564
6		0.00		5.60		1.904e-03		15.296
6		0.00		6.00		1.760e-03		-19.586
6		0.00		6.40		2.650e-03		-44.959
6		0.00		6.80		3.398e-03		-48.036
6		0.00		7.20		5.067e-03		-55.241
6		0.00		7.60		6.511e-03		-49.177
6		0.00		8.00		8.339e-03		-47.563
6		0.00		8.40		9.922e-03		-49.194
6		0.00		8.80		1.243e-02		-54.463
6		0.00		9.20		1.485e-02		-53.789
6		0.00		9.60		1.855e-02		-51.688
6		0.00		10.00		2.173e-02		-54.751
6		0.00		9.60		2.318e-02		-51.778
6		0.00		9.20		2.403e-02		-51.178
6		0.00		8.80		2.397e-02		-53.029
6		0.00		8.40		2.472e-02		-51.788
6		0.00		8.00		2.512e-02		-54.094
6		0.00		7.60		2.560e-02		-51.495
6		0.00		7.20		2.545e-02		-52.097
6		0.00		6.80		2.445e-02		-51.940
6		0.00		6.40		2.423e-02		-53.052
6		0.00		6.00		2.341e-02		-50.368
6		0.00		5.60		2.381e-02		-53.664
6		0.00		5.20		2.449e-02		-53.321
6		0.00		4.80		2.414e-02		-53.258
6		0.00		4.40		2.348e-02		-51.391
6		0.00		4.00		2.303e-02		-50.336
6		0.00		3.60		2.338e-02		-49.978
6		0.00		3.20		2.290e-02		-49.976
6		0.00		2.80		2.312e-02		-51.738
6		0.00		2.40		2.358e-02		-50.076
6		0.00		2.00		2.327e-02		-50.971
6		0.00		1.60		2.312e-02		-49.708
6		0.00		1.20		2.236e-02		-52.866
6		0.00		0.80		2.265e-02		-51.290
6		0.00		0.40		2.248e-02		-50.211
6		0.00		0.00		2.293e-02		-51.586
6		0.00		-0.40		2.246e-02		-50.968
6		0.00		-0.80		2.200e-02		-52.703
6		0.00		-1.20		2.166e-02		-49.977
6		0.00		-1.60		2.124e-02		-52.833
6		0.00		-2.00		2.151e-02		-50.042
6		0.00		-2.40		2.205e-02		-51.465
6		0.00		-2.80		2.123e-02		-52.698
6		0.00		-3.20		2.022e-02		-49.374
6		0.00		-3.60		1.857e-02		-51.885
6		0.00		-4.00		1.773e-02		-51.716
6		0.00		-4.40		1.712e-02		-50.953
6		0.00		-4.80		1.530e-02		-49.352
6		0.00		-5.20		1.409e-02		-51.430
6		0.00		-5.60		1.152e-02		-48.259
6		0.00		-6.00		8.863e-03		-46.605
6		0.00		-6.40		6.546e-03		-47.834
6		0.00		-6.80		4.222e-03		-44.922
6		0.00		-7.20		1.927e-03		-10.919
6		0.00		-7.60		3.113e-03		92.217
6		0.00		-8.00		6.388e-03		123.389
6		0.00		-8.40		9.063e-03		121.674
6		0.00		-8.80		1.106e-02		123.611
6		0.00		-9.20		1.293e-02		122.761
6		0.00		-9.60		1.390e-02		125.612
6		0.00		-10.00		1.568e-02		126.713
6		0.00		-9.60		1.630e-02		125.828
6		0.00		-9.20		1.605e-02		121.533
6		0.00		-8.80		1.653e-02		126.369
6		0.00		-8.40		1.617e-02		126.012
6		0.00		-8.00		1.600e-02		124.754
6		0.00		-7.60		1.560e-02		127.696
6		0.00		-7.20		1.505e-02		125.872
6		0.00		-6.80		1.464e-02		127.493
6		0.00		-6.40		1.494e-02		125.034
6		0.00		-6.00		1.454e-02		125.044
6		0.00		-5.60		1.416e-02		127.316
6		0.00		-5.20		1.398e-02		126.494
6		0.00		-4.80		1.288e-02		120.515
6		0.00		-4.40		1.307e-02		124.043
6		0.00		-4.00		1.300e-02		126.666
6		0.00		-3.60		1.284e-02		126.101
6		0.00		-3.20		1.264e-02		125.637
6		0.00		-2.80		1.142e-02		121.948
6		0.00		-2.40		1.132e-02		122.614
6		0.00		-2.00		1.117e-02		124.220
6		0.00		-1.60		1.120e-02		125.371
6		0.00		-1.20		1.096e-02		125.261
6		0.00		-0.80		1.056e-02		123.655
6		0.00		-0.40		1.025e-02		122.998
7		0.00		0.00		1.007e-02		122.725
7		0.00		0.40		9.861e-03		126.358
7		0.00		0.80		1.001e-02		127.045
7		0.00		1.20		9.561e-03		123.657
7		0.00		1.60		8.572e-03		123.910
7		0.00		2.00		8.039e-03		122.005
7		0.00		2.40		7.386e-03		126.539
7		0.00		2.80		6.856e-03		126.471
7		0.00		3.20		5.754e-03		128.242
7		0.00		3.60		5.095e-03		123.575
7		0.00		4.00		4.423e-03		113.354
7		0.00		4.40		3.529e-03		112.218
7		0.00		4.80		2.650e-03		95.426
7		0.00		5.20		2.124e-03		47.213
7		0.00		5.60		1.992e-03		29.927
7		0.00		6.00		1.817e-03		-32.841
7		0.00		6.40		2.512e-03		-57.836
7		0.00		6.80		3.453e-03		-45.521
7		0.00		7.20		5.129e-03		-55.376
7		0.00		7.60		6.543e-03		-56.838
7		0.00		8.00		7.654e-03		-52.758
7		0.00		8.40		9.525e-03		-50.128
7		0.00		8.80		1.104e-02		-48.903
7		0.00		9.20		1.379e-02		-52.114
7		0.00		9.60		1.658e-02		-52.883
7		0.00		10.00		1.975e-02		-51.299
7		0.00		9.60		2.128e-02		-52.020
7		0.00		9.20		2.148e-02		-49.441
7		0.00		8.80		2.124e-02		-51.760
7		0.00		8.40		2.197e-02		-53.714
7		0.00		8.00		2.228e-02		-50.353
7		0.00		7.60		2.256e-02		-53.172
7		0.00		7.20		2.201e-02		-52.624
7		0.00		6.80		2.159e-02		-49.428
7		0.00		6.40		2.072e-02		-52.118
7		0.00		6.00		2.091e-02		-54.726
7		0.00		5.60		2.084e-02		-49.698
7		0.00		5.20		2.073e-02		-52.725
7		0.00		4.80		2.111e-02		-51.440
7		0.00		4.40		2.047e-02		-52.215
7		0.00		4.00		2.045e-02		-53.948
7		0.00		3.60		1.992e-02		-53.749
7		0.00		3.20		1.979e-02		-49.858
7		0.00		2.80		1.994e-02		-51.007
7		0.00		2.40		2.015e-02		-51.879
7		0.00		2.00		2.037e-02		-55.049
7		0.00		1.60		2.020e-02		-51.907
7		0.00		1.20		2.067e-02		-51.399
7		0.00		0.80		1.996e-02		-51.167
7		0.00		0.40		1.991e-02		-50.638
7		0.00		0.00		2.040e-02		-52.034
7		0.00		-0.40		2.065e-02		-51.610
7		0.00		-0.80		2.006e-02		-53.803
7		0.00		-1.20		1.983e-02		-52.767
7		0.00		-1.60		1.908e-02		-51.089
7		0.00		-2.00		1.812e-02		-51.142
7		0.00		-2.40		1.797e-02		-49.513
7		0.00		-2.80		1.834e-02		-52.622
7		0.00		-3.20		1.778e-02		-52.246
7		0.00		-3.60		1.719e-02		-51.851
7		0.00		-4.00		1.626e-02		-50.016
7		0.00		-4.40		1.480e-02		-49.343
7		0.00		-4.80		1.353e-02		-48.573
7		0.00		-5.20		1.215e-02		-51.343
7		0.00		-5.60		1.039e-02		-52.333
7		0.00		-6.00		7.804e-03		-53.792
7		0.00		-6.40		6.195e-03		-46.611
7		0.00		-6.80		3.224e-03		-47.114
7		0.00		-7.20		1.788e-03		1.360
7		0.00		-7.60		3.627e-03		100.271
7		0.00		-8.00		6.432e-03		118.926
7		0.00		-8.40		8.983e-03		125.174
7		0.00		-8.80		1.123e-02		124.355
7		0.00		-9.20		1.236e-02		122.471
7		0.00		-9.60		1.439e-02		123.886
7		0.00		-10.00		1.581e-02		122.682
7		0.00		-9.60		1.665e-02		125.771
7		0.00		-9.20		1.675e-02		124.428
7		0.00		-8.80		1.701e-02		125.435
7		0.00		-8.40		1.588e-02		125.591
7		0.00		-8.00		1.612e-02		125.984
7		0.00		-7.60		1.527e-02		123.496
7		0.00		-7.20		1.498e-02		124.638
7		0.00		-6.80		1.501e-02		126.352
7		0.00		-6.40		1.472e-02		124.941
7		0.00		-6.00		1.452e-02		125.977
7		0.00		-5.60		1.401e-02		125.923
7		0.00		-5.20		1.392e-02		123.602
7		0.00		-4.80		1.339e-02		125.275
7		0.00		-4.40		1.317e-02		125.480
7		0.00		-4.00		1.273e-02		125.041
7		0.00		-3.60		1.269e-02		127.324
7		0.00		-3.20		1.268e-02		126.351
7		0.00		-2.80		1.203e-02		126.549
7		0.00		-2.40		1.231e-02		129.690
7		0.00		-2.00		1.212e-02		125.876
7		0.00		-1.60		1.137e-02		126.442
7		0.00		-1.20		1.131e-02		126.999
7		0.00		-0.80		1.104e-02		125.013
7		0.00		-0.40		1.079e-02		121.227
8		0.00		0.00		1.072e-02		129.451
8		0.00		0.40		1.042e-02		128.430
8		0.00		0.80		1.042e-02		125.491
8		0.00		1.20		1.018e-02		125.642
8		0.00		1.60		9.963e-03		129.288
8		0.00		2.00		9.007e-03		126.840
8		0.00		2.40		8.291e-03		125.516
8		0.00		2.80		7.345e-03		122.502
8		0.00		3.20		6.852e-03		124.917
8		0.00		3.60		6.113e-03		125.450
8		0.00		4.00		5.461e-03		125.985
8		0.00		4.40		4.145e-03		117.581
8		0.00		4.80		3.679e-03		122.529
8		0.00		5.20		2.721e-03		91.119
8		0.00		5.60		2.277e-03		65.202
8		0.00		6.00		1.710e-03		12.516
8		0.00		6.40		1.742e-03		-32.074
8		0.00		6.80		3.170e-03		-57.327
8		0.00		7.20		3.984e-03		-54.364
8		0.00		7.60		6.178e-03		-54.581
8		0.00		8.00		7.755e-03		-56.396
8		0.00		8.40		8.978e-03		-53.809
8		0.00		8.80		1.139e-02		-47.497
8		0.00		9.20		1.257e-02		-53.173
8		0.00		9.60		1.593e-02		-50.738
8		0.00		10.00		1.910e-02		-51.853
8		0.00		9.60		2.163e-02		-50.686
8		0.00		9.20		2.214e-02		-54.185
8		0.00		8.80		2.264e-02		-52.226
8		0.00		8.40		2.221e-02		-51.928
8		0.00		8.00		2.201e-02		-52.472
8		0.00		7.60		2.251e-02		-51.393
8		0.00		7.20		2.247e-02		-49.983
8		0.00		6.80		2.229e-02		-53.086
8		0.00		6.40		2.299e-02		-52.215
8		0.00		6.00		2.241e-02		-52.376
8		0.00		5.60		2.227e-02		-50.315
8		0.00		5.20		2.187e-02		-50.810
8		0.00		4.80		2.145e-02		-51.266
8		0.00		4.40		2.112e-02		-49.332
8		0.00		4.00		2.149e-02		-51.297
8		0.00		3.60		2.168e-02		-50.072
8		0.00		3.20		2.190e-02		-50.576
8		0.00		2.80		2.182e-02		-49.468
8		0.00		2.40		2.165e-02		-51.142
8		0.00		2.00		2.124e-02		-51.159
8		0.00		1.60		2.078e-02		-49.168
8		0.00		1.20		2.116e-02		-51.688
8		0.00		0.80		2.142e-02		-51.948
8		0.00		0.40		2.172e-02		-50.163
8		0.00		0.00		2.191e-02		-50.985
8		0.00		-0.40		2.206e-02		-50.480
8		0.00		-0.80		2.136e-02		-49.815
8		0.00		-1.20		2.084e-02		-48.038
8		0.00		-1.60		2.027e-02		-49.680
8		0.00		-2.00		2.017e-02		-48.105
8		0.00		-2.40		2.046e-02		-50.643
8		0.00		-2.80		2.049e-02		-51.015
8		0.00		-3.20		2.005e-02		-50.993
8		0.00		-3.60		1.899e-02		-49.953
8		0.00		-4.00		1.792e-02		-52.157
8		0.00		-4.40		1.643e-02		-51.063
8		0.00		-4.80		1.478e-02		-49.759
8		0.00		-5.20		1.331e-02		-50.281
8		0.00		-5.60		1.128e-02		-49.954
8		0.00		-6.00		9.160e-03		-48.722
8		0.00		-6.40		5.872e-03		-47.193
8		0.00		-6.80		3.193e-03		-48.514
8		0.00		-7.20		1.718e-03		19.481
8		0.00		-7.60		4.502e-03		115.212
8		0.00		-8.00		6.745e-03		121.910
8		0.00		-8.40		8.591e-03		118.771
8		0.00		-8.80		1.134e-02		124.965
8		0.00		-9.20		1.278e-02		123.471
8		0.00		-9.60		1.448e-02		124.922
8		0.00		-10.00		1.564e-02		123.720
8		0.00		-9.60		1.662e-02		126.868
8		0.00		-9.20		1.659e-02		124.375
8		0.00		-8.80		1.619e-02		127.160
8		0.00		-8.40		1.558e-02		125.478
8		0.00		-8.00		1.563e-02		124.189
8		0.00		-7.60		1.509e-02		126.480
8		0.00		-7.20		1.485e-02		124.479
8		0.00		-6.80		1.447e-02		125.851
8		0.00		-6.40		1.444e-02		124.805
8		0.00		-6.00		1.406e-02		127.165
8		0.00		-5.60		1.368e-02		128.678
8		0.00		-5.20		1.339e-02		129.516
8		0.00		-4.80		1.340e-02		126.603
8		0.00		-4.40		1.246e-02		124.799
8		0.00		-4.00		1.266e-02		124.280
8		0.00		-3.60		1.238e-02		123.242
8		0.00		-3.20		1.227e-02		124.921
8		0.00		-2.80		1.238e-02		126.270
8		0.00		-2.40		1.215e-02		127.081
8		0.00		-2.00		1.178e-02		125.359
8		0.00		-1.60		1.134e-02		127.124
8		0.00		-1.20		1.145e-02		125.545
8		0.00		-0.80		1.079e-02		125.887
8		0.00		-0.40		1.044e-02		125.074
