# Date of analysis: 2023-10-17 09;56
# 
# Loop index	Read Volt (V)	Write Volt (V)	Amplitude (a.u)	Phase (deg)	
1		0.00		0.00		3.676e-02		-41.413
1		0.00		0.40		2.932e-02		-45.317
1		0.00		0.80		2.230e-02		-49.027
1		0.00		1.20		1.600e-02		-51.967
1		0.00		1.60		1.013e-02		-65.547
1		0.00		2.00		5.138e-03		-71.397
1		0.00		2.40		3.376e-03		9.757
1		0.00		2.80		6.998e-03		91.370
1		0.00		3.20		1.133e-02		98.999
1		0.00		3.60		1.451e-02		111.546
1		0.00		4.00		1.759e-02		104.132
1		0.00		4.40		2.045e-02		110.819
1		0.00		4.80		2.313e-02		114.954
1		0.00		5.20		2.459e-02		109.998
1		0.00		5.60		2.517e-02		109.968
1		0.00		6.00		2.753e-02		116.293
1		0.00		6.40		2.773e-02		113.758
1		0.00		6.80		2.919e-02		115.140
1		0.00		7.20		3.268e-02		116.984
1		0.00		7.60		3.393e-02		108.617
1		0.00		8.00		3.371e-02		111.303
1		0.00		8.40		3.470e-02		105.417
1		0.00		8.80		3.992e-02		117.030
1		0.00		9.20		3.731e-02		117.856
1		0.00		9.60		3.556e-02		112.812
1		0.00		10.00		3.485e-02		107.181
1		0.00		9.60		3.432e-02		113.126
1		0.00		9.20		3.465e-02		118.305
1		0.00		8.80		3.463e-02		115.137
1		0.00		8.40		3.169e-02		123.588
1		0.00		8.00		3.068e-02		115.739
1		0.00		7.60		3.119e-02		115.748
1		0.00		7.20		3.070e-02		121.781
1		0.00		6.80		2.942e-02		121.822
1		0.00		6.40		2.756e-02		120.414
1		0.00		6.00		2.594e-02		121.520
1		0.00		5.60		2.381e-02		119.011
1		0.00		5.20		1.930e-02		116.294
1		0.00		4.80		1.635e-02		117.304
1		0.00		4.40		1.249e-02		113.649
1		0.00		4.00		7.589e-03		89.862
1		0.00		3.60		4.849e-03		36.826
1		0.00		3.20		4.700e-03		-86.085
1		0.00		2.80		7.425e-03		-97.682
1		0.00		2.40		1.226e-02		-74.211
1		0.00		2.00		1.891e-02		-61.418
1		0.00		1.60		2.470e-02		-57.056
1		0.00		1.20		3.062e-02		-54.906
1		0.00		0.80		3.616e-02		-53.617
1		0.00		0.40		4.137e-02		-49.743
1		0.00		0.00		4.532e-02		-50.212
1		0.00		-0.40		4.910e-02		-48.558
1		0.00		-0.80		4.951e-02		-48.790
1		0.00		-1.20		5.376e-02		-48.129
1		0.00		-1.60		5.523e-02		-47.729
1		0.00		-2.00		5.299e-02		-47.145
1		0.00		-2.40		5.569e-02		-44.738
1		0.00		-2.80		5.602e-02		-50.049
1		0.00		-3.20		5.257e-02		-47.841
1		0.00		-3.60		5.741e-02		-44.733
1		0.00		-4.00		5.473e-02		-51.181
1		0.00		-4.40		5.722e-02		-50.768
1		0.00		-4.80		5.978e-02		-49.023
1		0.00		-5.20		5.940e-02		-42.710
1		0.00		-5.60		5.666e-02		-48.600
1		0.00		-6.00		5.745e-02		-52.456
1		0.00		-6.40		5.583e-02		-43.001
1		0.00		-6.80		5.593e-02		-53.476
1		0.00		-7.20		5.269e-02		-53.769
1		0.00		-7.60		5.734e-02		-40.168
1		0.00		-8.00		5.648e-02		-47.277
1		0.00		-8.40		5.967e-02		-44.138
1		0.00		-8.80		5.866e-02		-39.893
1		0.00		-9.20		5.541e-02		-32.510
1		0.00		-9.60		4.819e-02		-39.334
1		0.00		-10.00		5.085e-02		-28.781
1		0.00		-9.60		4.861e-02		-34.156
1		0.00		-9.20		5.144e-02		-29.904
1		0.00		-8.80		4.943e-02		-42.255
1		0.00		-8.40		6.041e-02		-32.522
1		0.00		-8.00		5.705e-02		-33.843
1		0.00		-7.60		5.389e-02		-40.842
1		0.00		-7.20		5.432e-02		-31.389
1		0.00		-6.80		5.615e-02		-46.165
1		0.00		-6.40		5.461e-02		-31.664
1		0.00		-6.00		5.590e-02		-39.515
1		0.00		-5.60		5.178e-02		-51.718
1		0.00		-5.20		5.235e-02		-46.650
1		0.00		-4.80		5.041e-02		-44.070
1		0.00		-4.40		5.010e-02		-47.572
1		0.00		-4.00		4.976e-02		-45.683
1		0.00		-3.60		4.684e-02		-46.250
1		0.00		-3.20		4.431e-02		-47.936
1		0.00		-2.80		4.040e-02		-50.268
1		0.00		-2.40		3.732e-02		-50.223
1		0.00		-2.00		3.351e-02		-50.395
1		0.00		-1.60		2.871e-02		-50.743
1		0.00		-1.20		2.393e-02		-51.478
1		0.00		-0.80		1.885e-02		-50.598
1		0.00		-0.40		1.321e-02		-52.172
2		0.00		0.00		7.512e-03		-59.822
2		0.00		0.40		2.966e-03		-56.426
2		0.00		0.80		4.849e-03		75.058
2		0.00		1.20		9.752e-03		113.311
2		0.00		1.60		1.436e-02		121.363
2		0.00		2.00		1.796e-02		129.976
2		0.00		2.40		2.060e-02		124.807
2		0.00		2.80		2.361e-02		124.950
2		0.00		3.20		2.507e-02		122.248
2		0.00		3.60		2.542e-02		117.419
2		0.00		4.00		2.676e-02		118.418
2		0.00		4.40		2.910e-02		120.435
2		0.00		4.80		2.941e-02		124.838
2		0.00		5.20		3.252e-02		126.234
2		0.00		5.60		3.423e-02		124.666
2		0.00		6.00		3.826e-02		135.944
2		0.00		6.40		3.976e-02		130.810
2		0.00		6.80		4.137e-02		136.079
2		0.00		7.20		4.273e-02		138.862
2		0.00		7.60		3.932e-02		114.330
2		0.00		8.00		4.055e-02		120.329
2		0.00		8.40		4.128e-02		113.835
2		0.00		8.80		4.132e-02		101.660
2		0.00		9.20		4.656e-02		107.006
2		0.00		9.60		4.497e-02		109.096
2		0.00		10.00		4.294e-02		115.968
2		0.00		9.60		4.167e-02		120.007
2		0.00		9.20		4.240e-02		114.482
2		0.00		8.80		3.719e-02		119.521
2		0.00		8.40		3.679e-02		125.407
2		0.00		8.00		3.465e-02		128.189
2		0.00		7.60		3.498e-02		125.656
2		0.00		7.20		3.645e-02		120.039
2		0.00		6.80		3.485e-02		128.920
2		0.00		6.40		3.483e-02		133.443
2		0.00		6.00		3.108e-02		135.599
2		0.00		5.60		2.901e-02		134.602
2		0.00		5.20		2.349e-02		123.924
2		0.00		4.80		1.915e-02		121.490
2		0.00		4.40		1.410e-02		106.543
2		0.00		4.00		9.499e-03		75.582
2		0.00		3.60		6.054e-03		47.696
2		0.00		3.20		4.729e-03		-80.782
2		0.00		2.80		6.679e-03		-84.078
2		0.00		2.40		1.183e-02		-75.637
2		0.00		2.00		1.723e-02		-65.411
2		0.00		1.60		2.286e-02		-58.943
2		0.00		1.20		2.945e-02		-57.093
2		0.00		0.80		3.481e-02		-52.813
2		0.00		0.40		4.032e-02		-50.982
2		0.00		0.00		4.435e-02		-48.955
2		0.00		-0.40		4.754e-02		-48.512
2		0.00		-0.80		5.006e-02		-50.363
2		0.00		-1.20		5.135e-02		-49.358
2		0.00		-1.60		5.213e-02		-47.522
2		0.00		-2.00		5.301e-02		-52.742
2		0.00		-2.40		5.038e-02		-50.932
2		0.00		-2.80		5.258e-02		-51.943
2		0.00		-3.20		4.896e-02		-64.381
2		0.00		-3.60		5.307e-02		-58.747
2		0.00		-4.00		5.530e-02		-45.907
2		0.00		-4.40		5.663e-02		-45.414
2		0.00		-4.80		5.747e-02		-32.538
2		0.00		-5.20		5.472e-02		-44.882
2		0.00		-5.60		5.845e-02		-41.801
2		0.00		-6.00		5.964e-02		-33.350
2		0.00		-6.40		5.822e-02		-37.781
2		0.00		-6.80		5.477e-02		-55.302
2		0.00		-7.20		6.350e-02		-35.413
2		0.00		-7.60		5.885e-02		-50.295
2		0.00		-8.00		6.021e-02		-32.596
2		0.00		-8.40		5.929e-02		-45.937
2		0.00		-8.80		6.295e-02		-43.659
2		0.00		-9.20		5.375e-02		-37.073
2		0.00		-9.60		4.611e-02		-39.042
2		0.00		-10.00		3.835e-02		-52.714
2		0.00		-9.60		3.969e-02		-44.948
2		0.00		-9.20		4.936e-02		-35.217
2		0.00		-8.80		5.927e-02		-33.428
2		0.00		-8.40		5.982e-02		-26.754
2		0.00		-8.00		5.699e-02		-28.842
2		0.00		-7.60		5.815e-02		-33.667
2		0.00		-7.20		5.654e-02		-37.774
2		0.00		-6.80		5.284e-02		-46.157
2		0.00		-6.40		5.592e-02		-36.975
2		0.00		-6.00		5.536e-02		-47.280
2		0.00		-5.60		5.395e-02		-44.207
2		0.00		-5.20		5.342e-02		-45.214
2		0.00		-4.80		5.604e-02		-39.034
2		0.00		-4.40		5.009e-02		-43.297
2		0.00		-4.00		4.656e-02		-46.367
2		0.00		-3.60		4.874e-02		-55.231
2		0.00		-3.20		4.700e-02		-54.473
2		0.00		-2.80		4.466e-02		-49.858
2		0.00		-2.40		4.210e-02		-51.147
2		0.00		-2.00		3.771e-02		-51.070
2		0.00		-1.60		3.367e-02		-51.892
2		0.00		-1.20		2.808e-02		-49.911
2		0.00		-0.80		2.345e-02		-53.354
2		0.00		-0.40		1.867e-02		-57.458
3		0.00		0.00		1.285e-02		-57.678
3		0.00		0.40		7.489e-03		-78.323
3		0.00		0.80		3.232e-03		-87.969
3		0.00		1.20		4.894e-03		76.190
3		0.00		1.60		9.451e-03		107.721
3		0.00		2.00		1.476e-02		121.332
3		0.00		2.40		2.015e-02		122.627
3		0.00		2.80		2.537e-02		125.688
3		0.00		3.20		2.917e-02		131.717
3		0.00		3.60		2.976e-02		133.067
3		0.00		4.00		3.104e-02		137.091
3		0.00		4.40		2.983e-02		129.469
3		0.00		4.80		3.198e-02		125.588
3		0.00		5.20		3.180e-02		124.828
3		0.00		5.60		3.380e-02		127.315
3		0.00		6.00		3.751e-02		125.586
3		0.00		6.40		3.885e-02		136.921
3		0.00		6.80		4.010e-02		132.832
3		0.00		7.20		4.109e-02		124.410
3		0.00		7.60		4.282e-02		117.026
3		0.00		8.00		4.464e-02		111.771
3		0.00		8.40		4.609e-02		102.379
3		0.00		8.80		4.723e-02		110.463
3		0.00		9.20		4.762e-02		106.834
3		0.00		9.60		4.682e-02		108.085
3		0.00		10.00		4.672e-02		114.802
3		0.00		9.60		4.236e-02		100.553
3		0.00		9.20		4.281e-02		105.859
3		0.00		8.80		4.282e-02		121.255
3		0.00		8.40		4.054e-02		124.150
3		0.00		8.00		4.130e-02		131.267
3		0.00		7.60		3.879e-02		129.733
3		0.00		7.20		3.596e-02		112.233
3		0.00		6.80		3.754e-02		117.030
3		0.00		6.40		3.768e-02		121.310
3		0.00		6.00		3.335e-02		134.098
3		0.00		5.60		2.892e-02		135.607
3		0.00		5.20		2.558e-02		127.652
3		0.00		4.80		2.094e-02		117.865
3		0.00		4.40		1.635e-02		123.211
3		0.00		4.00		1.136e-02		103.324
3		0.00		3.60		6.013e-03		8.879
3		0.00		3.20		5.539e-03		-114.887
3		0.00		2.80		1.056e-02		-76.223
3		0.00		2.40		1.582e-02		-67.626
3		0.00		2.00		2.008e-02		-62.435
3		0.00		1.60		2.687e-02		-57.454
3		0.00		1.20		3.362e-02		-55.089
3		0.00		0.80		3.901e-02		-52.918
3		0.00		0.40		4.344e-02		-53.129
3		0.00		0.00		4.830e-02		-50.069
3		0.00		-0.40		4.984e-02		-48.358
3		0.00		-0.80		4.942e-02		-48.692
3		0.00		-1.20		4.899e-02		-49.628
3		0.00		-1.60		5.104e-02		-47.805
3		0.00		-2.00		5.321e-02		-52.888
3		0.00		-2.40		5.565e-02		-50.512
3		0.00		-2.80		5.517e-02		-38.520
3		0.00		-3.20		5.953e-02		-45.874
3		0.00		-3.60		5.420e-02		-53.935
3		0.00		-4.00		5.954e-02		-38.140
3		0.00		-4.40		5.744e-02		-41.549
3		0.00		-4.80		5.685e-02		-27.914
3		0.00		-5.20		5.379e-02		-35.494
3		0.00		-5.60		4.860e-02		-70.802
3		0.00		-6.00		5.548e-02		-33.700
3		0.00		-6.40		5.676e-02		-49.397
3		0.00		-6.80		6.081e-02		-38.417
3		0.00		-7.20		6.095e-02		-28.080
3		0.00		-7.60		5.525e-02		-37.780
3		0.00		-8.00		5.893e-02		-24.654
3		0.00		-8.40		5.814e-02		-38.877
3		0.00		-8.80		5.515e-02		-36.066
3		0.00		-9.20		5.602e-02		-32.423
3		0.00		-9.60		5.103e-02		-36.502
3		0.00		-10.00		4.830e-02		-35.873
3		0.00		-9.60		5.357e-02		-31.524
3		0.00		-9.20		5.354e-02		-32.147
3		0.00		-8.80		5.630e-02		-28.452
3		0.00		-8.40		5.547e-02		-31.861
3		0.00		-8.00		5.482e-02		-48.066
3		0.00		-7.60		5.065e-02		-53.327
3		0.00		-7.20		5.524e-02		-49.927
3		0.00		-6.80		5.732e-02		-33.428
3		0.00		-6.40		5.472e-02		-35.068
3		0.00		-6.00		5.238e-02		-35.012
3		0.00		-5.60		5.283e-02		-27.987
3		0.00		-5.20		4.986e-02		-46.547
3		0.00		-4.80		4.930e-02		-54.478
3		0.00		-4.40		5.210e-02		-46.784
3		0.00		-4.00		4.847e-02		-45.398
3		0.00		-3.60		4.805e-02		-48.480
3		0.00		-3.20		4.683e-02		-49.398
3		0.00		-2.80		4.370e-02		-48.023
3		0.00		-2.40		4.155e-02		-48.168
3		0.00		-2.00		3.713e-02		-48.999
3		0.00		-1.60		3.249e-02		-51.560
3		0.00		-1.20		2.888e-02		-51.588
3		0.00		-0.80		2.442e-02		-51.841
3		0.00		-0.40		2.007e-02		-56.718
4		0.00		0.00		1.518e-02		-59.153
4		0.00		0.40		9.657e-03		-73.030
4		0.00		0.80		4.600e-03		-93.123
4		0.00		1.20		3.868e-03		28.057
4		0.00		1.60		8.533e-03		107.352
4		0.00		2.00		1.386e-02		112.290
4		0.00		2.40		1.825e-02		125.427
4		0.00		2.80		2.254e-02		128.801
4		0.00		3.20		2.599e-02		126.423
4		0.00		3.60		2.987e-02		128.215
4		0.00		4.00		3.250e-02		131.302
4		0.00		4.40		3.309e-02		132.380
4		0.00		4.80		3.279e-02		129.759
4		0.00		5.20		3.487e-02		129.741
4		0.00		5.60		3.894e-02		122.780
4		0.00		6.00		3.971e-02		126.041
4		0.00		6.40		4.117e-02		120.904
4		0.00		6.80		4.087e-02		109.952
4		0.00		7.20		4.167e-02		122.406
4		0.00		7.60		4.407e-02		121.787
4		0.00		8.00		4.436e-02		134.932
4		0.00		8.40		4.164e-02		105.081
4		0.00		8.80		4.087e-02		105.161
4		0.00		9.20		4.818e-02		111.668
4		0.00		9.60		4.517e-02		93.531
4		0.00		10.00		4.463e-02		103.518
4		0.00		9.60		4.177e-02		81.609
4		0.00		9.20		4.361e-02		113.254
4		0.00		8.80		4.426e-02		125.711
4		0.00		8.40		4.343e-02		125.466
4		0.00		8.00		4.061e-02		125.893
4		0.00		7.60		4.022e-02		117.559
4		0.00		7.20		3.869e-02		125.416
4		0.00		6.80		3.920e-02		126.771
4		0.00		6.40		3.832e-02		127.018
4		0.00		6.00		3.278e-02		120.668
4		0.00		5.60		2.883e-02		126.183
4		0.00		5.20		2.481e-02		136.074
4		0.00		4.80		2.085e-02		128.817
4		0.00		4.40		1.593e-02		110.759
4		0.00		4.00		1.226e-02		88.354
4		0.00		3.60		6.957e-03		40.491
4		0.00		3.20		4.735e-03		-58.667
4		0.00		2.80		7.911e-03		-106.273
4		0.00		2.40		1.347e-02		-80.139
4		0.00		2.00		1.915e-02		-65.580
4		0.00		1.60		2.381e-02		-59.440
4		0.00		1.20		2.981e-02		-56.080
4		0.00		0.80		3.511e-02		-53.849
4		0.00		0.40		3.973e-02		-52.520
4		0.00		0.00		4.596e-02		-44.642
4		0.00		-0.40		4.855e-02		-50.578
4		0.00		-0.80		5.255e-02		-50.128
4		0.00		-1.20		5.294e-02		-49.312
4		0.00		-1.60		5.198e-02		-43.072
4		0.00		-2.00		5.070e-02		-50.481
4		0.00		-2.40		5.185e-02		-47.438
4		0.00		-2.80		5.098e-02		-52.543
4		0.00		-3.20		5.263e-02		-49.154
4		0.00		-3.60		5.280e-02		-43.939
4		0.00		-4.00		5.459e-02		-32.873
4		0.00		-4.40		5.240e-02		-43.140
4		0.00		-4.80		5.645e-02		-42.096
4		0.00		-5.20		5.446e-02		-37.204
4		0.00		-5.60		5.214e-02		-39.808
4		0.00		-6.00		5.103e-02		-44.155
4		0.00		-6.40		5.138e-02		-53.918
4		0.00		-6.80		5.566e-02		-49.530
4		0.00		-7.20		5.708e-02		-38.990
4		0.00		-7.60		5.698e-02		-28.755
4		0.00		-8.00		5.899e-02		-28.162
4		0.00		-8.40		6.185e-02		-41.694
4		0.00		-8.80		5.741e-02		-26.017
4		0.00		-9.20		5.724e-02		-41.247
4		0.00		-9.60		4.660e-02		-43.100
4		0.00		-10.00		3.743e-02		-50.355
4		0.00		-9.60		4.744e-02		-38.031
4		0.00		-9.20		5.236e-02		-29.895
4		0.00		-8.80		5.116e-02		-26.330
4		0.00		-8.40		5.038e-02		-28.468
4		0.00		-8.00		5.307e-02		-37.274
4		0.00		-7.60		5.751e-02		-32.686
4		0.00		-7.20		5.935e-02		-33.782
4		0.00		-6.80		5.589e-02		-28.717
4		0.00		-6.40		5.222e-02		-33.226
4		0.00		-6.00		4.693e-02		-49.997
4		0.00		-5.60		5.004e-02		-50.279
4		0.00		-5.20		5.244e-02		-45.636
4		0.00		-4.80		5.018e-02		-41.246
4		0.00		-4.40		5.031e-02		-43.579
4		0.00		-4.00		4.987e-02		-45.851
4		0.00		-3.60		4.449e-02		-50.154
4		0.00		-3.20		4.183e-02		-50.098
4		0.00		-2.80		4.180e-02		-49.665
4		0.00		-2.40		3.835e-02		-48.924
4		0.00		-2.00		3.540e-02		-49.023
4		0.00		-1.60		3.058e-02		-52.959
4		0.00		-1.20		2.557e-02		-52.847
4		0.00		-0.80		2.118e-02		-56.262
4		0.00		-0.40		1.676e-02		-55.876
5		0.00		0.00		1.146e-02		-64.433
5		0.00		0.40		6.677e-03		-92.392
5		0.00		0.80		3.070e-03		-72.551
5		0.00		1.20		6.079e-03		86.159
5		0.00		1.60		1.088e-02		127.097
5		0.00		2.00		1.587e-02		133.117
5		0.00		2.40		1.950e-02		130.939
5		0.00		2.80		2.358e-02		125.732
5		0.00		3.20		2.497e-02		123.112
5		0.00		3.60		2.888e-02		122.768
5		0.00		4.00		2.911e-02		115.749
5		0.00		4.40		3.205e-02		124.633
5		0.00		4.80		3.360e-02		132.237
5		0.00		5.20		3.205e-02		130.774
5		0.00		5.60		3.231e-02		120.400
5		0.00		6.00		3.645e-02		118.374
5		0.00		6.40		3.707e-02		116.917
5		0.00		6.80		3.735e-02		130.150
5		0.00		7.20		3.865e-02		121.891
5		0.00		7.60		4.312e-02		119.619
5		0.00		8.00		4.350e-02		124.749
5		0.00		8.40		4.011e-02		106.457
5		0.00		8.80		4.265e-02		110.895
5		0.00		9.20		3.990e-02		94.752
5		0.00		9.60		3.906e-02		83.903
5		0.00		10.00		4.300e-02		111.643
5		0.00		9.60		3.919e-02		94.427
5		0.00		9.20		4.140e-02		116.479
5		0.00		8.80		4.238e-02		116.730
5		0.00		8.40		4.078e-02		101.108
5		0.00		8.00		3.999e-02		87.892
5		0.00		7.60		3.948e-02		109.237
5		0.00		7.20		3.803e-02		120.265
5		0.00		6.80		3.652e-02		118.795
5		0.00		6.40		3.560e-02		127.256
5		0.00		6.00		3.551e-02		130.869
5		0.00		5.60		3.113e-02		130.950
5		0.00		5.20		2.787e-02		124.560
5		0.00		4.80		2.362e-02		120.901
5		0.00		4.40		1.882e-02		107.618
5		0.00		4.00		1.339e-02		85.925
5		0.00		3.60		8.817e-03		47.050
5		0.00		3.20		4.760e-03		-78.552
5		0.00		2.80		7.376e-03		-98.853
5		0.00		2.40		1.210e-02		-81.233
5		0.00		2.00		1.915e-02		-69.503
5		0.00		1.60		2.457e-02		-61.853
5		0.00		1.20		2.967e-02		-59.232
5		0.00		0.80		3.557e-02		-55.406
5		0.00		0.40		4.012e-02		-52.655
5		0.00		0.00		4.465e-02		-49.711
5		0.00		-0.40		4.656e-02		-47.998
5		0.00		-0.80		4.482e-02		-46.398
5		0.00		-1.20		4.343e-02		-49.826
5		0.00		-1.60		4.573e-02		-55.733
5		0.00		-2.00		4.867e-02		-53.392
5		0.00		-2.40		5.097e-02		-51.127
5		0.00		-2.80		5.266e-02		-52.202
5		0.00		-3.20		5.708e-02		-47.887
5		0.00		-3.60		5.232e-02		-37.074
5		0.00		-4.00		5.339e-02		-36.183
5		0.00		-4.40		5.479e-02		-30.981
5		0.00		-4.80		5.658e-02		-36.803
5		0.00		-5.20		5.460e-02		-44.657
5		0.00		-5.60		5.773e-02		-43.677
5		0.00		-6.00		5.872e-02		-36.227
5		0.00		-6.40		5.829e-02		-28.223
5		0.00		-6.80		5.598e-02		-36.201
5		0.00		-7.20		5.545e-02		-34.967
5		0.00		-7.60		5.611e-02		-38.892
5		0.00		-8.00		5.137e-02		-47.523
5		0.00		-8.40		4.787e-02		-33.979
5		0.00		-8.80		4.971e-02		-37.875
5		0.00		-9.20		5.156e-02		-39.517
5		0.00		-9.60		4.785e-02		-43.020
5		0.00		-10.00		4.329e-02		-47.431
5		0.00		-9.60		4.148e-02		-55.715
5		0.00		-9.20		5.103e-02		-30.986
5		0.00		-8.80		5.685e-02		-26.307
5		0.00		-8.40		5.476e-02		-27.629
5		0.00		-8.00		5.734e-02		-31.369
5		0.00		-7.60		5.483e-02		-35.265
5		0.00		-7.20		5.789e-02		-28.572
5		0.00		-6.80		5.604e-02		-32.089
5		0.00		-6.40		5.342e-02		-36.191
5		0.00		-6.00		5.590e-02		-37.001
5		0.00		-5.60		5.436e-02		-39.075
5		0.00		-5.20		5.422e-02		-39.571
5		0.00		-4.80		5.041e-02		-43.929
5		0.00		-4.40		4.894e-02		-45.527
5		0.00		-4.00		4.849e-02		-48.590
5		0.00		-3.60		4.864e-02		-44.051
5		0.00		-3.20		4.575e-02		-47.652
5		0.00		-2.80		4.352e-02		-45.557
5		0.00		-2.40		4.218e-02		-46.944
5		0.00		-2.00		3.811e-02		-49.245
5		0.00		-1.60		3.360e-02		-50.490
5		0.00		-1.20		2.925e-02		-51.916
5		0.00		-0.80		2.490e-02		-50.886
5		0.00		-0.40		2.003e-02		-54.118
6		0.00		0.00		1.447e-02		-56.867
6		0.00		0.40		9.421e-03		-67.905
6		0.00		0.80		4.234e-03		-88.938
6		0.00		1.20		4.403e-03		46.512
6		0.00		1.60		9.629e-03		111.988
6		0.00		2.00		1.437e-02		111.509
6		0.00		2.40		2.006e-02		117.905
6		0.00		2.80		2.441e-02		119.349
6		0.00		3.20		2.787e-02		121.745
6		0.00		3.60		3.054e-02		126.608
6		0.00		4.00		3.258e-02		125.362
6		0.00		4.40		3.578e-02		122.399
6		0.00		4.80		3.889e-02		121.229
6		0.00		5.20		3.639e-02		121.746
6		0.00		5.60		3.769e-02		117.668
6		0.00		6.00		3.469e-02		107.582
6		0.00		6.40		4.109e-02		118.827
6		0.00		6.80		3.646e-02		101.694
6		0.00		7.20		4.234e-02		105.352
6		0.00		7.60		4.458e-02		98.250
6		0.00		8.00		4.011e-02		107.310
6		0.00		8.40		4.322e-02		97.748
6		0.00		8.80		4.367e-02		100.371
6		0.00		9.20		4.417e-02		102.449
6		0.00		9.60		4.264e-02		95.736
6		0.00		10.00		4.154e-02		102.726
6		0.00		9.60		4.014e-02		101.881
6		0.00		9.20		3.967e-02		103.706
6		0.00		8.80		3.579e-02		97.074
6		0.00		8.40		4.004e-02		109.937
6		0.00		8.00		3.554e-02		106.833
6		0.00		7.60		3.739e-02		127.048
6		0.00		7.20		3.780e-02		124.417
6		0.00		6.80		3.595e-02		129.935
6		0.00		6.40		3.528e-02		132.777
6		0.00		6.00		3.530e-02		132.095
6		0.00		5.60		3.354e-02		130.757
6		0.00		5.20		2.956e-02		129.716
6		0.00		4.80		2.586e-02		122.712
6		0.00		4.40		1.938e-02		124.396
6		0.00		4.00		1.462e-02		112.183
6		0.00		3.60		9.314e-03		85.976
6		0.00		3.20		5.863e-03		10.485
6		0.00		2.80		5.689e-03		-119.224
6		0.00		2.40		1.023e-02		-89.728
6		0.00		2.00		1.545e-02		-73.476
6		0.00		1.60		2.030e-02		-65.845
6		0.00		1.20		2.573e-02		-58.261
6		0.00		0.80		3.233e-02		-57.237
6		0.00		0.40		3.705e-02		-54.834
6		0.00		0.00		4.250e-02		-53.732
6		0.00		-0.40		4.709e-02		-53.048
6		0.00		-0.80		4.475e-02		-50.364
6		0.00		-1.20		4.689e-02		-49.372
6		0.00		-1.60		5.285e-02		-47.102
6		0.00		-2.00		5.319e-02		-46.516
6		0.00		-2.40		5.299e-02		-39.198
6		0.00		-2.80		5.368e-02		-46.346
6		0.00		-3.20		4.883e-02		-55.142
6		0.00		-3.60		5.760e-02		-43.802
6		0.00		-4.00		5.331e-02		-37.298
6		0.00		-4.40		5.694e-02		-41.598
6		0.00		-4.80		5.713e-02		-47.984
6		0.00		-5.20		5.165e-02		-45.707
6		0.00		-5.60		5.396e-02		-52.787
6		0.00		-6.00		5.183e-02		-33.769
6		0.00		-6.40		5.278e-02		-29.727
6		0.00		-6.80		5.812e-02		-32.290
6		0.00		-7.20		5.839e-02		-34.990
6		0.00		-7.60		5.464e-02		-43.086
6		0.00		-8.00		5.934e-02		-37.085
6		0.00		-8.40		5.494e-02		-50.999
6		0.00		-8.80		4.985e-02		-39.179
6		0.00		-9.20		5.338e-02		-25.126
6		0.00		-9.60		4.652e-02		-42.222
6		0.00		-10.00		3.983e-02		-45.491
6		0.00		-9.60		4.438e-02		-36.582
6		0.00		-9.20		5.245e-02		-37.821
6		0.00		-8.80		5.816e-02		-43.369
6		0.00		-8.40		5.964e-02		-31.027
6		0.00		-8.00		6.031e-02		-42.472
6		0.00		-7.60		5.688e-02		-31.555
6		0.00		-7.20		5.387e-02		-29.954
6		0.00		-6.80		5.051e-02		-39.356
6		0.00		-6.40		5.356e-02		-49.497
6		0.00		-6.00		5.244e-02		-49.339
6		0.00		-5.60		4.846e-02		-45.981
6		0.00		-5.20		4.578e-02		-43.872
6		0.00		-4.80		4.876e-02		-46.396
6		0.00		-4.40		4.892e-02		-42.150
6		0.00		-4.00		4.747e-02		-47.013
6		0.00		-3.60		4.713e-02		-47.692
6		0.00		-3.20		4.616e-02		-50.248
6		0.00		-2.80		4.409e-02		-48.117
6		0.00		-2.40		4.026e-02		-47.922
6		0.00		-2.00		3.679e-02		-49.085
6		0.00		-1.60		3.185e-02		-49.826
6		0.00		-1.20		2.802e-02		-49.783
6		0.00		-0.80		2.375e-02		-50.520
6		0.00		-0.40		1.832e-02		-52.818
7		0.00		0.00		1.265e-02		-60.258
7		0.00		0.40		6.312e-03		-84.424
7		0.00		0.80		3.180e-03		-55.826
7		0.00		1.20		6.059e-03		91.491
7		0.00		1.60		1.170e-02		107.150
7		0.00		2.00		1.720e-02		105.182
7		0.00		2.40		2.179e-02		116.020
7		0.00		2.80		2.593e-02		118.818
7		0.00		3.20		2.979e-02		126.767
7		0.00		3.60		3.361e-02		134.604
7		0.00		4.00		3.541e-02		124.677
7		0.00		4.40		3.532e-02		124.875
7		0.00		4.80		3.814e-02		134.674
7		0.00		5.20		3.913e-02		130.486
7		0.00		5.60		4.124e-02		128.271
7		0.00		6.00		4.033e-02		115.986
7		0.00		6.40		3.288e-02		101.619
7		0.00		6.80		3.501e-02		107.682
7		0.00		7.20		4.457e-02		121.789
7		0.00		7.60		4.575e-02		133.627
7		0.00		8.00		4.386e-02		90.299
7		0.00		8.40		4.639e-02		95.197
7		0.00		8.80		4.808e-02		100.928
7		0.00		9.20		4.401e-02		97.511
7		0.00		9.60		4.014e-02		82.927
7		0.00		10.00		3.296e-02		77.600
7		0.00		9.60		4.330e-02		104.111
7		0.00		9.20		4.404e-02		107.613
7		0.00		8.80		4.200e-02		77.360
7		0.00		8.40		4.172e-02		99.513
7		0.00		8.00		4.231e-02		116.871
7		0.00		7.60		4.170e-02		100.459
7		0.00		7.20		3.475e-02		98.871
7		0.00		6.80		3.628e-02		124.272
7		0.00		6.40		3.979e-02		118.590
7		0.00		6.00		3.887e-02		122.424
7		0.00		5.60		3.314e-02		123.710
7		0.00		5.20		3.078e-02		124.936
7		0.00		4.80		2.756e-02		122.395
7		0.00		4.40		2.150e-02		101.970
7		0.00		4.00		1.515e-02		104.548
7		0.00		3.60		1.043e-02		78.943
7		0.00		3.20		5.747e-03		-29.380
7		0.00		2.80		6.323e-03		-116.163
7		0.00		2.40		1.168e-02		-82.139
7		0.00		2.00		1.686e-02		-68.141
7		0.00		1.60		2.150e-02		-62.302
7		0.00		1.20		2.701e-02		-59.692
7		0.00		0.80		3.287e-02		-55.620
7		0.00		0.40		3.898e-02		-51.290
7		0.00		0.00		4.205e-02		-49.833
7		0.00		-0.40		4.500e-02		-51.762
7		0.00		-0.80		4.610e-02		-50.397
7		0.00		-1.20		5.145e-02		-46.487
7		0.00		-1.60		5.279e-02		-44.797
7		0.00		-2.00		5.039e-02		-52.172
7		0.00		-2.40		4.777e-02		-52.995
7		0.00		-2.80		5.075e-02		-53.354
7		0.00		-3.20		5.284e-02		-37.052
7		0.00		-3.60		5.446e-02		-38.022
7		0.00		-4.00		5.569e-02		-48.372
7		0.00		-4.40		5.251e-02		-32.542
7		0.00		-4.80		5.703e-02		-35.988
7		0.00		-5.20		5.416e-02		-26.065
7		0.00		-5.60		5.771e-02		-43.416
7		0.00		-6.00		5.359e-02		-51.852
7		0.00		-6.40		5.461e-02		-47.698
7		0.00		-6.80		5.248e-02		-22.035
7		0.00		-7.20		5.536e-02		-39.565
7		0.00		-7.60		5.856e-02		-31.235
7		0.00		-8.00		6.136e-02		-38.490
7		0.00		-8.40		5.640e-02		-32.376
7		0.00		-8.80		5.484e-02		-34.907
7		0.00		-9.20		5.399e-02		-30.932
7		0.00		-9.60		4.460e-02		-39.864
7		0.00		-10.00		4.032e-02		-48.347
7		0.00		-9.60		4.642e-02		-43.587
7		0.00		-9.20		5.341e-02		-36.174
7		0.00		-8.80		5.583e-02		-38.759
7		0.00		-8.40		5.836e-02		-36.878
7		0.00		-8.00		5.657e-02		-33.168
7		0.00		-7.60		5.901e-02		-33.619
7		0.00		-7.20		5.656e-02		-23.589
7		0.00		-6.80		5.240e-02		-35.192
7		0.00		-6.40		5.000e-02		-53.185
7		0.00		-6.00		4.797e-02		-47.890
7		0.00		-5.60		4.993e-02		-38.170
7		0.00		-5.20		4.888e-02		-37.472
7		0.00		-4.80		4.971e-02		-41.505
7		0.00		-4.40		4.966e-02		-47.299
7		0.00		-4.00		4.750e-02		-44.973
7		0.00		-3.60		4.485e-02		-46.969
7		0.00		-3.20		4.469e-02		-43.584
7		0.00		-2.80		4.134e-02		-47.158
7		0.00		-2.40		3.840e-02		-50.819
7		0.00		-2.00		3.594e-02		-48.803
7		0.00		-1.60		3.184e-02		-47.523
7		0.00		-1.20		2.819e-02		-49.907
7		0.00		-0.80		2.364e-02		-51.820
7		0.00		-0.40		1.793e-02		-54.963
8		0.00		0.00		1.233e-02		-62.895
8		0.00		0.40		6.197e-03		-78.992
8		0.00		0.80		2.970e-03		-56.667
8		0.00		1.20		6.562e-03		74.201
8		0.00		1.60		1.204e-02		117.554
8		0.00		2.00		1.766e-02		129.813
8		0.00		2.40		2.258e-02		134.413
8		0.00		2.80		2.467e-02		135.372
8		0.00		3.20		2.811e-02		124.356
8		0.00		3.60		3.276e-02		130.084
8		0.00		4.00		3.710e-02		126.832
8		0.00		4.40		3.944e-02		118.990
8		0.00		4.80		3.771e-02		109.734
8		0.00		5.20		4.248e-02		121.931
8		0.00		5.60		4.467e-02		134.415
8		0.00		6.00		4.052e-02		118.175
8		0.00		6.40		4.016e-02		109.118
8		0.00		6.80		4.150e-02		115.043
8		0.00		7.20		4.512e-02		113.118
8		0.00		7.60		4.325e-02		109.039
8		0.00		8.00		4.800e-02		109.849
8		0.00		8.40		4.883e-02		100.147
8		0.00		8.80		4.416e-02		100.196
8		0.00		9.20		3.923e-02		98.096
8		0.00		9.60		4.648e-02		103.382
8		0.00		10.00		4.349e-02		108.957
8		0.00		9.60		4.356e-02		106.283
8		0.00		9.20		4.154e-02		83.769
8		0.00		8.80		4.367e-02		96.619
8		0.00		8.40		4.207e-02		116.695
8		0.00		8.00		4.391e-02		108.448
8		0.00		7.60		4.094e-02		103.626
8		0.00		7.20		3.534e-02		112.062
8		0.00		6.80		3.662e-02		126.990
8		0.00		6.40		3.651e-02		128.466
8		0.00		6.00		3.527e-02		115.553
8		0.00		5.60		2.802e-02		126.586
8		0.00		5.20		2.940e-02		121.334
8		0.00		4.80		2.631e-02		125.838
8		0.00		4.40		2.302e-02		118.967
8		0.00		4.00		1.771e-02		102.381
8		0.00		3.60		1.236e-02		83.189
8		0.00		3.20		6.231e-03		14.307
8		0.00		2.80		6.397e-03		-111.692
8		0.00		2.40		1.105e-02		-82.570
8		0.00		2.00		1.660e-02		-69.458
8		0.00		1.60		2.251e-02		-61.481
8		0.00		1.20		2.809e-02		-59.543
8		0.00		0.80		3.306e-02		-56.941
8		0.00		0.40		3.921e-02		-55.354
8		0.00		0.00		4.388e-02		-53.044
8		0.00		-0.40		4.776e-02		-49.555
8		0.00		-0.80		4.877e-02		-49.200
8		0.00		-1.20		4.818e-02		-54.763
8		0.00		-1.60		4.646e-02		-48.343
8		0.00		-2.00		4.900e-02		-46.872
8		0.00		-2.40		5.314e-02		-41.638
8		0.00		-2.80		5.420e-02		-49.181
8		0.00		-3.20		5.366e-02		-44.792
8		0.00		-3.60		5.721e-02		-40.007
8		0.00		-4.00		5.351e-02		-49.377
8		0.00		-4.40		5.566e-02		-40.830
8		0.00		-4.80		5.710e-02		-42.884
8		0.00		-5.20		5.276e-02		-47.218
8		0.00		-5.60		5.506e-02		-40.292
8		0.00		-6.00		4.967e-02		-29.733
8		0.00		-6.40		5.559e-02		-33.127
8		0.00		-6.80		5.959e-02		-38.265
8		0.00		-7.20		5.661e-02		-27.366
8		0.00		-7.60		6.009e-02		-35.857
8		0.00		-8.00		5.653e-02		-40.242
8		0.00		-8.40		5.561e-02		-33.905
8		0.00		-8.80		5.232e-02		-40.143
8		0.00		-9.20		5.278e-02		-24.006
8		0.00		-9.60		4.990e-02		-28.253
8		0.00		-10.00		3.897e-02		-41.314
8		0.00		-9.60		4.875e-02		-45.344
8		0.00		-9.20		5.222e-02		-32.765
8		0.00		-8.80		5.609e-02		-20.661
8		0.00		-8.40		5.578e-02		-25.329
8		0.00		-8.00		5.828e-02		-30.540
8		0.00		-7.60		5.398e-02		-30.222
8		0.00		-7.20		6.093e-02		-34.431
8		0.00		-6.80		5.628e-02		-35.067
8		0.00		-6.40		5.199e-02		-44.888
8		0.00		-6.00		5.010e-02		-43.804
8		0.00		-5.60		4.436e-02		-66.409
8		0.00		-5.20		4.935e-02		-39.198
8		0.00		-4.80		4.807e-02		-36.796
8		0.00		-4.40		4.889e-02		-41.299
8		0.00		-4.00		4.934e-02		-48.229
8		0.00		-3.60		4.891e-02		-49.936
8		0.00		-3.20		4.658e-02		-51.779
8		0.00		-2.80		4.395e-02		-48.327
8		0.00		-2.40		3.979e-02		-50.902
8		0.00		-2.00		3.588e-02		-51.076
8		0.00		-1.60		3.212e-02		-50.939
8		0.00		-1.20		2.776e-02		-51.543
8		0.00		-0.80		2.336e-02		-54.514
8		0.00		-0.40		1.801e-02		-52.919
